Data from Apollo_Calib_20240827__AbsoluteIrradiance__618__09-27-00-953.txt Node

Date: Wed Aug 28 09:27:00 BST 2024
User: biology
Spectrometer: FLMT08252
Trigger mode: 0
Integration Time (sec): 5.000000E-1
Scans to average: 5
Electric dark correction enabled: true
Nonlinearity correction enabled: false
Boxcar width: 0
XAxis mode: Wavelengths
Number of Pixels in Spectrum: 3648
>>>>>Begin Spectral Data<<<<<
179.588	-0
179.809	-0
180.03	-0
180.251	-0
180.473	-0
180.694	0
180.915	0
181.136	-0
181.357	0
181.578	-0
181.799	0
182.02	-0
182.241	0
182.462	0
182.683	0
182.904	-0
183.125	-0
183.346	-0
183.567	-0
183.788	-0
184.009	-0
184.23	0
184.451	0
184.672	-0
184.892	-0
185.113	-0
185.334	0
185.555	-0
185.776	-0
185.996	0
186.217	0
186.438	-0
186.659	-0
186.879	0
187.1	0
187.321	-0
187.541	-0
187.762	-0
187.983	-0
188.203	-0
188.424	-0
188.644	-0
188.865	-0
189.086	-0
189.306	-0
189.527	-0
189.747	-0
189.968	-0
190.188	0
190.409	-0
190.629	0
190.849	-0
191.07	-0
191.29	-0
191.511	0
191.731	-0
191.951	-0
192.172	-0
192.392	-0
192.612	-0
192.833	-0
193.053	0
193.273	-0
193.493	-0
193.714	-0
193.934	0
194.154	-0
194.374	0
194.594	-0
194.815	-0
195.035	-0
195.255	-0
195.475	-0
195.695	0
195.915	-0
196.135	-0
196.355	0
196.575	0
196.795	-0
197.015	-0
197.235	-0
197.455	-0
197.675	-0
197.895	-0
198.115	-0
198.335	0
198.555	-0
198.775	-0
198.995	-0
199.214	0
199.434	-0
199.654	-0
199.874	-0
200.094	0.43
200.313	-1.22
200.533	-0.64
200.753	-1.24
200.973	-0.02
201.192	0.79
201.412	-0.9
201.632	-1.27
201.851	0.53
202.071	-0.89
202.291	-0.6
202.51	-0.35
202.73	0.42
202.95	-0.83
203.169	-0.89
203.389	-0.38
203.608	-0.4
203.828	-0.99
204.047	-0.38
204.267	0.27
204.486	-0.18
204.706	-0.12
204.925	-0.16
205.145	-0.2
205.364	0.09
205.583	0.74
205.803	-0.69
206.022	-0.66
206.242	0
206.461	-0.1
206.68	-0.61
206.9	-0.17
207.119	0.22
207.338	0.41
207.557	-0.51
207.777	-0.29
207.996	-0.46
208.215	0.45
208.434	-0.21
208.654	-0.37
208.873	-0.17
209.092	0.34
209.311	-0.19
209.53	-0.34
209.749	-0.37
209.968	-0.46
210.187	-0.1
210.407	-0.59
210.626	-0.35
210.845	-0.13
211.064	-0.08
211.283	-0.15
211.502	0.07
211.721	-0.26
211.94	-0.37
212.159	-0.02
212.377	-0.1
212.596	0.04
212.815	0.04
213.034	-0.08
213.253	0.04
213.472	0
213.691	-0.25
213.91	-0.56
214.128	-0.31
214.347	0.27
214.566	-0.53
214.785	-0.58
215.003	-0.13
215.222	0.02
215.441	-0.26
215.66	-0.21
215.878	-0.26
216.097	0.13
216.316	-0.32
216.534	-0.32
216.753	0.08
216.972	-0.16
217.19	-0.17
217.409	-0.27
217.627	-0.21
217.846	-0.29
218.064	0.05
218.283	-0.26
218.501	0.3
218.72	-0
218.938	-0.28
219.157	-0.15
219.375	0.07
219.594	0.11
219.812	-0.38
220.031	-0.23
220.249	0.06
220.467	0.19
220.686	-0.16
220.904	-0.26
221.122	-0.19
221.341	0.36
221.559	-0.15
221.777	-0.23
221.995	-0.12
222.214	-0.04
222.432	-0.26
222.65	0.03
222.868	-0.17
223.086	0.08
223.305	0.13
223.523	-0.11
223.741	0.08
223.959	-0.19
224.177	-0.29
224.395	-0.18
224.613	-0.1
224.831	0.14
225.049	-0.23
225.267	-0.19
225.485	-0.07
225.703	-0.11
225.921	-0.09
226.139	-0.18
226.357	0.06
226.575	-0.11
226.793	-0.11
227.011	0.47
227.229	0
227.447	0
227.665	-0.12
227.883	-0.26
228.1	-0.13
228.318	-0.08
228.536	-0.36
228.754	-0.22
228.972	0.05
229.189	0.05
229.407	-0.17
229.625	-0.1
229.843	0.05
230.06	0.03
230.278	-0.32
230.496	-0.12
230.713	-0
230.931	0.11
231.149	-0.13
231.366	-0.27
231.584	0
231.801	0.37
232.019	-0.16
232.236	-0.23
232.454	-0.2
232.671	-0.11
232.889	-0.11
233.106	-0.27
233.324	-0.13
233.541	-0.05
233.759	-0.06
233.976	-0.12
234.194	-0.13
234.411	-0.06
234.628	-0.14
234.846	-0.1
235.063	-0.17
235.28	-0.03
235.498	-0.09
235.715	-0.2
235.932	-0.02
236.149	-0.08
236.367	-0.1
236.584	-0.08
236.801	-0.12
237.018	0.1
237.236	-0.06
237.453	-0.34
237.67	0.07
237.887	-0.06
238.104	-0.1
238.321	-0.19
238.538	-0.22
238.755	0.05
238.973	-0.28
239.19	-0.06
239.407	0.01
239.624	-0.14
239.841	-0.15
240.058	-0.17
240.275	-0.05
240.492	-0.13
240.709	-0.04
240.925	-0.12
241.142	-0.07
241.359	-0.2
241.576	-0.19
241.793	-0.03
242.01	0.03
242.227	0.09
242.444	0.03
242.66	-0.01
242.877	-0.09
243.094	-0.16
243.311	0
243.527	-0.08
243.744	-0.19
243.961	-0.06
244.178	-0.12
244.394	-0.11
244.611	-0.04
244.828	0.09
245.044	-0.16
245.261	-0.07
245.477	-0.04
245.694	-0.02
245.911	-0.21
246.127	-0.09
246.344	-0.01
246.56	-0.02
246.777	-0.1
246.993	-0.06
247.21	-0.01
247.426	-0.05
247.643	-0.18
247.859	-0.17
248.076	-0.1
248.292	0.07
248.508	-0.06
248.725	0.01
248.941	0.03
249.157	0.05
249.374	-0.06
249.59	-0.15
249.806	-0.01
250.023	-0.04
250.239	-0.07
250.455	-0.14
250.671	-0.03
250.888	-0.03
251.104	-0.05
251.32	0.01
251.536	-0.06
251.752	-0.05
251.969	-0.06
252.185	0.02
252.401	0.14
252.617	-0.03
252.833	-0.13
253.049	-0
253.265	-0.04
253.481	-0.06
253.697	-0.11
253.913	-0.09
254.129	-0.04
254.345	-0.03
254.561	-0.11
254.777	-0.04
254.993	0.01
255.209	0.02
255.425	-0.09
255.641	-0.08
255.857	-0.03
256.073	-0.03
256.288	-0.17
256.504	-0.06
256.72	-0
256.936	0.08
257.152	-0.1
257.367	-0.13
257.583	-0.05
257.799	0.02
258.015	-0.08
258.23	-0.1
258.446	0.08
258.662	-0.08
258.877	-0.12
259.093	-0.05
259.309	-0.01
259.524	-0.05
259.74	-0.11
259.955	-0.15
260.171	-0
260.387	-0.13
260.602	0.01
260.818	0
261.033	-0.11
261.249	-0.09
261.464	-0.08
261.68	-0.12
261.895	-0.04
262.11	0
262.326	-0.02
262.541	-0.16
262.757	-0.02
262.972	-0.02
263.187	0.01
263.403	-0.06
263.618	0.03
263.833	-0.06
264.049	-0.08
264.264	-0.01
264.479	-0.05
264.694	0.08
264.91	-0.12
265.125	-0.08
265.34	-0.03
265.555	0.09
265.77	-0.05
265.986	-0.09
266.201	-0.02
266.416	0.05
266.631	-0.04
266.846	-0.03
267.061	-0.03
267.276	-0.02
267.491	-0.16
267.706	0.02
267.921	0.02
268.136	-0.08
268.351	-0.07
268.566	-0.14
268.781	0.04
268.996	-0.03
269.211	-0.03
269.426	-0.13
269.641	-0.11
269.856	0
270.071	-0.12
270.285	-0.12
270.5	0.03
270.715	0
270.93	-0.05
271.145	-0.04
271.359	-0.08
271.574	-0.1
271.789	-0.08
272.004	-0.09
272.218	-0.07
272.433	-0.02
272.648	-0.07
272.862	-0.01
273.077	-0.02
273.292	0.02
273.506	-0.11
273.721	-0.11
273.936	0.01
274.15	-0.04
274.365	-0.03
274.579	-0.09
274.794	0.02
275.008	0.02
275.223	-0.15
275.437	-0.04
275.652	0.02
275.866	0.02
276.081	-0.05
276.295	-0.04
276.509	-0.06
276.724	-0.02
276.938	-0.04
277.153	-0.01
277.367	0.08
277.581	-0.07
277.796	-0.04
278.01	-0.08
278.224	-0.01
278.438	0.13
278.653	-0.06
278.867	0
279.081	-0.19
279.295	-0.04
279.51	-0.02
279.724	-0.1
279.938	0.05
280.152	-0.01
280.366	-0.05
280.58	-0
280.794	0.04
281.008	-0.01
281.222	0.03
281.437	0.05
281.651	-0.03
281.865	0.03
282.079	-0
282.293	-0.12
282.507	-0.07
282.721	0.01
282.935	-0.04
283.148	-0.15
283.362	-0.09
283.576	-0.04
283.79	-0.02
284.004	-0.09
284.218	0.04
284.432	-0.09
284.646	-0.05
284.859	-0.04
285.073	-0.07
285.287	-0.04
285.501	-0.07
285.714	-0.03
285.928	-0.04
286.142	0
286.356	-0.07
286.569	-0.07
286.783	-0.03
286.997	0.03
287.21	0
287.424	0.02
287.637	-0.07
287.851	-0.08
288.065	-0.02
288.278	-0.06
288.492	-0.01
288.705	-0.04
288.919	-0
289.132	-0.06
289.346	0.01
289.559	-0.1
289.773	-0.1
289.986	-0.07
290.2	-0.03
290.413	0.01
290.626	-0.04
290.84	-0.06
291.053	0.01
291.267	0.03
291.48	-0.04
291.693	-0.02
291.906	-0.06
292.12	-0.06
292.333	-0.08
292.546	-0.05
292.76	0.03
292.973	-0.04
293.186	0.04
293.399	-0.07
293.612	0.07
293.826	-0.01
294.039	-0.02
294.252	-0.09
294.465	0.01
294.678	0.03
294.891	-0.01
295.104	-0.09
295.317	-0.03
295.53	-0.04
295.743	-0.02
295.956	-0.03
296.169	0.05
296.382	0.05
296.595	-0.01
296.808	-0.09
297.021	0.02
297.234	-0.01
297.447	-0.03
297.66	-0.02
297.873	0.03
298.086	0.01
298.299	-0.05
298.511	-0.07
298.724	-0.04
298.937	-0.06
299.15	-0.07
299.363	0
299.575	0
299.788	-0
300.001	-0.02
300.213	-0.05
300.426	-0.07
300.639	-0
300.852	-0.06
301.064	0.01
301.277	0.05
301.489	0.01
301.702	0.02
301.915	-0.01
302.127	-0.01
302.34	-0.04
302.552	0
302.765	-0.04
302.977	0.06
303.19	-0.05
303.402	-0.05
303.615	-0.01
303.827	-0.06
304.04	-0.01
304.252	0.04
304.464	-0.03
304.677	0.06
304.889	-0.01
305.102	-0.07
305.314	-0.01
305.526	0.02
305.739	0.01
305.951	-0.04
306.163	-0.07
306.375	0.03
306.588	-0.04
306.8	-0.04
307.012	-0.07
307.224	-0.03
307.436	0.03
307.649	-0.1
307.861	-0.03
308.073	-0.03
308.285	-0.06
308.497	-0.06
308.709	-0.07
308.921	0.01
309.133	0.03
309.346	-0.01
309.558	-0.01
309.77	-0.01
309.982	0
310.194	-0.01
310.406	-0.06
310.617	0.09
310.829	0
311.041	0.01
311.253	-0.02
311.465	0.01
311.677	-0.04
311.889	-0
312.101	-0.04
312.313	0.04
312.524	0.01
312.736	-0.08
312.948	0
313.16	0.05
313.372	-0.02
313.583	0
313.795	-0.06
314.007	-0.06
314.218	0.02
314.43	-0.03
314.642	-0.02
314.853	-0.05
315.065	0.02
315.277	-0.05
315.488	-0.01
315.7	0.02
315.912	0.01
316.123	-0.04
316.335	-0.03
316.546	0.08
316.758	-0.03
316.969	-0.07
317.181	-0.02
317.392	-0.05
317.604	-0.02
317.815	-0.06
318.026	-0.05
318.238	-0.01
318.449	0.05
318.661	-0.08
318.872	-0.07
319.083	-0.05
319.295	0.04
319.506	-0.06
319.717	-0.05
319.929	0
320.14	-0.01
320.351	-0.02
320.562	-0.06
320.774	-0.02
320.985	-0.03
321.196	-0.09
321.407	-0.07
321.618	0.05
321.829	0
322.041	0.03
322.252	-0.03
322.463	0.01
322.674	0.01
322.885	-0.05
323.096	-0.04
323.307	0.01
323.518	-0.01
323.729	-0.06
323.94	-0.04
324.151	-0.02
324.362	-0.02
324.573	0.01
324.784	-0.08
324.995	-0
325.206	-0.03
325.417	-0.04
325.628	-0.02
325.838	-0.03
326.049	-0.05
326.26	-0.01
326.471	-0.01
326.682	-0.01
326.892	-0.03
327.103	-0.1
327.314	-0.05
327.525	0.01
327.735	-0.03
327.946	-0.06
328.157	-0.05
328.368	0.02
328.578	-0.04
328.789	0.06
328.999	0.01
329.21	-0.02
329.421	0
329.631	-0.06
329.842	-0.06
330.052	0.01
330.263	0.02
330.473	0.02
330.684	-0.03
330.894	-0.04
331.105	-0.04
331.315	-0.01
331.526	-0.08
331.736	0.06
331.947	-0.02
332.157	0.01
332.367	-0.04
332.578	-0.01
332.788	0.05
332.999	-0.01
333.209	-0.01
333.419	-0.07
333.629	-0.01
333.84	-0
334.05	-0.01
334.26	0.03
334.47	0.01
334.681	0.02
334.891	-0.04
335.101	-0.02
335.311	0.06
335.521	-0.01
335.732	-0.05
335.942	0.05
336.152	-0.02
336.362	0.03
336.572	-0.03
336.782	-0.04
336.992	-0.03
337.202	-0.05
337.412	-0.06
337.622	0
337.832	-0.04
338.042	-0.04
338.252	-0.05
338.462	-0.02
338.672	0.02
338.882	-0.06
339.092	0
339.302	-0.01
339.511	-0.01
339.721	-0.08
339.931	-0.05
340.141	0.04
340.351	0.06
340.561	0.01
340.77	-0.03
340.98	-0.01
341.19	0.02
341.4	-0
341.609	-0.13
341.819	-0.04
342.029	-0.08
342.238	-0.01
342.448	-0.05
342.658	0.01
342.867	0.03
343.077	-0.02
343.286	-0.03
343.496	0
343.706	0.01
343.915	-0.04
344.125	-0
344.334	-0.01
344.544	-0.06
344.753	-0.05
344.963	-0.06
345.172	-0.03
345.381	-0.05
345.591	-0.05
345.8	-0.03
346.01	-0
346.219	-0
346.428	-0.16
346.638	-0.01
346.847	-0.06
347.056	0.03
347.266	-0.05
347.475	-0.01
347.684	0.01
347.893	-0.06
348.103	-0.03
348.312	-0.04
348.521	-0.07
348.73	-0.03
348.94	-0.03
349.149	-0.01
349.358	-0.04
349.567	-0.08
349.776	-0.07
349.985	-0.04
350.194	0.05
350.403	0.03
350.612	-0.07
350.821	-0.06
351.03	0
351.239	-0.03
351.448	-0.05
351.657	-0.03
351.866	0.07
352.075	-0.03
352.284	0.04
352.493	-0.06
352.702	0.03
352.911	0
353.12	-0.06
353.329	-0.01
353.538	-0.02
353.746	-0.01
353.955	-0.05
354.164	-0.04
354.373	-0.02
354.582	0.02
354.79	0.03
354.999	-0
355.208	-0.03
355.416	0.01
355.625	-0.1
355.834	-0.07
356.042	-0.03
356.251	0
356.46	-0.01
356.668	-0.01
356.877	0.05
357.085	0.05
357.294	-0.08
357.503	-0.01
357.711	-0.03
357.92	0.03
358.128	-0.01
358.337	-0.06
358.545	-0.05
358.754	-0.05
358.962	0
359.17	-0.04
359.379	-0.06
359.587	-0.01
359.796	-0.04
360.004	-0.02
360.212	0.01
360.421	0.04
360.629	-0.04
360.837	0
361.046	0.01
361.254	0.04
361.462	-0.02
361.67	-0.03
361.879	-0.02
362.087	0.01
362.295	0.01
362.503	-0.01
362.711	-0.07
362.92	-0.05
363.128	-0.08
363.336	-0.03
363.544	-0.08
363.752	-0.02
363.96	-0.03
364.168	-0.01
364.376	0.04
364.584	-0.01
364.792	0.01
365	0.01
365.208	-0.01
365.416	-0.03
365.624	0.05
365.832	-0
366.04	0.04
366.248	-0.02
366.456	-0.02
366.664	-0.03
366.872	-0.03
367.079	-0.02
367.287	0
367.495	-0.02
367.703	-0.03
367.911	-0.07
368.118	-0.01
368.326	-0.03
368.534	-0.03
368.742	0.04
368.949	-0.05
369.157	-0.01
369.365	0.02
369.572	-0.03
369.78	-0.06
369.988	-0.02
370.195	0.02
370.403	0.03
370.61	-0.05
370.818	0
371.026	0.04
371.233	-0.01
371.441	0
371.648	-0.04
371.856	-0.01
372.063	-0.05
372.271	-0.07
372.478	-0.05
372.685	-0.09
372.893	0.03
373.1	-0.06
373.308	-0.01
373.515	0.03
373.722	0.02
373.93	-0.01
374.137	-0.02
374.344	0.04
374.552	0.01
374.759	-0.02
374.966	-0.05
375.173	-0.01
375.381	0.02
375.588	0.01
375.795	-0.11
376.002	-0.03
376.209	-0.08
376.417	-0.05
376.624	0.02
376.831	-0.04
377.038	-0.01
377.245	-0.08
377.452	-0.02
377.659	-0.02
377.866	-0.02
378.073	-0.03
378.28	-0.03
378.487	-0
378.694	0.02
378.901	-0.03
379.108	-0
379.315	-0.01
379.522	0.06
379.729	-0.01
379.936	-0.02
380.143	-0.01
380.35	-0.02
380.557	-0.03
380.763	-0.02
380.97	-0.04
381.177	-0.01
381.384	-0.04
381.591	-0.04
381.797	0.05
382.004	0.01
382.211	-0
382.418	-0.06
382.624	0.01
382.831	0.02
383.038	-0.06
383.244	-0.03
383.451	-0.07
383.658	-0.03
383.864	-0.05
384.071	-0.08
384.277	0.07
384.484	-0.05
384.69	0.03
384.897	-0.05
385.103	-0.03
385.31	-0.09
385.516	-0.03
385.723	-0.05
385.929	-0.03
386.136	-0.08
386.342	-0.04
386.549	-0.06
386.755	0.02
386.961	0.03
387.168	-0.02
387.374	-0.01
387.58	-0.04
387.787	0.01
387.993	0.02
388.199	-0.02
388.406	-0.03
388.612	-0.03
388.818	-0.01
389.024	-0.03
389.231	-0.03
389.437	0.02
389.643	-0.03
389.849	0
390.055	0
390.261	-0.01
390.467	-0.03
390.674	-0.11
390.88	-0.01
391.086	0.02
391.292	-0.04
391.498	0.01
391.704	0.01
391.91	-0.04
392.116	-0.04
392.322	-0.09
392.528	-0.02
392.734	-0.06
392.94	-0.02
393.146	-0.03
393.352	0.01
393.557	-0.05
393.763	-0.03
393.969	0.04
394.175	0.02
394.381	-0.02
394.587	-0.02
394.792	-0.06
394.998	0.02
395.204	-0
395.41	-0.06
395.615	-0.01
395.821	-0.02
396.027	0.02
396.233	-0.05
396.438	-0.03
396.644	0.08
396.85	0.01
397.055	-0.03
397.261	-0.03
397.466	0.05
397.672	0.03
397.878	-0.03
398.083	-0.02
398.289	-0.1
398.494	0.05
398.7	-0.01
398.905	-0.07
399.111	0
399.316	-0.07
399.522	-0
399.727	-0.02
399.932	-0
400.138	-0.01
400.343	-0.02
400.549	-0.02
400.754	-0.04
400.959	-0.01
401.165	-0.04
401.37	-0.02
401.575	0.05
401.78	0.01
401.986	-0.04
402.191	-0.06
402.396	-0.08
402.601	-0
402.807	0.01
403.012	-0.01
403.217	0.04
403.422	-0
403.627	-0.06
403.832	-0.03
404.037	-0.01
404.243	-0.02
404.448	-0.03
404.653	-0.05
404.858	-0.02
405.063	0.02
405.268	-0.04
405.473	-0.08
405.678	-0.08
405.883	0.11
406.088	-0.02
406.293	-0.08
406.498	-0.07
406.703	0.02
406.907	-0.07
407.112	-0.08
407.317	-0.02
407.522	-0.01
407.727	-0.09
407.932	-0.01
408.136	0.02
408.341	-0.03
408.546	0
408.751	-0.02
408.956	-0.06
409.16	-0.02
409.365	-0.05
409.57	-0.04
409.774	-0.03
409.979	0.01
410.184	0
410.388	-0.05
410.593	0.04
410.798	0.03
411.002	-0.06
411.207	-0.02
411.411	-0.01
411.616	-0.04
411.82	-0.07
412.025	0
412.229	-0.03
412.434	0.07
412.638	-0.04
412.843	-0.01
413.047	-0.01
413.252	-0.06
413.456	-0.06
413.66	0.04
413.865	-0.04
414.069	0.11
414.273	-0.05
414.478	-0.06
414.682	-0.05
414.886	-0.03
415.091	-0.07
415.295	-0.12
415.499	-0.02
415.703	-0.06
415.908	0.02
416.112	-0.09
416.316	-0.02
416.52	-0.01
416.724	-0.08
416.929	-0.05
417.133	0.02
417.337	0
417.541	-0.08
417.745	-0.06
417.949	0.02
418.153	-0.02
418.357	-0.05
418.561	0.1
418.765	-0.06
418.969	0.05
419.173	-0.01
419.377	-0.07
419.581	0.05
419.785	-0.12
419.989	-0.07
420.193	-0.04
420.397	-0.07
420.601	0.01
420.804	0.01
421.008	-0.04
421.212	0.01
421.416	-0.05
421.62	-0.09
421.823	-0.02
422.027	0.05
422.231	-0.02
422.435	-0.03
422.638	-0.04
422.842	-0.05
423.046	-0.06
423.249	0.01
423.453	0.03
423.657	-0.01
423.86	-0.03
424.064	-0.05
424.268	0.04
424.471	-0.06
424.675	0.06
424.878	0.04
425.082	-0.01
425.285	-0.01
425.489	-0.03
425.692	0.01
425.896	-0.06
426.099	0.04
426.303	-0.11
426.506	-0.09
426.71	-0.03
426.913	0.01
427.116	0.01
427.32	-0.05
427.523	-0
427.726	0.06
427.93	-0.07
428.133	-0.03
428.336	-0.08
428.54	-0.07
428.743	-0.04
428.946	-0.03
429.149	-0.07
429.353	0.01
429.556	-0.03
429.759	0.01
429.962	-0.02
430.165	-0.03
430.368	-0.05
430.571	-0.04
430.775	-0.01
430.978	-0.04
431.181	-0.03
431.384	-0.04
431.587	-0.03
431.79	-0.05
431.993	-0.07
432.196	-0.01
432.399	-0.03
432.602	0.01
432.805	-0.01
433.008	-0.03
433.211	-0.12
433.414	0.01
433.616	-0.05
433.819	-0.06
434.022	-0.13
434.225	0.01
434.428	-0.01
434.631	0.09
434.833	-0.03
435.036	-0.07
435.239	-0.01
435.442	-0.01
435.645	-0.04
435.847	-0.03
436.05	-0.01
436.253	-0
436.455	-0.11
436.658	-0.04
436.861	0.05
437.063	-0.04
437.266	-0.05
437.468	-0.01
437.671	0.08
437.874	-0.02
438.076	-0.11
438.279	-0.08
438.481	0.03
438.684	-0.07
438.886	0.05
439.089	-0.1
439.291	-0.01
439.494	0.01
439.696	-0.06
439.899	-0.08
440.101	0.01
440.303	-0.09
440.506	0.05
440.708	-0.04
440.91	0.02
441.113	-0.11
441.315	0
441.517	-0.07
441.72	0.01
441.922	-0.05
442.124	-0.08
442.326	-0.01
442.529	0.01
442.731	-0.03
442.933	0.05
443.135	-0.03
443.337	-0.05
443.539	-0.03
443.742	-0.08
443.944	-0.03
444.146	-0.1
444.348	-0.02
444.55	-0.08
444.752	-0.08
444.954	-0.07
445.156	0
445.358	-0.06
445.56	0.04
445.762	-0.06
445.964	-0.04
446.166	-0.06
446.368	-0.05
446.57	0.01
446.772	-0.03
446.974	-0.06
447.175	-0.02
447.377	-0.09
447.579	-0.08
447.781	-0.17
447.983	0.06
448.184	-0.07
448.386	-0.03
448.588	-0.1
448.79	0.01
448.991	-0.1
449.193	-0.03
449.395	-0.01
449.597	-0.01
449.798	-0.02
450	0
450.202	-0.05
450.403	-0.04
450.605	0.04
450.806	-0.07
451.008	-0.09
451.21	-0.04
451.411	-0.03
451.613	-0.07
451.814	-0.03
452.016	0.01
452.217	-0.03
452.419	0.04
452.62	-0.03
452.821	-0.04
453.023	0.03
453.224	0.03
453.426	-0.06
453.627	-0.06
453.828	0
454.03	-0.07
454.231	-0.04
454.432	-0.1
454.634	0.04
454.835	-0.07
455.036	-0.09
455.238	-0.01
455.439	0
455.64	-0.07
455.841	-0.08
456.042	0.03
456.244	0.01
456.445	-0.07
456.646	-0.1
456.847	-0.05
457.048	0.01
457.249	0.01
457.45	0.17
457.651	-0.04
457.852	0.01
458.054	0.01
458.255	-0.04
458.456	0.01
458.657	-0.02
458.858	-0.04
459.058	-0.05
459.259	0.01
459.46	-0.06
459.661	-0.09
459.862	0.01
460.063	-0.02
460.264	0.02
460.465	-0.08
460.666	0.08
460.866	-0.04
461.067	-0.04
461.268	-0.04
461.469	-0.08
461.67	-0.04
461.87	-0.02
462.071	-0.06
462.272	-0.05
462.473	-0.02
462.673	0.01
462.874	-0.04
463.075	-0.04
463.275	-0.04
463.476	-0
463.676	-0.04
463.877	-0.05
464.078	-0.03
464.278	-0.01
464.479	-0.08
464.679	-0.03
464.88	-0.06
465.08	0.07
465.281	-0.07
465.481	-0.04
465.682	0
465.882	-0
466.083	-0.02
466.283	-0.03
466.483	-0.01
466.684	-0.05
466.884	-0.03
467.085	-0
467.285	0.03
467.485	-0.05
467.686	-0.07
467.886	-0.03
468.086	-0.02
468.286	0.02
468.487	-0.01
468.687	-0.05
468.887	-0.01
469.087	-0.02
469.287	-0.01
469.488	-0.11
469.688	-0
469.888	0.04
470.088	0.02
470.288	0.02
470.488	0.05
470.688	-0.05
470.888	-0.02
471.088	-0.04
471.288	-0.01
471.488	0.01
471.688	0.01
471.888	-0.07
472.088	-0
472.288	0.04
472.488	-0.03
472.688	-0.03
472.888	-0.01
473.088	-0.05
473.288	0.03
473.488	-0.03
473.688	0.06
473.887	-0.01
474.087	-0.03
474.287	-0
474.487	-0.07
474.687	-0.02
474.886	-0.04
475.086	-0
475.286	-0.01
475.486	-0.03
475.685	-0.02
475.885	-0.03
476.085	-0.06
476.284	0.01
476.484	-0.05
476.684	0.01
476.883	0.04
477.083	0.01
477.282	-0.03
477.482	-0
477.681	0.02
477.881	-0.02
478.08	-0.06
478.28	-0.05
478.479	-0.01
478.679	0.04
478.878	-0.04
479.078	-0.07
479.277	-0.05
479.477	-0.02
479.676	0.02
479.875	-0.01
480.075	-0.1
480.274	-0.01
480.473	0.01
480.673	-0.04
480.872	0.02
481.071	-0.03
481.271	0.02
481.47	-0.05
481.669	-0.02
481.868	-0.02
482.067	-0.05
482.267	-0.03
482.466	-0.03
482.665	-0.03
482.864	-0.04
483.063	-0.05
483.262	0.01
483.461	0.03
483.661	0.02
483.86	-0.01
484.059	0
484.258	-0.02
484.457	-0.02
484.656	-0.02
484.855	-0.01
485.054	-0.05
485.253	-0.05
485.452	-0.04
485.651	-0.02
485.849	-0.05
486.048	-0.04
486.247	-0.05
486.446	-0.02
486.645	-0.07
486.844	-0.02
487.043	-0.03
487.241	-0.02
487.44	-0.04
487.639	-0.01
487.838	0.01
488.037	-0.02
488.235	0.03
488.434	-0.03
488.633	-0.03
488.831	-0.03
489.03	0
489.229	-0
489.427	-0.03
489.626	0.02
489.825	0.03
490.023	-0.01
490.222	-0.04
490.42	-0.02
490.619	0.01
490.817	-0
491.016	-0.02
491.214	0.02
491.413	-0.04
491.611	-0.05
491.81	-0.01
492.008	0.02
492.207	0
492.405	-0.05
492.604	-0.08
492.802	-0.02
493	-0.02
493.199	-0.01
493.397	-0.01
493.595	-0.03
493.794	-0.02
493.992	0.03
494.19	-0.02
494.388	-0.03
494.587	-0.02
494.785	-0
494.983	-0.03
495.181	-0.01
495.379	-0.03
495.578	-0.03
495.776	0
495.974	0.02
496.172	-0.03
496.37	-0.05
496.568	-0.04
496.766	-0.01
496.964	0.03
497.162	0.01
497.36	-0.04
497.558	-0.01
497.756	0
497.954	-0.01
498.152	-0.03
498.35	-0.03
498.548	-0.02
498.746	-0.01
498.944	-0.04
499.142	-0.03
499.34	-0.05
499.538	-0.02
499.736	-0.03
499.933	0.01
500.131	0
500.329	-0.02
500.527	0.02
500.725	0.01
500.922	0.01
501.12	-0.02
501.318	0
501.516	-0.03
501.713	-0.01
501.911	-0.01
502.109	-0.02
502.306	0
502.504	-0.03
502.701	-0.01
502.899	0.01
503.097	0.01
503.294	-0.01
503.492	-0.03
503.689	-0.01
503.887	-0
504.084	0.05
504.282	-0.02
504.479	-0.04
504.677	-0
504.874	-0.05
505.072	-0.02
505.269	-0.01
505.466	0.02
505.664	-0.02
505.861	-0.04
506.059	-0.03
506.256	-0
506.453	-0.03
506.651	0.01
506.848	0.01
507.045	-0.02
507.242	0
507.44	-0.03
507.637	-0.02
507.834	0
508.031	0.01
508.229	-0.03
508.426	-0
508.623	0.01
508.82	-0.04
509.017	-0.04
509.214	-0.02
509.411	-0.02
509.608	-0.04
509.805	-0
510.003	-0.03
510.2	-0.02
510.397	-0
510.594	-0.05
510.791	-0.05
510.988	-0.01
511.184	0.02
511.381	0.01
511.578	-0.04
511.775	0.01
511.972	-0.03
512.169	-0.01
512.366	-0.01
512.563	0.01
512.76	-0.03
512.956	0
513.153	-0.04
513.35	-0.01
513.547	-0.03
513.744	-0.03
513.94	-0.06
514.137	-0
514.334	0.01
514.53	0.02
514.727	-0.01
514.924	0.04
515.12	-0.05
515.317	-0.06
515.514	-0.03
515.71	-0.01
515.907	-0.02
516.103	-0.01
516.3	-0
516.497	-0.01
516.693	0.01
516.89	-0.01
517.086	-0.05
517.283	0
517.479	-0.01
517.676	-0.02
517.872	-0.02
518.068	-0.03
518.265	-0.03
518.461	-0.04
518.658	-0.05
518.854	-0.02
519.05	-0.02
519.247	-0.03
519.443	0.01
519.639	-0
519.836	-0.03
520.032	-0.01
520.228	-0.03
520.424	0.03
520.621	0.01
520.817	-0.02
521.013	-0.02
521.209	-0.01
521.405	0.05
521.601	-0
521.798	0
521.994	0.03
522.19	-0.04
522.386	-0.05
522.582	-0.02
522.778	-0.01
522.974	-0.03
523.17	-0.01
523.366	-0.04
523.562	0.01
523.758	-0.03
523.954	-0.03
524.15	-0.02
524.346	-0
524.542	-0.02
524.738	-0.03
524.934	-0.01
525.129	-0.02
525.325	-0.01
525.521	-0.01
525.717	0.01
525.913	-0.01
526.109	-0.02
526.304	-0.02
526.5	-0
526.696	0.02
526.892	-0.03
527.087	-0.01
527.283	-0.04
527.479	0.01
527.674	-0.02
527.87	-0.02
528.066	-0.03
528.261	0.01
528.457	-0.01
528.653	-0.02
528.848	-0.02
529.044	-0.01
529.239	-0.01
529.435	0.02
529.63	0.01
529.826	0.03
530.021	-0.01
530.217	0.02
530.412	-0.03
530.608	-0.02
530.803	-0.01
530.999	-0.02
531.194	-0.05
531.389	-0
531.585	-0.06
531.78	-0.02
531.975	-0.02
532.171	0.01
532.366	-0.01
532.561	-0.02
532.757	-0.06
532.952	-0.02
533.147	0.01
533.342	-0.01
533.538	-0.02
533.733	0.02
533.928	-0.01
534.123	-0.02
534.318	-0.04
534.513	-0
534.709	-0.01
534.904	-0.04
535.099	-0.01
535.294	-0.02
535.489	0.01
535.684	-0.02
535.879	-0.03
536.074	-0.02
536.269	-0.05
536.464	0
536.659	-0
536.854	-0.03
537.049	-0.02
537.244	-0.01
537.439	-0.03
537.634	0.02
537.828	-0.01
538.023	-0.02
538.218	-0.05
538.413	-0.02
538.608	-0.07
538.803	0.01
538.997	-0.03
539.192	-0
539.387	0.01
539.582	0
539.776	0
539.971	-0.03
540.166	-0.03
540.36	-0.03
540.555	-0.02
540.75	-0.04
540.944	-0.01
541.139	-0.07
541.334	-0.02
541.528	-0.01
541.723	-0
541.917	-0.03
542.112	-0.05
542.306	-0.04
542.501	-0.03
542.695	-0.01
542.89	-0.03
543.084	-0.01
543.279	-0.04
543.473	-0.02
543.668	0
543.862	-0.02
544.056	0.02
544.251	-0.01
544.445	-0.01
544.64	-0.01
544.834	-0.03
545.028	-0.02
545.222	-0.02
545.417	0.01
545.611	-0.01
545.805	-0.01
546	-0.03
546.194	0
546.388	-0
546.582	-0.01
546.776	-0.03
546.97	-0.03
547.165	0
547.359	0.01
547.553	-0.02
547.747	-0
547.941	-0.02
548.135	-0.02
548.329	0.01
548.523	-0.02
548.717	-0.01
548.911	-0.05
549.105	-0.01
549.299	0.01
549.493	-0.02
549.687	-0.01
549.881	-0.02
550.075	-0.01
550.269	-0.04
550.463	-0
550.657	-0.05
550.85	-0.01
551.044	-0.05
551.238	-0
551.432	-0.04
551.626	-0.05
551.82	-0.02
552.013	-0.03
552.207	-0.02
552.401	0.01
552.594	-0.01
552.788	-0.02
552.982	0.01
553.176	-0.03
553.369	-0.01
553.563	-0.01
553.756	-0.05
553.95	-0.02
554.144	-0.03
554.337	0.02
554.531	-0.01
554.724	-0.01
554.918	-0.03
555.111	0.01
555.305	-0.02
555.498	0.03
555.692	-0.01
555.885	-0.03
556.079	-0.01
556.272	-0.05
556.466	0.01
556.659	-0.02
556.852	-0.03
557.046	-0.01
557.239	-0
557.432	-0.03
557.626	-0.04
557.819	0
558.012	0
558.206	0.01
558.399	-0.02
558.592	-0
558.785	-0.03
558.979	0.02
559.172	-0
559.365	0.01
559.558	-0
559.751	-0.02
559.944	-0.01
560.138	-0.02
560.331	-0.04
560.524	-0.03
560.717	-0.02
560.91	-0.02
561.103	0
561.296	-0.01
561.489	-0.01
561.682	-0.02
561.875	0.03
562.068	-0
562.261	-0.01
562.454	0.03
562.647	0
562.84	0
563.032	-0.02
563.225	0.01
563.418	-0.02
563.611	-0.03
563.804	-0.02
563.997	-0.03
564.19	-0.03
564.382	-0.05
564.575	-0.02
564.768	-0.01
564.961	-0.02
565.153	-0.03
565.346	0.02
565.539	-0.02
565.731	0.02
565.924	0.01
566.117	0.01
566.309	-0
566.502	-0.01
566.695	-0.05
566.887	-0.01
567.08	-0.03
567.272	-0.03
567.465	-0.02
567.657	-0.02
567.85	-0.01
568.042	-0
568.235	0.02
568.427	-0.01
568.62	-0
568.812	-0.01
569.005	-0.02
569.197	-0.03
569.389	0.02
569.582	0.01
569.774	-0.02
569.966	-0.03
570.159	-0.06
570.351	-0.01
570.543	-0.03
570.736	-0.02
570.928	-0.05
571.12	0.01
571.312	-0.01
571.505	-0.04
571.697	0.03
571.889	-0.03
572.081	-0.04
572.273	-0.03
572.465	0.02
572.658	-0.03
572.85	-0.01
573.042	-0.01
573.234	-0.03
573.426	0.03
573.618	-0.02
573.81	0
574.002	0.01
574.194	0.01
574.386	-0.07
574.578	-0.08
574.77	-0.04
574.962	-0.03
575.154	-0.05
575.346	-0.03
575.538	-0
575.729	-0.04
575.921	-0.04
576.113	-0.02
576.305	0.01
576.497	-0.02
576.689	-0.03
576.88	-0.05
577.072	-0
577.264	-0.03
577.456	-0.01
577.647	-0.09
577.839	-0.01
578.031	-0
578.223	-0.07
578.414	-0.06
578.606	0.02
578.798	-0.04
578.989	-0.03
579.181	-0.02
579.372	-0.02
579.564	-0.03
579.755	-0.01
579.947	-0
580.139	-0
580.33	-0.04
580.522	-0.01
580.713	-0.07
580.905	-0.03
581.096	0.01
581.287	-0.01
581.479	-0.02
581.67	-0
581.862	-0.02
582.053	-0.02
582.244	-0.07
582.436	-0.03
582.627	-0.02
582.818	-0.03
583.01	-0.05
583.201	-0
583.392	-0.01
583.583	-0
583.775	-0.04
583.966	-0.03
584.157	-0.02
584.348	-0.05
584.54	-0.04
584.731	-0.01
584.922	-0.01
585.113	-0.04
585.304	-0
585.495	-0.02
585.686	-0.01
585.877	-0
586.068	-0
586.259	-0
586.45	-0.01
586.641	-0.01
586.832	-0.08
587.023	-0.02
587.214	-0.02
587.405	-0.02
587.596	-0.03
587.787	0.02
587.978	-0.01
588.169	-0.03
588.36	-0.03
588.551	-0
588.742	-0.04
588.932	-0
589.123	-0.01
589.314	-0
589.505	0.01
589.696	-0.01
589.886	-0.03
590.077	-0.05
590.268	-0.02
590.458	-0.08
590.649	-0.03
590.84	0.02
591.03	-0.04
591.221	-0.04
591.412	-0.05
591.602	0.01
591.793	0
591.984	-0.05
592.174	-0.03
592.365	0.06
592.555	-0.03
592.746	0.02
592.936	-0.02
593.127	0.01
593.317	-0.01
593.508	-0.06
593.698	-0.02
593.889	-0.01
594.079	-0.03
594.269	-0.05
594.46	-0
594.65	-0.02
594.84	0
595.031	-0.03
595.221	-0.04
595.411	-0.04
595.602	0.03
595.792	-0.02
595.982	-0.04
596.172	0.03
596.363	-0.02
596.553	-0.02
596.743	-0.02
596.933	-0.02
597.123	0.01
597.314	-0.03
597.504	-0.03
597.694	0.02
597.884	-0.01
598.074	-0.05
598.264	-0.05
598.454	-0.01
598.644	-0.01
598.834	-0
599.024	-0.06
599.214	-0.04
599.404	0.02
599.594	-0.02
599.784	-0.06
599.974	0.05
600.164	-0.01
600.354	-0.06
600.544	-0.06
600.734	0.01
600.924	-0.01
601.114	-0.01
601.303	-0.01
601.493	-0.02
601.683	-0.01
601.873	-0.02
602.063	-0.04
602.252	0.01
602.442	-0.08
602.632	-0.08
602.821	-0.04
603.011	0.01
603.201	-0.04
603.39	-0.03
603.58	-0.05
603.77	0
603.959	0
604.149	-0
604.339	-0.05
604.528	0.01
604.718	-0.02
604.907	-0.03
605.097	-0.03
605.286	-0.05
605.476	-0.01
605.665	-0.02
605.855	-0.02
606.044	0
606.234	-0.02
606.423	-0.04
606.612	-0.05
606.802	-0
606.991	-0
607.181	-0.03
607.37	-0.06
607.559	-0
607.749	-0.05
607.938	-0.01
608.127	-0.05
608.316	-0.04
608.506	-0.02
608.695	-0.03
608.884	-0.03
609.073	-0.02
609.263	-0.01
609.452	-0.01
609.641	-0
609.83	-0.07
610.019	-0.01
610.208	-0.01
610.397	-0.04
610.586	-0
610.775	-0.06
610.965	-0.04
611.154	-0.05
611.343	0.03
611.532	-0.01
611.721	-0.05
611.91	-0.04
612.099	-0.01
612.287	-0.02
612.476	-0.05
612.665	-0.03
612.854	-0.03
613.043	-0
613.232	-0.01
613.421	-0.06
613.61	-0.02
613.798	-0.03
613.987	-0.03
614.176	-0.01
614.365	0.01
614.554	-0.01
614.742	0.04
614.931	-0.05
615.12	-0.01
615.309	-0.03
615.497	-0.01
615.686	-0.07
615.875	0.01
616.063	-0.02
616.252	-0.03
616.44	-0.05
616.629	-0.03
616.818	0.02
617.006	-0.04
617.195	-0.05
617.383	-0
617.572	0.02
617.76	-0.07
617.949	-0.04
618.137	-0.01
618.326	0.02
618.514	-0.07
618.703	-0.06
618.891	0.04
619.079	-0.07
619.268	-0
619.456	-0.02
619.644	-0.01
619.833	-0.03
620.021	-0.05
620.209	-0.05
620.398	-0.02
620.586	-0.02
620.774	0.01
620.962	-0.04
621.151	0.02
621.339	-0.04
621.527	-0.06
621.715	-0.06
621.903	-0.04
622.092	-0.08
622.28	0
622.468	-0.04
622.656	-0.04
622.844	-0.02
623.032	-0.06
623.22	-0.07
623.408	-0
623.596	-0.01
623.784	0.01
623.972	-0.05
624.16	-0.04
624.348	0.02
624.536	-0.04
624.724	-0.01
624.912	0
625.1	-0.01
625.288	-0.04
625.476	-0.05
625.664	0.02
625.851	-0.06
626.039	-0.05
626.227	0
626.415	-0.03
626.603	-0.1
626.79	-0
626.978	-0.03
627.166	-0.02
627.354	-0.02
627.541	-0.05
627.729	-0.09
627.917	-0
628.104	-0.01
628.292	-0.04
628.48	-0.05
628.667	-0.01
628.855	-0.04
629.042	0.01
629.23	-0.04
629.418	-0.05
629.605	-0.02
629.793	-0.06
629.98	-0.02
630.168	-0.02
630.355	-0
630.543	-0.01
630.73	-0.04
630.917	-0.01
631.105	0.03
631.292	-0.04
631.48	-0.05
631.667	0.04
631.854	-0
632.042	0
632.229	-0.09
632.416	-0.01
632.604	-0.01
632.791	-0.05
632.978	-0.01
633.165	-0.01
633.353	0.03
633.54	0.02
633.727	-0.11
633.914	-0.06
634.101	-0.1
634.289	0.03
634.476	-0.04
634.663	-0.06
634.85	0.01
635.037	-0.07
635.224	-0.09
635.411	-0.01
635.598	0.02
635.785	-0.02
635.972	-0.03
636.159	0
636.346	-0.05
636.533	-0.02
636.72	-0.04
636.907	-0.02
637.094	-0.01
637.281	-0.05
637.468	0.01
637.655	-0.01
637.842	-0.02
638.029	-0.05
638.215	0.03
638.402	-0.04
638.589	-0.03
638.776	-0.05
638.963	-0.07
639.149	-0
639.336	0.08
639.523	-0.04
639.709	-0.04
639.896	-0.04
640.083	0.04
640.27	-0.01
640.456	-0.03
640.643	0.02
640.829	-0.08
641.016	-0.02
641.203	-0.06
641.389	-0.01
641.576	-0.02
641.762	-0.04
641.949	-0.06
642.135	-0.02
642.322	-0.03
642.508	-0.04
642.695	-0.03
642.881	-0.03
643.068	-0.06
643.254	-0.04
643.441	0.03
643.627	-0.04
643.813	-0.08
644	0.01
644.186	-0.05
644.372	0.01
644.559	0
644.745	-0.04
644.931	-0.06
645.118	-0.02
645.304	-0.04
645.49	-0.03
645.676	-0.05
645.862	-0.01
646.049	0.01
646.235	-0.02
646.421	-0.01
646.607	0.02
646.793	-0.02
646.979	-0.04
647.165	-0.01
647.352	-0.02
647.538	0.02
647.724	-0.05
647.91	0.01
648.096	0
648.282	-0.01
648.468	-0.02
648.654	-0.02
648.84	-0.01
649.026	-0.07
649.212	-0.04
649.397	-0.05
649.583	-0.07
649.769	0.01
649.955	-0.06
650.141	-0.01
650.327	-0
650.513	-0.04
650.698	-0.01
650.884	-0.07
651.07	-0
651.256	-0.02
651.442	-0.06
651.627	-0.03
651.813	-0.03
651.999	-0.03
652.184	-0.01
652.37	-0.03
652.556	-0.05
652.741	0.03
652.927	-0.08
653.113	-0.05
653.298	-0.04
653.484	-0.02
653.669	-0.11
653.855	-0.01
654.04	-0.01
654.226	-0.03
654.412	-0.07
654.597	-0.08
654.782	-0.01
654.968	0.03
655.153	-0.04
655.339	-0.06
655.524	-0.05
655.71	0.01
655.895	-0.02
656.08	-0.06
656.266	0.03
656.451	-0
656.636	-0.05
656.822	-0.04
657.007	-0.07
657.192	-0.05
657.378	-0.08
657.563	-0.02
657.748	0.01
657.933	-0.02
658.118	-0.05
658.304	-0.04
658.489	0.02
658.674	0.01
658.859	-0.07
659.044	-0.01
659.229	-0.04
659.414	-0.05
659.599	-0.03
659.785	-0.1
659.97	-0.07
660.155	-0.03
660.34	-0.03
660.525	-0.04
660.71	-0.03
660.895	0.02
661.08	-0.06
661.264	-0.04
661.449	0.02
661.634	-0.01
661.819	0.01
662.004	-0.02
662.189	-0.12
662.374	-0.02
662.559	-0.08
662.743	-0.07
662.928	-0.06
663.113	-0.04
663.298	-0.08
663.483	-0.05
663.667	0.02
663.852	-0.06
664.037	0.02
664.221	-0.07
664.406	0.05
664.591	-0.01
664.775	-0.04
664.96	-0.05
665.145	-0.04
665.329	0.02
665.514	-0.03
665.698	-0.02
665.883	-0.1
666.068	-0
666.252	-0.01
666.437	-0.1
666.621	-0.02
666.806	-0.03
666.99	-0.06
667.174	-0.03
667.359	0.03
667.543	-0.02
667.728	-0.02
667.912	-0.11
668.096	-0.02
668.281	-0.04
668.465	-0.03
668.649	-0.01
668.834	-0.05
669.018	-0.05
669.202	-0.02
669.387	-0.06
669.571	0.04
669.755	-0.05
669.939	-0.03
670.124	-0.01
670.308	0.05
670.492	0.01
670.676	-0.02
670.86	-0.05
671.044	-0.07
671.228	-0.01
671.413	-0.07
671.597	-0.02
671.781	-0.07
671.965	0.05
672.149	-0.03
672.333	-0.05
672.517	-0.09
672.701	-0
672.885	-0.05
673.069	-0.1
673.253	0.01
673.437	-0.03
673.621	-0.05
673.804	-0.04
673.988	-0.04
674.172	-0.06
674.356	-0.07
674.54	-0.08
674.724	0.05
674.908	0
675.091	-0.02
675.275	-0.05
675.459	-0.01
675.643	-0.06
675.826	-0.04
676.01	-0
676.194	-0.02
676.377	0.01
676.561	-0.02
676.745	-0.04
676.928	-0.04
677.112	0
677.296	-0.04
677.479	-0.05
677.663	-0.06
677.846	0.04
678.03	-0.02
678.213	-0.07
678.397	0.02
678.58	-0.07
678.764	-0.06
678.947	-0.07
679.131	-0.13
679.314	0.02
679.498	-0.01
679.681	-0
679.865	0.05
680.048	-0.06
680.231	-0.02
680.415	-0.05
680.598	-0.06
680.781	-0.07
680.965	-0.09
681.148	-0.01
681.331	-0.04
681.514	0.02
681.698	-0.05
681.881	-0.01
682.064	-0.02
682.247	-0.02
682.43	-0.1
682.614	-0.02
682.797	-0.02
682.98	0.02
683.163	-0.05
683.346	-0.04
683.529	-0.03
683.712	-0.06
683.895	-0.01
684.078	-0.12
684.261	-0.02
684.444	0
684.627	-0.02
684.81	-0.06
684.993	-0.04
685.176	-0.03
685.359	-0.06
685.542	-0.07
685.725	0.02
685.908	0.02
686.091	-0.07
686.274	0.05
686.457	-0.01
686.639	-0.08
686.822	-0.02
687.005	-0.03
687.188	-0.03
687.371	0.07
687.553	-0.04
687.736	0
687.919	0.05
688.102	0.03
688.284	-0.05
688.467	-0.04
688.65	-0.03
688.832	-0.03
689.015	-0.03
689.197	-0.07
689.38	0.09
689.563	0.05
689.745	-0.1
689.928	-0.06
690.11	-0.06
690.293	0
690.475	-0.12
690.658	-0.01
690.84	-0.05
691.023	-0.05
691.205	-0.06
691.388	-0.03
691.57	0.01
691.752	-0
691.935	-0.11
692.117	-0.07
692.3	-0.02
692.482	-0.07
692.664	-0.02
692.847	0.01
693.029	0.01
693.211	0.05
693.393	-0.06
693.576	-0.03
693.758	-0.04
693.94	-0.08
694.122	-0.05
694.304	-0.06
694.487	-0.07
694.669	0.01
694.851	-0.11
695.033	0.01
695.215	-0.05
695.397	-0.08
695.579	0.01
695.761	-0.07
695.943	-0.09
696.125	0.02
696.308	0.02
696.49	-0.09
696.671	0.1
696.853	-0.05
697.035	0.1
697.217	-0.05
697.399	-0
697.581	-0.11
697.763	-0.07
697.945	-0.08
698.127	-0.04
698.309	0.06
698.491	-0.04
698.672	0.01
698.854	0.02
699.036	0.05
699.218	-0.08
699.399	-0.03
699.581	0.05
699.763	-0.03
699.945	-0.06
700.126	-0.09
700.308	-0.01
700.49	-0.01
700.671	-0.11
700.853	-0.12
701.035	-0.04
701.216	-0.02
701.398	-0.09
701.579	-0.08
701.761	0.02
701.943	-0.03
702.124	-0.04
702.306	-0.06
702.487	0.07
702.669	-0.04
702.85	-0.11
703.031	-0.12
703.213	0
703.394	-0.02
703.576	-0.05
703.757	-0.01
703.938	0.01
704.12	0.06
704.301	0.03
704.483	-0.08
704.664	0.04
704.845	0.08
705.026	0.05
705.208	-0.01
705.389	-0.06
705.57	0.01
705.751	-0.02
705.933	0
706.114	0.06
706.295	-0.02
706.476	-0.11
706.657	0.06
706.838	-0.01
707.02	-0
707.201	0.03
707.382	-0.08
707.563	-0.03
707.744	-0.11
707.925	-0.09
708.106	-0.11
708.287	0.06
708.468	0.06
708.649	-0.04
708.83	-0.01
709.011	-0.08
709.192	0.01
709.373	-0.1
709.554	-0.04
709.734	0
709.915	0.02
710.096	-0.03
710.277	-0.14
710.458	-0.05
710.639	-0.04
710.819	-0.04
711	-0.08
711.181	0.03
711.362	0.02
711.542	0.01
711.723	0.01
711.904	0.02
712.085	-0.04
712.265	-0
712.446	-0.05
712.627	-0.06
712.807	-0
712.988	-0.06
713.168	-0.11
713.349	0.04
713.53	-0.16
713.71	-0.07
713.891	-0.13
714.071	0.02
714.252	-0
714.432	-0.09
714.613	-0.09
714.793	-0.07
714.974	0.07
715.154	0.01
715.334	-0.03
715.515	0.09
715.695	-0.12
715.876	-0.09
716.056	-0.09
716.236	-0.04
716.417	-0.07
716.597	-0.06
716.777	0.11
716.957	-0.07
717.138	-0
717.318	-0.04
717.498	-0.15
717.678	-0.04
717.859	0.03
718.039	-0.05
718.219	0.01
718.399	0
718.579	-0.08
718.759	-0.07
718.939	-0.02
719.12	-0.03
719.3	0.02
719.48	-0.13
719.66	-0.18
719.84	0.01
720.02	-0.03
720.2	-0.11
720.38	-0.01
720.56	0.02
720.74	-0.04
720.92	0.05
721.1	0.01
721.279	0.03
721.459	-0.04
721.639	-0.19
721.819	0.05
721.999	-0.06
722.179	-0.06
722.359	-0.11
722.538	-0.05
722.718	0.01
722.898	-0.07
723.078	-0.04
723.257	-0.05
723.437	-0.03
723.617	-0
723.797	-0.02
723.976	0.05
724.156	-0.06
724.336	0.13
724.515	0.19
724.695	-0.12
724.874	0.05
725.054	0.02
725.234	-0.07
725.413	0.03
725.593	-0.06
725.772	-0.01
725.952	-0.07
726.131	-0.07
726.311	-0.08
726.49	0.02
726.67	-0.14
726.849	-0.06
727.028	-0.05
727.208	-0.01
727.387	0
727.567	-0.16
727.746	0.01
727.925	-0.07
728.105	-0.1
728.284	-0.03
728.463	-0.1
728.643	0.03
728.822	-0.17
729.001	-0.05
729.18	0.04
729.359	0.03
729.539	-0.05
729.718	0.03
729.897	-0.02
730.076	-0.06
730.255	-0.2
730.434	-0.05
730.614	-0.08
730.793	0
730.972	-0.05
731.151	-0.06
731.33	0.05
731.509	0.07
731.688	-0.07
731.867	-0.06
732.046	-0.1
732.225	0.14
732.404	-0.04
732.583	-0.1
732.762	-0.04
732.941	-0.01
733.12	0.01
733.298	0.01
733.477	0.05
733.656	-0.07
733.835	-0.13
734.014	-0.03
734.193	-0.06
734.371	0.03
734.55	-0.13
734.729	-0.13
734.908	0.02
735.086	0.02
735.265	0.13
735.444	-0.1
735.623	-0.15
735.801	-0.12
735.98	-0.04
736.159	-0.08
736.337	0.06
736.516	-0.1
736.694	0.02
736.873	-0.06
737.052	0.11
737.23	0.09
737.409	-0.18
737.587	0.05
737.766	-0.17
737.944	-0.13
738.123	-0.07
738.301	-0.08
738.479	0
738.658	0.01
738.836	-0.16
739.015	0.1
739.193	0.12
739.371	-0.13
739.55	-0.03
739.728	-0.08
739.906	0.06
740.085	0.02
740.263	-0.1
740.441	-0.2
740.62	0.21
740.798	0.06
740.976	-0.12
741.154	-0.17
741.332	-0.03
741.511	-0.14
741.689	0.01
741.867	-0.04
742.045	0.04
742.223	-0.06
742.401	-0.14
742.579	0.01
742.757	-0.09
742.935	-0.25
743.114	-0.13
743.292	-0.11
743.47	0.06
743.648	-0.04
743.826	-0.05
744.004	-0.01
744.181	-0.02
744.359	-0.11
744.537	0.07
744.715	-0.1
744.893	0.01
745.071	-0.08
745.249	-0.15
745.427	-0.04
745.605	0.03
745.782	-0.03
745.96	-0.01
746.138	-0.08
746.316	0.01
746.493	-0.16
746.671	-0.09
746.849	-0.07
747.027	0.03
747.204	-0.12
747.382	0.03
747.56	-0.2
747.737	-0.04
747.915	-0.17
748.093	0.04
748.27	-0.18
748.448	-0.07
748.625	-0.2
748.803	-0.12
748.98	-0.05
749.158	0.06
749.335	0.05
749.513	-0.03
749.69	-0.02
749.868	-0.06
750.045	0.11
750.223	-0.05
750.4	-0.19
750.578	0.06
750.755	-0.1
750.932	-0.13
751.11	0.05
751.287	-0.22
751.464	0.05
751.642	-0.08
751.819	-0.01
751.996	0
752.173	-0.18
752.351	-0.09
752.528	-0.04
752.705	-0.07
752.882	-0.09
753.06	-0.07
753.237	0.1
753.414	0.1
753.591	0.11
753.768	-0.01
753.945	-0.01
754.122	-0.2
754.299	0.08
754.476	-0.13
754.654	-0.06
754.831	-0.01
755.008	-0.01
755.185	-0.02
755.362	-0.11
755.539	0
755.716	-0.14
755.892	-0.06
756.069	-0.04
756.246	-0.12
756.423	-0.13
756.6	0.07
756.777	-0.15
756.954	0.07
757.131	-0.1
757.307	-0.21
757.484	-0.2
757.661	-0.01
757.838	-0.09
758.015	-0.18
758.191	0.06
758.368	0.08
758.545	0.08
758.721	-0.01
758.898	-0.11
759.075	0.02
759.251	-0.04
759.428	0.07
759.605	-0.35
759.781	-0.14
759.958	-0.1
760.134	0.05
760.311	-0.16
760.488	-0.06
760.664	0.13
760.841	-0.02
761.017	-0.14
761.194	0.02
761.37	0.05
761.547	0.02
761.723	-0.05
761.899	0.03
762.076	-0.2
762.252	-0.15
762.429	-0.19
762.605	0.07
762.781	-0.03
762.958	0.05
763.134	-0.17
763.31	-0.19
763.486	0.1
763.663	-0.12
763.839	0.03
764.015	-0.21
764.191	-0.28
764.368	-0.02
764.544	-0.08
764.72	-0.06
764.896	0.02
765.072	-0.08
765.248	-0.14
765.425	-0.08
765.601	-0.07
765.777	0
765.953	-0.16
766.129	-0.14
766.305	-0.19
766.481	0.04
766.657	0.11
766.833	0.09
767.009	-0.2
767.185	-0.09
767.361	0.01
767.537	-0.12
767.713	0.04
767.889	-0.07
768.065	-0.02
768.24	-0.24
768.416	0.07
768.592	-0.18
768.768	-0.02
768.944	0.02
769.12	-0.17
769.295	-0.21
769.471	-0.13
769.647	-0.09
769.823	0.12
769.998	-0.17
770.174	-0.15
770.35	0.22
770.525	0.26
770.701	0.02
770.877	-0.04
771.052	-0.1
771.228	0.11
771.403	0.04
771.579	0.02
771.755	0.27
771.93	-0.17
772.106	-0.2
772.281	-0.33
772.457	-0.07
772.632	0.03
772.808	-0.32
772.983	-0.24
773.159	-0.27
773.334	0.07
773.509	-0.11
773.685	-0.19
773.86	0.19
774.036	0.12
774.211	-0.06
774.386	-0.07
774.562	-0.02
774.737	0.01
774.912	-0.13
775.087	0.17
775.263	-0.06
775.438	-0.14
775.613	-0.22
775.788	-0.09
775.964	-0.04
776.139	0.22
776.314	-0.15
776.489	-0.06
776.664	-0.08
776.839	-0.11
777.014	0.07
777.19	0.07
777.365	0.19
777.54	0.12
777.715	-0.25
777.89	-0.08
778.065	-0.17
778.24	0.03
778.415	-0.01
778.59	-0.33
778.765	-0.05
778.94	-0.05
779.115	-0.1
779.289	-0.04
779.464	-0.18
779.639	-0.11
779.814	-0.14
779.989	-0.25
780.164	-0.02
780.339	0.02
780.513	-0.2
780.688	-0.12
780.863	-0.06
781.038	0.09
781.212	-0.13
781.387	0.13
781.562	0.24
781.737	-0.18
781.911	0.08
782.086	-0.14
782.261	-0.05
782.435	0.21
782.61	-0.27
782.784	-0.06
782.959	0.07
783.134	-0.24
783.308	-0.31
783.483	-0.1
783.657	0.16
783.832	0.11
784.006	-0.33
784.181	-0.04
784.355	0.08
784.53	-0.36
784.704	-0.13
784.878	-0.02
785.053	0.07
785.227	0.09
785.402	0.31
785.576	-0.36
785.75	0.02
785.925	-0.27
786.099	-0.07
786.273	-0.21
786.448	-0.08
786.622	0.01
786.796	-0.05
786.97	-0.21
787.145	0.2
787.319	-0.5
787.493	-0.08
787.667	-0.34
787.841	-0.26
788.015	-0.05
788.19	-0.32
788.364	-0.12
788.538	0
788.712	0.06
788.886	-0.27
789.06	-0.01
789.234	0.22
789.408	-0.33
789.582	-0.05
789.756	-0.08
789.93	-0.18
790.104	-0.06
790.278	-0.34
790.452	-0.33
790.626	-0.01
790.8	-0.11
790.973	0.15
791.147	-0.08
791.321	0.07
791.495	0.22
791.669	0.08
791.843	0.03
792.016	-0.17
792.19	0.24
792.364	-0.32
792.538	0.48
792.711	0.18
792.885	-0.22
793.059	-0.23
793.233	-0.42
793.406	0.03
793.58	0.11
793.754	-0.08
793.927	-0.11
794.101	0.09
794.274	-0.15
794.448	0.15
794.622	-0.32
794.795	0.38
794.969	-0.35
795.142	0.05
795.316	-0.08
795.489	-0.17
795.663	0.15
795.836	-0.15
796.009	-0.3
796.183	0.35
796.356	0.07
796.53	-0.09
796.703	-0.1
796.876	0.5
797.05	-0.19
797.223	-0.06
797.396	-0.07
797.57	-0.26
797.743	0.17
797.916	-0.14
798.09	0.07
798.263	0.31
798.436	-0.01
798.609	-0.19
798.782	-0.14
798.956	-0.04
799.129	-0.12
799.302	-0.42
799.475	-0.33
799.648	-0.42
799.821	-0.2
799.994	0.02
800.167	-0.35
800.34	-0.02
800.514	0.23
800.687	-0.48
800.86	-0.18
801.033	-0.11
801.206	-0.22
801.379	-0.3
801.551	-0.04
801.724	-0.16
801.897	0.44
802.07	-0.25
802.243	-0.48
802.416	-0.15
802.589	-0.24
802.762	-0.07
802.935	0.02
803.107	0.04
803.28	-0.06
803.453	0.06
803.626	-0.42
803.798	0.12
803.971	-0.36
804.144	0.02
804.317	0.23
804.489	0.2
804.662	-0.21
804.835	-0.01
805.007	-0.3
805.18	0.02
805.353	-0.12
805.525	-0.17
805.698	-0.37
805.87	-0.06
806.043	0.23
806.215	-0.43
806.388	-0.15
806.56	0.05
806.733	0.3
806.905	0.11
807.078	-0.24
807.25	-0.3
807.423	-0.13
807.595	-0.13
807.768	-0.2
807.94	-0.12
808.112	0.04
808.285	-0.42
808.457	-0.52
808.629	-0.17
808.802	-0.04
808.974	-0.48
809.146	-0.54
809.318	-0.74
809.491	-0.39
809.663	-0.15
809.835	-0.56
810.007	0.16
810.18	-0.27
810.352	-0.67
810.524	-0.22
810.696	0.31
810.868	0.01
811.04	-0.18
811.212	-0.34
811.384	0.19
811.556	0.05
811.728	-0.35
811.901	0.39
812.073	-0.19
812.245	-0.14
812.417	-0.07
812.589	-0.5
812.76	0.23
812.932	0.06
813.104	0.08
813.276	-0.27
813.448	0.37
813.62	-0.25
813.792	0
813.964	-0.16
814.136	-0.29
814.307	-0.19
814.479	-0.8
814.651	-0.55
814.823	0.56
814.995	-0.22
815.166	-0.51
815.338	-0.6
815.51	-0.6
815.681	0.65
815.853	0.03
816.025	-0.2
816.196	-0.04
816.368	0.22
816.54	-0.58
816.711	-0.51
816.883	-0.22
817.054	0.77
817.226	-0.68
817.398	-0.21
817.569	-0.4
817.741	-0.28
817.912	-0.39
818.084	-0.42
818.255	-0.1
818.426	-0.16
818.598	-0.43
818.769	-0.24
818.941	-0.22
819.112	0.47
819.283	0.14
819.455	-0.54
819.626	-0.17
819.798	-0.02
819.969	0.24
820.14	0.23
820.311	-0.53
820.483	-0.04
820.654	-0.49
820.825	0.16
820.996	-0.48
821.168	-0.68
821.339	-0.21
821.51	-0.58
821.681	0.04
821.852	0.08
822.023	-0.67
822.195	-1.26
822.366	0.66
822.537	0.01
822.708	-0.29
822.879	-0.59
823.05	0.04
823.221	-0.21
823.392	0.21
823.563	-0.12
823.734	-0.29
823.905	-0.13
824.076	-0.47
824.247	-0.81
824.418	-0.59
824.589	0.46
824.759	-0.33
824.93	0.1
825.101	-0.55
825.272	0.03
825.443	-0.03
825.614	0.13
825.784	-1.38
825.955	1.08
826.126	-0.05
826.297	-0.35
826.467	0.57
826.638	0.36
826.809	-1.22
826.98	-0.17
827.15	-0.05
827.321	-0.47
827.492	0.63
827.662	-0.36
827.833	0.78
828.003	0.02
828.174	-0.91
828.345	-0.99
828.515	0.62
828.686	-0.31
828.856	-0.48
829.027	-0.54
829.197	-0.35
829.368	-0.08
829.538	-0.51
829.709	-0.42
829.879	0.06
830.049	-0.43
830.22	-0.84
830.39	-0.62
830.56	0.86
830.731	-0.51
830.901	-0.81
831.072	0.02
831.242	-0.32
831.412	-0.09
831.582	-0.47
831.753	-0.89
831.923	0.09
832.093	0.03
832.263	-0.28
832.434	-0.8
832.604	-0.69
832.774	0.13
832.944	-0.36
833.114	-0.59
833.284	-0.24
833.454	-1.24
833.624	-0.22
833.795	-0.87
833.965	0.32
834.135	0.97
834.305	-0.81
834.475	-1.12
834.645	-0.95
834.815	-0.93
834.985	-1.05
835.155	-0.73
835.325	0.33
835.494	0.05
835.664	-0.27
835.834	-0.84
836.004	-0.34
836.174	0.51
836.344	0.01
836.514	-1.39
836.684	-0.31
836.853	-0.53
837.023	0
837.193	-0.73
837.363	-0.11
837.532	0.4
837.702	-0.13
837.872	-1.18
838.041	0.75
838.211	0.91
838.381	-0.36
838.55	-0.45
838.72	1
838.89	0.02
839.059	-0.54
839.229	-0.7
839.398	1.23
839.568	-0.24
839.738	-0.77
839.907	-0.12
840.077	0.33
840.246	-0.66
840.416	-0.71
840.585	-1.01
840.755	1.24
840.924	-0.09
841.093	-1.43
841.263	-0.96
841.432	-0.38
841.602	-0.67
841.771	-0.4
841.94	-0.66
842.11	1.37
842.279	0.81
842.448	-0.8
842.617	-0.9
842.787	0.62
842.956	-0.39
843.125	-0.32
843.294	0.55
843.464	0.04
843.633	-0.38
843.802	-1.31
843.971	-0.57
844.14	0.49
844.309	0.94
844.479	-0.34
844.648	-0.88
844.817	-0.93
844.986	-0.6
845.155	-0.38
845.324	-0.78
845.493	-0.27
845.662	-1.26
845.831	-0.22
846	0.2
846.169	-1.64
846.338	0.72
846.507	0.41
846.676	0.09
846.844	-0.81
847.013	0.41
847.182	-0.3
847.351	-0.45
847.52	0.38
847.689	0.1
847.858	0.05
848.026	-1.02
848.195	-0.07
848.364	-0.36
848.533	-0.81
848.701	-0.82
848.87	-0.19
849.039	0.37
849.207	0
849.376	-0.64
849.545	0.75
849.713	-0.57
849.882	-1.03
850.051	-0.4
850.219	-0.62
850.388	1.02
850.556	-0.82
850.725	-0.3
850.893	0.41
851.062	-0.27
851.23	0.24
851.399	-1.85
851.567	-0.71
851.736	-0.28
851.904	-0.59
852.073	-0.49
852.241	1.62
852.41	-0.53
852.578	0.61
852.746	-0.45
852.915	0.69
853.083	-0.53
853.251	-1.11
853.42	-1.47
853.588	-0.05
853.756	0.11
853.924	-0.25
854.093	-0.38
854.261	-0.4
854.429	-2.39
854.597	-0.49
854.765	-0.37
854.934	0.98
855.102	1.4
855.27	-0.28
855.438	0.09
855.606	0.5
855.774	0.16
855.942	-2.57
856.11	-2.25
856.278	-1.1
856.446	0.12
856.614	-0.74
856.782	-0.4
856.95	0.25
857.118	0.29
857.286	-0.41
857.454	-1.61
857.622	1.44
857.79	0.27
857.958	-1.08
858.126	-1.81
858.294	-3.75
858.462	-0.46
858.629	-1.22
858.797	-2.46
858.965	-0.69
859.133	-0.1
859.301	-0.33
859.468	-0.58
859.636	-0.45
859.804	2.54
859.971	0.21
860.139	-1.55
860.307	0.49
860.474	-0.84
860.642	-0.19
860.81	-1.11
860.977	-0.78
861.145	1.61
861.313	-0.63
861.48	-1.36
861.648	0.74
861.815	0.48
861.983	-2.01
862.15	-0.86
862.318	0.66
862.485	0.2
862.653	-0.95
862.82	-1.17
862.988	0.43
863.155	0.08
863.322	-0.82
863.49	-1.7
863.657	-1.3
863.824	0
863.992	0.44
864.159	-1.3
864.326	1.28
864.494	-0.24
864.661	2.57
864.828	-1.87
864.996	-1.38
865.163	1.58
865.33	-2.52
865.497	-2.21
865.664	-1.92
865.832	-1.31
865.999	-1.44
866.166	-2.77
866.333	-1.98
866.5	-1.02
866.667	-1
866.834	-0.79
867.001	1.5
867.168	-2.14
867.335	-1.24
867.502	-0.78
867.669	-0.41
867.836	2.94
868.003	0.51
868.17	1.13
868.337	-1.19
868.504	1.04
868.671	-2.89
868.838	-1.71
869.005	-0.04
869.172	0.88
869.339	0.25
869.505	-1.02
869.672	-1.45
869.839	0.44
870.006	-0.47
870.173	-2.38
870.339	-0.14
870.506	1.55
870.673	-0.79
870.84	0.59
871.006	-0.99
871.173	-1.13
871.34	-0.86
871.506	-1.66
871.673	-0.37
871.839	-4.01
872.006	-1.5
872.173	0.28
872.339	-0.71
872.506	1.86
872.672	-0.69
872.839	-1.61
873.005	-0.36
873.172	1.27
873.338	1.14
873.505	-0.77
873.671	-2.07
873.838	1.75
874.004	-2.05
874.171	-1.7
874.337	0.06
874.503	1.1
874.67	-0.84
874.836	-0.39
875.002	1.02
875.169	-0.19
875.335	-0.31
875.501	-2.2
875.668	1.13
875.834	-0.63
876	-1.12
876.166	0.61
876.332	-0.19
876.499	2.64
876.665	-0.97
876.831	-1.2
876.997	3.87
877.163	-1.91
877.329	-1.26
877.495	1.12
877.662	-0.53
877.828	-0.78
877.994	-2.98
878.16	-2.45
878.326	-1.38
878.492	-0.33
878.658	-2.2
878.824	0.56
878.99	-1.24
879.156	-1.21
879.322	2.97
879.487	-1.23
879.653	-1.02
879.819	0.38
879.985	-1.46
880.151	-0.69
880.317	-0.33
880.483	-1.43
880.648	-0.24
880.814	-2.94
880.98	-1.14
881.146	-4.16
881.312	-2.15
881.477	-1.27
881.643	-0.35
881.809	1.66
881.974	1.96
882.14	-2.02
882.306	-2.14
882.471	2.02
882.637	-1.33
882.803	1.2
882.968	0.85
883.134	3.2
883.299	-1.08
883.465	-1.1
883.63	1.89
883.796	-0.03
883.961	-0.03
884.127	-0.03
884.292	-3.71
884.458	-3.36
884.623	-3.35
