Data from Apollo_Calib_20240827__AbsoluteIrradiance__440__06-29-02-960.txt Node

Date: Wed Aug 28 06:29:02 BST 2024
User: biology
Spectrometer: FLMT08252
Trigger mode: 0
Integration Time (sec): 5.000000E-1
Scans to average: 5
Electric dark correction enabled: true
Nonlinearity correction enabled: false
Boxcar width: 0
XAxis mode: Wavelengths
Number of Pixels in Spectrum: 3648
>>>>>Begin Spectral Data<<<<<
179.588	-0
179.809	-0
180.03	-0
180.251	-0
180.473	-0
180.694	0
180.915	0
181.136	-0
181.357	0
181.578	-0
181.799	-0
182.02	-0
182.241	-0
182.462	-0
182.683	0
182.904	0
183.125	-0
183.346	0
183.567	0
183.788	0
184.009	-0
184.23	0
184.451	0
184.672	0
184.892	0
185.113	0
185.334	0
185.555	0
185.776	0
185.996	0
186.217	0
186.438	0
186.659	0
186.879	0
187.1	0
187.321	0
187.541	0
187.762	0
187.983	0
188.203	0
188.424	0
188.644	0
188.865	0
189.086	0
189.306	0
189.527	0
189.747	0
189.968	0
190.188	0
190.409	0
190.629	0
190.849	0
191.07	0
191.29	0
191.511	0
191.731	0
191.951	0
192.172	0
192.392	0
192.612	0
192.833	0
193.053	0
193.273	0
193.493	0
193.714	0
193.934	0
194.154	0
194.374	0
194.594	0
194.815	0
195.035	0
195.255	0
195.475	0
195.695	0
195.915	0
196.135	0
196.355	0
196.575	0
196.795	0
197.015	0
197.235	0
197.455	0
197.675	0
197.895	0
198.115	0
198.335	0
198.555	0
198.775	0
198.995	0
199.214	0
199.434	0
199.654	0
199.874	0
200.094	0.27
200.313	0.46
200.533	0.59
200.753	0.56
200.973	1.6
201.192	1.32
201.412	0.46
201.632	0.67
201.851	2.3
202.071	0.4
202.291	0.56
202.51	0.54
202.73	1.41
202.95	0.69
203.169	0.26
203.389	1.12
203.608	1.3
203.828	0.48
204.047	0.53
204.267	0.93
204.486	0.95
204.706	0.86
204.925	0.81
205.145	0.65
205.364	1.03
205.583	1.46
205.803	0.9
206.022	-0.06
206.242	0.6
206.461	0.45
206.68	0.49
206.9	0.85
207.119	1.29
207.338	1.48
207.557	0.47
207.777	0.56
207.996	0.72
208.215	0.88
208.434	0.25
208.654	0.41
208.873	0.8
209.092	0.99
209.311	0.38
209.53	0.79
209.749	0.51
209.968	0.28
210.187	0.33
210.407	-0.08
210.626	0.29
210.845	0.72
211.064	0.46
211.283	0.19
211.502	0.78
211.721	0.46
211.94	0.44
212.159	0.6
212.377	0.79
212.596	0.79
212.815	0.44
213.034	0.65
213.253	0.56
213.472	0.7
213.691	0.52
213.91	0.35
214.128	0.36
214.347	0.75
214.566	0.01
214.785	0.08
215.003	0.51
215.222	0.56
215.441	0.54
215.66	0.14
215.878	0.38
216.097	0.45
216.316	0.38
216.534	0.29
216.753	0.3
216.972	0.22
217.19	0.21
217.409	0.19
217.627	0.25
217.846	0.32
218.064	0.37
218.283	0.21
218.501	0.79
218.72	0.59
218.938	0.2
219.157	0.32
219.375	0.51
219.594	0.51
219.812	0.32
220.031	0.16
220.249	0.56
220.467	0.44
220.686	0.27
220.904	0.07
221.122	0.11
221.341	0.52
221.559	0.33
221.777	0.03
221.995	0.47
222.214	0.41
222.432	0.22
222.65	0.43
222.868	0.33
223.086	0.35
223.305	0.43
223.523	0.28
223.741	0.53
223.959	0.21
224.177	0.16
224.395	0.21
224.613	0.34
224.831	0.58
225.049	0.22
225.267	0.11
225.485	0.26
225.703	0.27
225.921	0.27
226.139	0.15
226.357	0.25
226.575	0.33
226.793	0.22
227.011	0.74
227.229	0.39
227.447	0.37
227.665	0.16
227.883	-0.03
228.1	0.28
228.318	0.31
228.536	0.05
228.754	0.18
228.972	0.38
229.189	0.36
229.407	0.2
229.625	0.21
229.843	0.38
230.06	0.34
230.278	0.19
230.496	0.25
230.713	0.29
230.931	0.32
231.149	0.23
231.366	0.04
231.584	0.25
231.801	0.55
232.019	0.27
232.236	0.07
232.454	0.12
232.671	0.38
232.889	0.22
233.106	0.1
233.324	0.24
233.541	0.15
233.759	0.3
233.976	0.1
234.194	0.2
234.411	0.22
234.628	0.17
234.846	0.19
235.063	0.17
235.28	0.28
235.498	0.19
235.715	0.11
235.932	0.38
236.149	0.14
236.367	0.2
236.584	0.28
236.801	0.24
237.018	0.25
237.236	0.21
237.453	0.15
237.67	0.38
237.887	0.16
238.104	0.25
238.321	0.08
238.538	0.26
238.755	0.27
238.973	0.07
239.19	0.24
239.407	0.3
239.624	0.22
239.841	0.05
240.058	0.12
240.275	0.28
240.492	0.26
240.709	0.19
240.925	0.11
241.142	0.24
241.359	0.1
241.576	0.16
241.793	0.15
242.01	0.18
242.227	0.31
242.444	0.3
242.66	0.32
242.877	0.25
243.094	0.15
243.311	0.26
243.527	0.14
243.744	0.23
243.961	0.29
244.178	0.14
244.394	0.16
244.611	0.43
244.828	0.32
245.044	0.21
245.261	0.15
245.477	0.24
245.694	0.19
245.911	0.17
246.127	0.21
246.344	0.33
246.56	0.34
246.777	0.18
246.993	0.18
247.21	0.21
247.426	0.26
247.643	0.14
247.859	0.09
248.076	0.08
248.292	0.37
248.508	0.11
248.725	0.24
248.941	0.24
249.157	0.25
249.374	0.16
249.59	0.17
249.806	0.21
250.023	0.29
250.239	0.09
250.455	0.08
250.671	0.25
250.888	0.19
251.104	0.3
251.32	0.09
251.536	0.16
251.752	0.18
251.969	0.16
252.185	0.17
252.401	0.3
252.617	0.1
252.833	0.16
253.049	0.21
253.265	0.18
253.481	0.2
253.697	0.05
253.913	0.07
254.129	0.19
254.345	0.13
254.561	0.18
254.777	0.2
254.993	0.22
255.209	0.14
255.425	0.16
255.641	0.07
255.857	0.2
256.073	0.19
256.288	0.07
256.504	0.09
256.72	0.23
256.936	0.29
257.152	0.17
257.367	0.09
257.583	0.19
257.799	0.25
258.015	0.15
258.23	0.13
258.446	0.33
258.662	0.08
258.877	0.07
259.093	0.1
259.309	0.15
259.524	0.19
259.74	0.11
259.955	0.04
260.171	0.16
260.387	0.18
260.602	0.23
260.818	0.23
261.033	0.09
261.249	0.12
261.464	0.11
261.68	0.09
261.895	0.18
262.11	0.24
262.326	0.16
262.541	-0.03
262.757	0.23
262.972	0.22
263.187	0.19
263.403	0.15
263.618	0.2
263.833	0.19
264.049	0.08
264.264	0.16
264.479	0.2
264.694	0.27
264.91	0.05
265.125	0.13
265.34	0.2
265.555	0.2
265.77	0.21
265.986	0.18
266.201	0.18
266.416	0.24
266.631	0.08
266.846	0.17
267.061	0.18
267.276	0.19
267.491	0.03
267.706	0.19
267.921	0.16
268.136	0.21
268.351	0.13
268.566	0.1
268.781	0.25
268.996	0.23
269.211	0.16
269.426	0.05
269.641	0.12
269.856	0.23
270.071	0.04
270.285	0.08
270.5	0.16
270.715	0.18
270.93	0.13
271.145	0.16
271.359	0.15
271.574	0.04
271.789	0.15
272.004	0.07
272.218	0.13
272.433	0.18
272.648	0.05
272.862	0.25
273.077	0.15
273.292	0.17
273.506	0.07
273.721	0.13
273.936	0.16
274.15	0.19
274.365	0.12
274.579	0.17
274.794	0.16
275.008	0.15
275.223	0.08
275.437	0.14
275.652	0.2
275.866	0.22
276.081	0.11
276.295	0.22
276.509	0.18
276.724	0.14
276.938	0.11
277.153	0.16
277.367	0.22
277.581	0.11
277.796	0.11
278.01	0.04
278.224	0.13
278.438	0.25
278.653	0.07
278.867	0.12
279.081	0.08
279.295	0.12
279.51	0.16
279.724	0.06
279.938	0.17
280.152	0.17
280.366	0.09
280.58	0.12
280.794	0.27
281.008	0.16
281.222	0.21
281.437	0.19
281.651	0.1
281.865	0.25
282.079	0.13
282.293	0.04
282.507	0.06
282.721	0.08
282.935	0.12
283.148	0.08
283.362	0.13
283.576	0.08
283.79	0.1
284.004	0.03
284.218	0.22
284.432	0.09
284.646	0.13
284.859	0.14
285.073	0.11
285.287	0.09
285.501	0.1
285.714	0.16
285.928	0.14
286.142	0.12
286.356	0.12
286.569	0.11
286.783	0.24
286.997	0.13
287.21	0.13
287.424	0.18
287.637	0.11
287.851	0.14
288.065	0.15
288.278	0.1
288.492	0.12
288.705	0.11
288.919	0.13
289.132	0.04
289.346	0.16
289.559	0.03
289.773	0.04
289.986	0.11
290.2	0.11
290.413	0.12
290.626	0.06
290.84	0.04
291.053	0.12
291.267	0.2
291.48	0.07
291.693	0.08
291.906	0.06
292.12	0.14
292.333	0.1
292.546	0.1
292.76	0.14
292.973	0.13
293.186	0.15
293.399	0.11
293.612	0.15
293.826	0.08
294.039	0.13
294.252	0.16
294.465	0.16
294.678	0.16
294.891	0.16
295.104	0.1
295.317	0.11
295.53	0.12
295.743	0.07
295.956	0.12
296.169	0.17
296.382	0.17
296.595	0.1
296.808	0.09
297.021	0.12
297.234	0.16
297.447	0.15
297.66	0.13
297.873	0.18
298.086	0.11
298.299	0.06
298.511	0.07
298.724	0.11
298.937	0.06
299.15	0.08
299.363	0.09
299.575	0.15
299.788	0.16
300.001	0.1
300.213	0.08
300.426	0.13
300.639	0.09
300.852	0.09
301.064	0.16
301.277	0.15
301.489	0.18
301.702	0.17
301.915	0.12
302.127	0.13
302.34	0.11
302.552	0.1
302.765	0.1
302.977	0.09
303.19	0.07
303.402	0.04
303.615	0.08
303.827	0.07
304.04	0.12
304.252	0.16
304.464	0.08
304.677	0.21
304.889	0.16
305.102	0.1
305.314	0.11
305.526	0.17
305.739	0.14
305.951	0.03
306.163	0.11
306.375	0.17
306.588	0.1
306.8	0.05
307.012	0.03
307.224	0.11
307.436	0.22
307.649	0.01
307.861	0.12
308.073	0.14
308.285	0.08
308.497	0.08
308.709	0.1
308.921	0.13
309.133	0.15
309.346	0.09
309.558	0.1
309.77	0.13
309.982	0.16
310.194	0.17
310.406	0.12
310.617	0.2
310.829	0.09
311.041	0.14
311.253	0.08
311.465	0.03
311.677	0.1
311.889	0.11
312.101	0.07
312.313	0.15
312.524	0.17
312.736	0.04
312.948	0.06
313.16	0.16
313.372	0.16
313.583	0.09
313.795	0.09
314.007	0.04
314.218	0.12
314.43	0.08
314.642	0.03
314.853	0.05
315.065	0.17
315.277	0.1
315.488	0.13
315.7	0.11
315.912	0.14
316.123	0.1
316.335	0.13
316.546	0.22
316.758	0.08
316.969	0.08
317.181	0.1
317.392	0.13
317.604	0.14
317.815	0.09
318.026	0.07
318.238	0.1
318.449	0.16
318.661	0.07
318.872	0.04
319.083	0.07
319.295	0.16
319.506	0.04
319.717	0.13
319.929	0.12
320.14	0.07
320.351	0.12
320.562	0.04
320.774	0.11
320.985	0.06
321.196	0.04
321.407	0.05
321.618	0.12
321.829	0.12
322.041	0.14
322.252	0.14
322.463	0.14
322.674	0.16
322.885	0.04
323.096	0.06
323.307	0.09
323.518	0.07
323.729	0.09
323.94	0.11
324.151	0.1
324.362	0.15
324.573	0.1
324.784	0.03
324.995	0.17
325.206	0.16
325.417	0.1
325.628	0.11
325.838	0.12
326.049	0.15
326.26	0.12
326.471	0.09
326.682	0.13
326.892	0.12
327.103	0.01
327.314	0.04
327.525	0.2
327.735	0.14
327.946	0.09
328.157	0.07
328.368	0.12
328.578	0.07
328.789	0.13
328.999	0.08
329.21	0.09
329.421	0.12
329.631	0.08
329.842	0.07
330.052	0.09
330.263	0.11
330.473	0.15
330.684	0.12
330.894	0.09
331.105	0.1
331.315	0.12
331.526	0.04
331.736	0.19
331.947	0.1
332.157	0.14
332.367	0.09
332.578	0.14
332.788	0.19
332.999	0.09
333.209	0.08
333.419	0.08
333.629	0.12
333.84	0.11
334.05	0.11
334.26	0.17
334.47	0.15
334.681	0.18
334.891	0.06
335.101	0.16
335.311	0.2
335.521	0.1
335.732	0.07
335.942	0.15
336.152	0.11
336.362	0.15
336.572	0.12
336.782	0.11
336.992	0.12
337.202	0.07
337.412	0.05
337.622	0.14
337.832	0.12
338.042	0.1
338.252	0.05
338.462	0.07
338.672	0.12
338.882	0.1
339.092	0.09
339.302	0.15
339.511	0.14
339.721	0.1
339.931	0.09
340.141	0.2
340.351	0.14
340.561	0.08
340.77	0.13
340.98	0.11
341.19	0.16
341.4	0.08
341.609	0.07
341.819	0.09
342.029	0.08
342.238	0.14
342.448	0.06
342.658	0.13
342.867	0.07
343.077	0.1
343.286	0.08
343.496	0.13
343.706	0.17
343.915	0.05
344.125	0.12
344.334	0.11
344.544	0.05
344.753	0.12
344.963	0.1
345.172	0.1
345.381	0.08
345.591	0.07
345.8	0.12
346.01	0.18
346.219	0.19
346.428	-0.03
346.638	0.12
346.847	0.1
347.056	0.15
347.266	0.08
347.475	0.11
347.684	0.14
347.893	0.12
348.103	0.13
348.312	0.09
348.521	0.08
348.73	0.09
348.94	0.11
349.149	0.08
349.358	0.12
349.567	0.05
349.776	0.07
349.985	0.08
350.194	0.14
350.403	0.15
350.612	0.07
350.821	0.1
351.03	0.14
351.239	0.07
351.448	0.09
351.657	0.08
351.866	0.18
352.075	0.1
352.284	0.13
352.493	0.09
352.702	0.16
352.911	0.11
353.12	0.1
353.329	0.06
353.538	0.13
353.746	0.09
353.955	0.09
354.164	0.12
354.373	0.08
354.582	0.16
354.79	0.09
354.999	0.13
355.208	0.1
355.416	0.15
355.625	0.05
355.834	0.1
356.042	0.1
356.251	0.08
356.46	0.1
356.668	0.15
356.877	0.17
357.085	0.12
357.294	0.01
357.503	0.1
357.711	0.12
357.92	0.19
358.128	0.1
358.337	0.08
358.545	0.13
358.754	0.1
358.962	0.16
359.17	0.11
359.379	0.12
359.587	0.12
359.796	0.12
360.004	0.13
360.212	0.15
360.421	0.14
360.629	0.09
360.837	0.1
361.046	0.13
361.254	0.21
361.462	0.06
361.67	0.1
361.879	0.12
362.087	0.14
362.295	0.13
362.503	0.08
362.711	0.05
362.92	0.1
363.128	0.08
363.336	0.03
363.544	0.04
363.752	0.07
363.96	0.07
364.168	0.09
364.376	0.07
364.584	0.11
364.792	0.14
365	0.15
365.208	0.14
365.416	0.11
365.624	0.13
365.832	0.07
366.04	0.19
366.248	0.13
366.456	0.11
366.664	0.12
366.872	0.07
367.079	0.05
367.287	0.13
367.495	0.11
367.703	0.13
367.911	0.06
368.118	0.11
368.326	0.11
368.534	0.09
368.742	0.18
368.949	0.09
369.157	0.08
369.365	0.13
369.572	0.09
369.78	0.08
369.988	0.15
370.195	0.13
370.403	0.15
370.61	0.1
370.818	0.1
371.026	0.21
371.233	0.05
371.441	0.1
371.648	0.08
371.856	0.13
372.063	0.11
372.271	0.06
372.478	0.1
372.685	0.07
372.893	0.14
373.1	0.11
373.308	0.1
373.515	0.17
373.722	0.18
373.93	0.13
374.137	0.13
374.344	0.16
374.552	0.18
374.759	0.13
374.966	0.09
375.173	0.1
375.381	0.1
375.588	0.08
375.795	0.03
376.002	0.05
376.209	0.05
376.417	0.06
376.624	0.12
376.831	0.12
377.038	0.09
377.245	0.03
377.452	0.12
377.659	0.11
377.866	0.07
378.073	0.14
378.28	0.11
378.487	0.15
378.694	0.15
378.901	0.1
379.108	0.12
379.315	0.16
379.522	0.17
379.729	0.11
379.936	0.11
380.143	0.12
380.35	0.09
380.557	0.11
380.763	0.11
380.97	0.13
381.177	0.12
381.384	0.12
381.591	0.09
381.797	0.12
382.004	0.13
382.211	0.12
382.418	0.12
382.624	0.15
382.831	0.14
383.038	0.13
383.244	0.08
383.451	0.11
383.658	0.12
383.864	0.08
384.071	0.07
384.277	0.19
384.484	0.1
384.69	0.15
384.897	0.09
385.103	0.15
385.31	0.08
385.516	0.1
385.723	0.09
385.929	0.08
386.136	0.1
386.342	0.13
386.549	0.07
386.755	0.18
386.961	0.13
387.168	0.08
387.374	0.11
387.58	0.12
387.787	0.14
387.993	0.16
388.199	0.1
388.406	0.11
388.612	0.13
388.818	0.12
389.024	0.06
389.231	0.14
389.437	0.19
389.643	0.13
389.849	0.11
390.055	0.09
390.261	0.1
390.467	0.1
390.674	0.1
390.88	0.12
391.086	0.13
391.292	0.08
391.498	0.18
391.704	0.11
391.91	0.1
392.116	0.11
392.322	0.05
392.528	0.18
392.734	0.11
392.94	0.16
393.146	0.12
393.352	0.14
393.557	0.07
393.763	0.13
393.969	0.16
394.175	0.14
394.381	0.15
394.587	0.07
394.792	0.08
394.998	0.16
395.204	0.19
395.41	0.07
395.615	0.18
395.821	0.15
396.027	0.17
396.233	0.07
396.438	0.13
396.644	0.2
396.85	0.2
397.055	0.13
397.261	0.14
397.466	0.24
397.672	0.13
397.878	0.15
398.083	0.16
398.289	0.1
398.494	0.16
398.7	0.2
398.905	0.05
399.111	0.21
399.316	0.06
399.522	0.16
399.727	0.18
399.932	0.11
400.138	0.12
400.343	0.21
400.549	0.16
400.754	0.14
400.959	0.16
401.165	0.15
401.37	0.14
401.575	0.07
401.78	0.14
401.986	0.13
402.191	0.13
402.396	0.11
402.601	0.16
402.807	0.12
403.012	0.11
403.217	0.2
403.422	0.16
403.627	0.1
403.832	0.17
404.037	0.19
404.243	0.18
404.448	0.14
404.653	0.11
404.858	0.18
405.063	0.19
405.268	0.13
405.473	0.09
405.678	0.1
405.883	0.25
406.088	0.17
406.293	0.1
406.498	0.1
406.703	0.17
406.907	0.15
407.112	0.1
407.317	0.17
407.522	0.17
407.727	0.12
407.932	0.17
408.136	0.29
408.341	0.16
408.546	0.2
408.751	0.17
408.956	0.14
409.16	0.22
409.365	0.17
409.57	0.16
409.774	0.14
409.979	0.2
410.184	0.16
410.388	0.15
410.593	0.22
410.798	0.17
411.002	0.08
411.207	0.19
411.411	0.17
411.616	0.13
411.82	0.15
412.025	0.16
412.229	0.12
412.434	0.22
412.638	0.22
412.843	0.11
413.047	0.17
413.252	0.13
413.456	0.16
413.66	0.18
413.865	0.15
414.069	0.19
414.273	0.15
414.478	0.13
414.682	0.14
414.886	0.15
415.091	0.11
415.295	0.11
415.499	0.14
415.703	0.16
415.908	0.23
416.112	0.07
416.316	0.23
416.52	0.14
416.724	0.12
416.929	0.14
417.133	0.24
417.337	0.12
417.541	0.14
417.745	0.12
417.949	0.17
418.153	0.17
418.357	0.09
418.561	0.22
418.765	0.15
418.969	0.28
419.173	0.18
419.377	0.15
419.581	0.22
419.785	0.16
419.989	0.1
420.193	0.17
420.397	0.16
420.601	0.21
420.804	0.24
421.008	0.14
421.212	0.21
421.416	0.22
421.62	0.14
421.823	0.15
422.027	0.24
422.231	0.21
422.435	0.16
422.638	0.18
422.842	0.13
423.046	0.12
423.249	0.23
423.453	0.17
423.657	0.25
423.86	0.18
424.064	0.2
424.268	0.27
424.471	0.19
424.675	0.23
424.878	0.25
425.082	0.17
425.285	0.27
425.489	0.22
425.692	0.23
425.896	0.14
426.099	0.2
426.303	0.14
426.506	0.12
426.71	0.19
426.913	0.2
427.116	0.24
427.32	0.2
427.523	0.17
427.726	0.24
427.93	0.1
428.133	0.18
428.336	0.13
428.54	0.15
428.743	0.22
428.946	0.26
429.149	0.17
429.353	0.21
429.556	0.22
429.759	0.2
429.962	0.16
430.165	0.15
430.368	0.21
430.571	0.12
430.775	0.19
430.978	0.2
431.181	0.17
431.384	0.19
431.587	0.16
431.79	0.18
431.993	0.09
432.196	0.2
432.399	0.17
432.602	0.23
432.805	0.21
433.008	0.17
433.211	0.19
433.414	0.23
433.616	0.29
433.819	0.17
434.022	0.12
434.225	0.29
434.428	0.2
434.631	0.3
434.833	0.2
435.036	0.16
435.239	0.24
435.442	0.19
435.645	0.16
435.847	0.23
436.05	0.27
436.253	0.15
436.455	0.17
436.658	0.18
436.861	0.26
437.063	0.17
437.266	0.19
437.468	0.19
437.671	0.32
437.874	0.21
438.076	0.17
438.279	0.12
438.481	0.21
438.684	0.15
438.886	0.21
439.089	0.15
439.291	0.24
439.494	0.25
439.696	0.15
439.899	0.24
440.101	0.23
440.303	0.16
440.506	0.27
440.708	0.21
440.91	0.26
441.113	0.18
441.315	0.22
441.517	0.17
441.72	0.27
441.922	0.17
442.124	0.16
442.326	0.27
442.529	0.27
442.731	0.2
442.933	0.29
443.135	0.16
443.337	0.16
443.539	0.24
443.742	0.24
443.944	0.21
444.146	0.19
444.348	0.23
444.55	0.19
444.752	0.21
444.954	0.15
445.156	0.22
445.358	0.17
445.56	0.25
445.762	0.21
445.964	0.23
446.166	0.22
446.368	0.17
446.57	0.3
446.772	0.24
446.974	0.22
447.175	0.24
447.377	0.23
447.579	0.21
447.781	0.17
447.983	0.28
448.184	0.27
448.386	0.22
448.588	0.2
448.79	0.25
448.991	0.22
449.193	0.21
449.395	0.22
449.597	0.28
449.798	0.26
450	0.24
450.202	0.23
450.403	0.24
450.605	0.3
450.806	0.29
451.008	0.15
451.21	0.23
451.411	0.23
451.613	0.24
451.814	0.25
452.016	0.26
452.217	0.24
452.419	0.28
452.62	0.26
452.821	0.3
453.023	0.3
453.224	0.3
453.426	0.21
453.627	0.26
453.828	0.31
454.03	0.29
454.231	0.32
454.432	0.21
454.634	0.32
454.835	0.24
455.036	0.2
455.238	0.29
455.439	0.37
455.64	0.2
455.841	0.26
456.042	0.38
456.244	0.32
456.445	0.24
456.646	0.22
456.847	0.29
457.048	0.31
457.249	0.32
457.45	0.56
457.651	0.28
457.852	0.32
458.054	0.27
458.255	0.3
458.456	0.37
458.657	0.33
458.858	0.29
459.058	0.3
459.259	0.39
459.46	0.26
459.661	0.29
459.862	0.42
460.063	0.3
460.264	0.36
460.465	0.23
460.666	0.43
460.866	0.36
461.067	0.28
461.268	0.28
461.469	0.29
461.67	0.32
461.87	0.3
462.071	0.3
462.272	0.34
462.473	0.31
462.673	0.37
462.874	0.31
463.075	0.41
463.275	0.34
463.476	0.4
463.676	0.38
463.877	0.37
464.078	0.37
464.278	0.41
464.479	0.4
464.679	0.37
464.88	0.42
465.08	0.48
465.281	0.4
465.481	0.42
465.682	0.39
465.882	0.44
466.083	0.42
466.283	0.38
466.483	0.43
466.684	0.36
466.884	0.35
467.085	0.41
467.285	0.49
467.485	0.39
467.686	0.44
467.886	0.39
468.086	0.44
468.286	0.44
468.487	0.46
468.687	0.4
468.887	0.48
469.087	0.5
469.287	0.4
469.488	0.43
469.688	0.52
469.888	0.52
470.088	0.56
470.288	0.59
470.488	0.58
470.688	0.49
470.888	0.54
471.088	0.51
471.288	0.56
471.488	0.57
471.688	0.55
471.888	0.54
472.088	0.62
472.288	0.65
472.488	0.61
472.688	0.55
472.888	0.65
473.088	0.63
473.288	0.65
473.488	0.66
473.688	0.77
473.887	0.63
474.087	0.66
474.287	0.72
474.487	0.67
474.687	0.75
474.886	0.72
475.086	0.77
475.286	0.75
475.486	0.78
475.685	0.77
475.885	0.76
476.085	0.86
476.284	0.82
476.484	0.84
476.684	0.89
476.883	0.91
477.083	0.93
477.282	0.85
477.482	0.94
477.681	0.98
477.881	0.92
478.08	0.93
478.28	0.9
478.479	1
478.679	1.05
478.878	0.96
479.078	0.99
479.277	1.02
479.477	1.06
479.676	1.12
479.875	1.07
480.075	1.05
480.274	1.16
480.473	1.19
480.673	1.17
480.872	1.23
481.071	1.27
481.271	1.26
481.47	1.26
481.669	1.32
481.868	1.3
482.067	1.35
482.267	1.28
482.466	1.31
482.665	1.37
482.864	1.4
483.063	1.44
483.262	1.49
483.461	1.53
483.661	1.59
483.86	1.53
484.059	1.6
484.258	1.63
484.457	1.67
484.656	1.68
484.855	1.75
485.054	1.64
485.253	1.78
485.452	1.77
485.651	1.81
485.849	1.88
486.048	1.87
486.247	1.91
486.446	1.97
486.645	2
486.844	2.08
487.043	2.02
487.241	2.1
487.44	2.14
487.639	2.19
487.838	2.21
488.037	2.21
488.235	2.38
488.434	2.38
488.633	2.25
488.831	2.49
489.03	2.48
489.229	2.54
489.427	2.57
489.626	2.61
489.825	2.6
490.023	2.75
490.222	2.74
490.42	2.83
490.619	2.88
490.817	2.89
491.016	2.92
491.214	2.99
491.413	3.05
491.611	3.02
491.81	3.08
492.008	3.17
492.207	3.27
492.405	3.31
492.604	3.29
492.802	3.36
493	3.49
493.199	3.51
493.397	3.6
493.595	3.67
493.794	3.69
493.992	3.84
494.19	3.89
494.388	3.99
494.587	3.94
494.785	4.01
494.983	3.96
495.181	4.17
495.379	4.25
495.578	4.36
495.776	4.43
495.974	4.4
496.172	4.49
496.37	4.73
496.568	4.76
496.766	4.79
496.964	4.94
497.162	4.93
497.36	5.05
497.558	5.07
497.756	5.32
497.954	5.3
498.152	5.42
498.35	5.65
498.548	5.53
498.746	5.67
498.944	5.7
499.142	5.74
499.34	5.93
499.538	6.18
499.736	6
499.933	6.2
500.131	6.26
500.329	6.57
500.527	6.62
500.725	6.73
500.922	6.85
501.12	6.97
501.318	7.16
501.516	7.16
501.713	7.36
501.911	7.36
502.109	7.43
502.306	7.63
502.504	7.55
502.701	7.76
502.899	7.92
503.097	8.27
503.294	8.14
503.492	8.47
503.689	8.62
503.887	8.54
504.084	8.77
504.282	8.84
504.479	8.87
504.677	9.25
504.874	9.19
505.072	9.21
505.269	9.61
505.466	9.69
505.664	9.91
505.861	9.78
506.059	10.19
506.256	10.18
506.453	10.44
506.651	10.57
506.848	10.74
507.045	10.79
507.242	10.85
507.44	11.06
507.637	11.3
507.834	11.26
508.031	11.65
508.229	11.56
508.426	11.47
508.623	11.88
508.82	12.18
509.017	12.04
509.214	12.11
509.411	12.54
509.608	12.45
509.805	12.82
510.003	12.91
510.2	12.98
510.397	13.44
510.594	13.32
510.791	13.52
510.988	13.57
511.184	13.52
511.381	13.38
511.578	13.89
511.775	14.1
511.972	14.07
512.169	14.27
512.366	14.37
512.563	14.7
512.76	14.82
512.956	14.87
513.153	14.85
513.35	14.81
513.547	14.86
513.744	15.22
513.94	15.25
514.137	15.45
514.334	15.38
514.53	15.62
514.727	16.15
514.924	15.8
515.12	15.89
515.317	15.99
515.514	15.78
515.71	15.76
515.907	16.33
516.103	16.35
516.3	16.11
516.497	16.38
516.693	16.37
516.89	16.46
517.086	16.63
517.283	16.55
517.479	16.23
517.676	16.76
517.872	16.81
518.068	16.85
518.265	16.74
518.461	16.64
518.658	16.95
518.854	16.78
519.05	17.1
519.247	17.12
519.443	16.88
519.639	17.09
519.836	16.83
520.032	16.75
520.228	16.96
520.424	16.64
520.621	16.87
520.817	17.04
521.013	16.67
521.209	17.03
521.405	16.94
521.601	16.8
521.798	16.62
521.994	16.58
522.19	16.39
522.386	16.53
522.582	16.61
522.778	16.72
522.974	16.39
523.17	16.36
523.366	16.07
523.562	16.19
523.758	16.18
523.954	15.75
524.15	16.06
524.346	15.9
524.542	16.02
524.738	15.74
524.934	15.91
525.129	15.79
525.325	15.38
525.521	15.3
525.717	15.6
525.913	15.12
526.109	15.2
526.304	15.19
526.5	15.05
526.696	14.85
526.892	14.67
527.087	15.05
527.283	14.68
527.479	14.48
527.674	14.05
527.87	14.28
528.066	14.17
528.261	14.02
528.457	13.72
528.653	13.95
528.848	13.75
529.044	13.75
529.239	13.38
529.435	13.23
529.63	13.08
529.826	12.95
530.021	12.94
530.217	12.77
530.412	12.68
530.608	12.57
530.803	12.47
530.999	12.2
531.194	12.22
531.389	12.18
531.585	12.13
531.78	12.13
531.975	11.82
532.171	11.75
532.366	11.67
532.561	11.53
532.757	11.3
532.952	11.52
533.147	10.99
533.342	11.08
533.538	10.83
533.733	10.96
533.928	10.42
534.123	10.58
534.318	10.5
534.513	10.27
534.709	10.42
534.904	10.15
535.099	10.17
535.294	10.04
535.489	9.96
535.684	9.83
535.879	9.68
536.074	9.65
536.269	9.58
536.464	9.48
536.659	9.23
536.854	9.21
537.049	9.1
537.244	8.98
537.439	8.87
537.634	8.77
537.828	8.72
538.023	8.69
538.218	8.52
538.413	8.31
538.608	8.38
538.803	8.32
538.997	8.18
539.192	8.07
539.387	7.93
539.582	7.91
539.776	7.71
539.971	7.77
540.166	7.72
540.36	7.54
540.555	7.58
540.75	7.47
540.944	7.4
541.139	7.3
541.334	7.2
541.528	7.08
541.723	7.09
541.917	6.94
542.112	6.82
542.306	6.69
542.501	6.68
542.695	6.61
542.89	6.5
543.084	6.5
543.279	6.44
543.473	6.45
543.668	6.36
543.862	6.15
544.056	6.05
544.251	6.14
544.445	6.07
544.64	6.01
544.834	5.7
545.028	5.55
545.222	5.74
545.417	5.85
545.611	5.59
545.805	5.61
546	5.37
546.194	5.42
546.388	5.35
546.582	5.26
546.776	5.19
546.97	5.15
547.165	5.06
547.359	5.04
547.553	4.95
547.747	4.9
547.941	4.94
548.135	4.83
548.329	4.82
548.523	4.69
548.717	4.62
548.911	4.55
549.105	4.51
549.299	4.55
549.493	4.43
549.687	4.32
549.881	4.36
550.075	4.25
550.269	4.11
550.463	4.2
550.657	4.1
550.85	4.02
551.044	3.95
551.238	3.95
551.432	3.86
551.626	3.9
551.82	3.78
552.013	3.69
552.207	3.71
552.401	3.71
552.594	3.62
552.788	3.54
552.982	3.48
553.176	3.42
553.369	3.48
553.563	3.43
553.756	3.33
553.95	3.32
554.144	3.27
554.337	3.25
554.531	3.12
554.724	3.12
554.918	3.1
555.111	3.03
555.305	3.05
555.498	2.97
555.692	3.01
555.885	2.93
556.079	2.87
556.272	2.82
556.466	2.78
556.659	2.74
556.852	2.75
557.046	2.65
557.239	2.61
557.432	2.55
557.626	2.6
557.819	2.57
558.012	2.54
558.206	2.55
558.399	2.42
558.592	2.44
558.785	2.34
558.979	2.37
559.172	2.32
559.365	2.29
559.558	2.24
559.751	2.21
559.944	2.23
560.138	2.19
560.331	2.15
560.524	2.09
560.717	2.09
560.91	2.05
561.103	2.05
561.296	1.99
561.489	2.02
561.682	2.05
561.875	1.99
562.068	2
562.261	1.89
562.454	1.96
562.647	1.86
562.84	1.88
563.032	1.78
563.225	1.75
563.418	1.75
563.611	1.74
563.804	1.73
563.997	1.63
564.19	1.61
564.382	1.73
564.575	1.63
564.768	1.61
564.961	1.57
565.153	1.53
565.346	1.54
565.539	1.59
565.731	1.56
565.924	1.54
566.117	1.57
566.309	1.47
566.502	1.44
566.695	1.38
566.887	1.43
567.08	1.35
567.272	1.37
567.465	1.35
567.657	1.33
567.85	1.34
568.042	1.33
568.235	1.33
568.427	1.25
568.62	1.26
568.812	1.26
569.005	1.22
569.197	1.21
569.389	1.22
569.582	1.19
569.774	1.21
569.966	1.11
570.159	1.09
570.351	1.12
570.543	1.11
570.736	1.11
570.928	1.09
571.12	1.08
571.312	1.05
571.505	1
571.697	1.05
571.889	1.01
572.081	1.02
572.273	0.96
572.465	1.02
572.658	0.94
572.85	0.98
573.042	0.95
573.234	0.94
573.426	0.94
573.618	0.89
573.81	0.92
574.002	0.89
574.194	0.91
574.386	0.83
574.578	0.75
574.77	0.83
574.962	0.84
575.154	0.78
575.346	0.85
575.538	0.85
575.729	0.8
575.921	0.77
576.113	0.79
576.305	0.8
576.497	0.74
576.689	0.76
576.88	0.7
577.072	0.77
577.264	0.7
577.456	0.72
577.647	0.63
577.839	0.72
578.031	0.74
578.223	0.63
578.414	0.63
578.606	0.69
578.798	0.65
578.989	0.61
579.181	0.66
579.372	0.65
579.564	0.63
579.755	0.63
579.947	0.59
580.139	0.62
580.33	0.56
580.522	0.58
580.713	0.5
580.905	0.59
581.096	0.59
581.287	0.58
581.479	0.55
581.67	0.57
581.862	0.54
582.053	0.53
582.244	0.49
582.436	0.55
582.627	0.52
582.818	0.49
583.01	0.48
583.201	0.55
583.392	0.5
583.583	0.48
583.775	0.44
583.966	0.49
584.157	0.46
584.348	0.46
584.54	0.44
584.731	0.46
584.922	0.48
585.113	0.42
585.304	0.45
585.495	0.46
585.686	0.47
585.877	0.44
586.068	0.44
586.259	0.42
586.45	0.42
586.641	0.41
586.832	0.36
587.023	0.43
587.214	0.38
587.405	0.41
587.596	0.34
587.787	0.44
587.978	0.38
588.169	0.36
588.36	0.36
588.551	0.37
588.742	0.37
588.932	0.39
589.123	0.35
589.314	0.38
589.505	0.36
589.696	0.37
589.886	0.32
590.077	0.31
590.268	0.34
590.458	0.3
590.649	0.27
590.84	0.31
591.03	0.3
591.221	0.28
591.412	0.28
591.602	0.34
591.793	0.36
591.984	0.31
592.174	0.29
592.365	0.37
592.555	0.3
592.746	0.31
592.936	0.33
593.127	0.33
593.317	0.36
593.508	0.27
593.698	0.29
593.889	0.28
594.079	0.29
594.269	0.25
594.46	0.26
594.65	0.27
594.84	0.26
595.031	0.26
595.221	0.22
595.411	0.21
595.602	0.29
595.792	0.25
595.982	0.26
596.172	0.31
596.363	0.25
596.553	0.25
596.743	0.26
596.933	0.24
597.123	0.29
597.314	0.22
597.504	0.25
597.694	0.27
597.884	0.26
598.074	0.21
598.264	0.23
598.454	0.23
598.644	0.25
598.834	0.24
599.024	0.15
599.214	0.22
599.404	0.27
599.594	0.22
599.784	0.21
599.974	0.27
600.164	0.25
600.354	0.18
600.544	0.18
600.734	0.24
600.924	0.23
601.114	0.19
601.303	0.2
601.493	0.23
601.683	0.2
601.873	0.22
602.063	0.18
602.252	0.24
602.442	0.14
602.632	0.17
602.821	0.16
603.011	0.23
603.201	0.19
603.39	0.17
603.58	0.17
603.77	0.22
603.959	0.21
604.149	0.2
604.339	0.16
604.528	0.23
604.718	0.17
604.907	0.15
605.097	0.14
605.286	0.14
605.476	0.18
605.665	0.22
605.855	0.19
606.044	0.15
606.234	0.15
606.423	0.15
606.612	0.14
606.802	0.16
606.991	0.19
607.181	0.19
607.37	0.13
607.559	0.13
607.749	0.11
607.938	0.18
608.127	0.15
608.316	0.15
608.506	0.18
608.695	0.17
608.884	0.14
609.073	0.18
609.263	0.2
609.452	0.18
609.641	0.16
609.83	0.1
610.019	0.2
610.208	0.15
610.397	0.17
610.586	0.22
610.775	0.16
610.965	0.15
611.154	0.12
611.343	0.14
611.532	0.17
611.721	0.14
611.91	0.13
612.099	0.16
612.287	0.15
612.476	0.1
612.665	0.16
612.854	0.14
613.043	0.17
613.232	0.13
613.421	0.09
613.61	0.15
613.798	0.12
613.987	0.17
614.176	0.17
614.365	0.17
614.554	0.15
614.742	0.17
614.931	0.1
615.12	0.17
615.309	0.12
615.497	0.16
615.686	0.09
615.875	0.14
616.063	0.14
616.252	0.13
616.44	0.13
616.629	0.15
616.818	0.15
617.006	0.09
617.195	0.11
617.383	0.17
617.572	0.14
617.76	0.1
617.949	0.12
618.137	0.15
618.326	0.2
618.514	0.1
618.703	0.1
618.891	0.18
619.079	0.1
619.268	0.15
619.456	0.1
619.644	0.18
619.833	0.11
620.021	0.1
620.209	0.09
620.398	0.13
620.586	0.15
620.774	0.16
620.962	0.12
621.151	0.14
621.339	0.1
621.527	0.08
621.715	0.1
621.903	0.1
622.092	0.11
622.28	0.14
622.468	0.12
622.656	0.1
622.844	0.13
623.032	0.09
623.22	0.06
623.408	0.16
623.596	0.12
623.784	0.16
623.972	0.08
624.16	0.1
624.348	0.18
624.536	0.12
624.724	0.12
624.912	0.17
625.1	0.18
625.288	0.1
625.476	0.1
625.664	0.13
625.851	0.08
626.039	0.08
626.227	0.09
626.415	0.12
626.603	0.08
626.79	0.12
626.978	0.09
627.166	0.11
627.354	0.09
627.541	0.11
627.729	0.04
627.917	0.15
628.104	0.17
628.292	0.14
628.48	0.1
628.667	0.12
628.855	0.11
629.042	0.13
629.23	0.08
629.418	0.11
629.605	0.08
629.793	0.08
629.98	0.11
630.168	0.08
630.355	0.08
630.543	0.14
630.73	0.08
630.917	0.13
631.105	0.15
631.292	0.12
631.48	0.13
631.667	0.19
631.854	0.11
632.042	0.11
632.229	0.05
632.416	0.11
632.604	0.1
632.791	0.06
632.978	0.12
633.165	0.12
633.353	0.15
633.54	0.13
633.727	0.04
633.914	0.08
634.101	0.05
634.289	0.16
634.476	0.06
634.663	0.06
634.85	0.11
635.037	0.04
635.224	0.03
635.411	0.16
635.598	0.17
635.785	0.11
635.972	0.08
636.159	0.16
636.346	0.08
636.533	0.11
636.72	0.09
636.907	0.08
637.094	0.14
637.281	0.09
637.468	0.15
637.655	0.08
637.842	0.11
638.029	0.06
638.215	0.13
638.402	0.11
638.589	0.09
638.776	0.07
638.963	0.1
639.149	0.12
639.336	0.17
639.523	0.08
639.709	0.1
639.896	0.06
640.083	0.15
640.27	0.12
640.456	0.08
640.643	0.08
640.829	0.03
641.016	0.1
641.203	0.06
641.389	0.14
641.576	0.11
641.762	0.1
641.949	0.04
642.135	0.14
642.322	0.14
642.508	0.05
642.695	0.13
642.881	0.08
643.068	0.09
643.254	0.12
643.441	0.12
643.627	0.09
643.813	0.06
644	0.13
644.186	0.05
644.372	0.09
644.559	0.15
644.745	0.1
644.931	0.08
645.118	0.07
645.304	0.1
645.49	0.08
645.676	0.07
645.862	0.11
646.049	0.16
646.235	0.11
646.421	0.16
646.607	0.16
646.793	0.06
646.979	0.05
647.165	0.11
647.352	0.11
647.538	0.1
647.724	0.1
647.91	0.1
648.096	0.13
648.282	0.13
648.468	0.09
648.654	0.1
648.84	0.09
649.026	0.1
649.212	0.09
649.397	0.07
649.583	0.05
649.769	0.09
649.955	0.1
650.141	0.1
650.327	0.12
650.513	0.09
650.698	0.09
650.884	0.02
651.07	0.13
651.256	0.11
651.442	0.1
651.627	0.07
651.813	0.13
651.999	0.11
652.184	0.1
652.37	0.07
652.556	0.1
652.741	0.13
652.927	0.04
653.113	0.12
653.298	0.09
653.484	0.07
653.669	0.05
653.855	0.11
654.04	0.13
654.226	0.12
654.412	0.05
654.597	0.08
654.782	0.1
654.968	0.12
655.153	0.09
655.339	0.08
655.524	0.04
655.71	0.08
655.895	0.07
656.08	0.1
656.266	0.13
656.451	0.14
656.636	0.07
656.822	0.1
657.007	0.08
657.192	0.1
657.378	0.05
657.563	0.1
657.748	0.11
657.933	0.12
658.118	0.08
658.304	0.1
658.489	0.12
658.674	0.14
658.859	0.06
659.044	0.1
659.229	0.11
659.414	0.08
659.599	0.1
659.785	0.09
659.97	0.08
660.155	0.13
660.34	0.08
660.525	0.09
660.71	0.09
660.895	0.16
661.08	0.09
661.264	0.07
661.449	0.14
661.634	0.15
661.819	0.13
662.004	0.13
662.189	0.02
662.374	0.07
662.559	0.07
662.743	0.04
662.928	0.07
663.113	0.09
663.298	0.05
663.483	0.11
663.667	0.1
663.852	0.02
664.037	0.1
664.221	0.06
664.406	0.1
664.591	0.12
664.775	0.11
664.96	0.12
665.145	0.08
665.329	0.11
665.514	0.1
665.698	0.09
665.883	0.03
666.068	0.16
666.252	0.11
666.437	0.08
666.621	0.09
666.806	0.13
666.99	0.09
667.174	0.08
667.359	0.19
667.543	0.08
667.728	0.11
667.912	0.04
668.096	0.14
668.281	0.12
668.465	0.08
668.649	0.1
668.834	0.08
669.018	0.09
669.202	0.12
669.387	0.11
669.571	0.16
669.755	0.07
669.939	0.08
670.124	0.09
670.308	0.14
670.492	0.16
670.676	0.12
670.86	0.11
671.044	0.07
671.228	0.15
671.413	0.09
671.597	0.08
671.781	0.07
671.965	0.15
672.149	0.14
672.333	0.14
672.517	0.09
672.701	0.14
672.885	0.08
673.069	0.1
673.253	0.19
673.437	0.09
673.621	0.1
673.804	0.1
673.988	0.1
674.172	0.11
674.356	0.08
674.54	0.11
674.724	0.23
674.908	0.09
675.091	0.17
675.275	0.12
675.459	0.16
675.643	0.16
675.826	0.16
676.01	0.1
676.194	0.13
676.377	0.15
676.561	0.19
676.745	0.14
676.928	0.13
677.112	0.15
677.296	0.1
677.479	0.11
677.663	0.13
677.846	0.17
678.03	0.08
678.213	0.12
678.397	0.18
678.58	0.11
678.764	0.05
678.947	0.08
679.131	0.09
679.314	0.17
679.498	0.14
679.681	0.17
679.865	0.18
680.048	0.14
680.231	0.13
680.415	0.11
680.598	0.1
680.781	0.13
680.965	0.11
681.148	0.13
681.331	0.11
681.514	0.14
681.698	0.09
681.881	0.16
682.064	0.1
682.247	0.13
682.43	0.01
682.614	0.13
682.797	0.15
682.98	0.18
683.163	0.07
683.346	0.12
683.529	0.12
683.712	0.07
683.895	0.12
684.078	0.12
684.261	0.1
684.444	0.1
684.627	0.1
684.81	0.11
684.993	0.11
685.176	0.19
685.359	0.06
685.542	0.12
685.725	0.15
685.908	0.12
686.091	0.11
686.274	0.12
686.457	0.13
686.639	0.13
686.822	0.17
687.005	0.13
687.188	0.14
687.371	0.23
687.553	0.19
687.736	0.17
687.919	0.17
688.102	0.18
688.284	0.05
688.467	0.09
688.65	0.13
688.832	0.08
689.015	0.12
689.197	0.05
689.38	0.15
689.563	0.21
689.745	0.07
689.928	0.09
690.11	0.09
690.293	0.11
690.475	0.08
690.658	0.11
690.84	0.12
691.023	0.11
691.205	0.06
691.388	0.11
691.57	0.13
691.752	0.14
691.935	0.06
692.117	0.1
692.3	0.12
692.482	0.1
692.664	0.1
692.847	0.13
693.029	0.15
693.211	0.14
693.393	0.14
693.576	0.08
693.758	0.12
693.94	0.11
694.122	0.09
694.304	0.12
694.487	0.12
694.669	0.17
694.851	0.12
695.033	0.13
695.215	0.08
695.397	0.1
695.579	0.14
695.761	0.05
695.943	0.06
696.125	0.2
696.308	0.13
696.49	0.08
696.671	0.25
696.853	0.09
697.035	0.26
697.217	0.07
697.399	0.15
697.581	0.06
697.763	0.12
697.945	0.09
698.127	0.07
698.309	0.16
698.491	0.11
698.672	0.15
698.854	0.15
699.036	0.17
699.218	0.14
699.399	0.2
699.581	0.16
699.763	0.1
699.945	0.06
700.126	0.06
700.308	0.15
700.49	0.11
700.671	0.08
700.853	0.09
701.035	0.1
701.216	0.14
701.398	0.06
701.579	0.11
701.761	0.21
701.943	0.14
702.124	0.04
702.306	0.07
702.487	0.29
702.669	0.1
702.85	0.14
703.031	0.09
703.213	0.22
703.394	0.17
703.576	0.14
703.757	0.2
703.938	0.14
704.12	0.28
704.301	0.11
704.483	0.08
704.664	0.12
704.845	0.23
705.026	0.21
705.208	0.09
705.389	0.16
705.57	0.2
705.751	0.07
705.933	0.14
706.114	0.14
706.295	0.18
706.476	0.08
706.657	0.2
706.838	0.14
707.02	0.19
707.201	0.02
707.382	0.08
707.563	0.16
707.744	0.11
707.925	0.04
708.106	0.04
708.287	0.11
708.468	0.24
708.649	0.08
708.83	0.15
709.011	0.14
709.192	0.14
709.373	0.06
709.554	0.12
709.734	0.16
709.915	0.12
710.096	0.02
710.277	0.04
710.458	0.14
710.639	0.18
710.819	0.04
711	0.14
711.181	0.18
711.362	0.15
711.542	0.17
711.723	0.1
711.904	0.17
712.085	0.12
712.265	0.17
712.446	0.12
712.627	0.08
712.807	0.09
712.988	0.13
713.168	0.06
713.349	0.14
713.53	0.04
713.71	0.06
713.891	0.04
714.071	0.14
714.252	0.06
714.432	0.12
714.613	0.06
714.793	0.1
714.974	0.21
715.154	0.14
715.334	0.19
715.515	0.23
715.695	0.06
715.876	0.12
716.056	0.07
716.236	0.06
716.417	0.05
716.597	0.1
716.777	0.28
716.957	0.12
717.138	0.13
717.318	0.08
717.498	0.03
717.678	0.17
717.859	0.13
718.039	0.02
718.219	0.14
718.399	0.14
718.579	0.07
718.759	0.02
718.939	0.16
719.12	0.11
719.3	0.12
719.48	-0.01
719.66	0.03
719.84	0.11
720.02	0.14
720.2	0.11
720.38	0.1
720.56	0.24
720.74	0.12
720.92	0.19
721.1	0.19
721.279	0.21
721.459	0.08
721.639	-0.05
721.819	0.17
721.999	0.07
722.179	0.21
722.359	0.08
722.538	0.08
722.718	0.11
722.898	0.07
723.078	0.13
723.257	0.07
723.437	0.15
723.617	0.2
723.797	0.13
723.976	0.12
724.156	0.16
724.336	0.17
724.515	0.18
724.695	0.05
724.874	0.05
725.054	0.15
725.234	0.15
725.413	0.19
725.593	0.15
725.772	0.15
725.952	0.1
726.131	0.1
726.311	0.13
726.49	0.13
726.67	0.02
726.849	0.11
727.028	0.11
727.208	0.18
727.387	0.13
727.567	0.02
727.746	0.09
727.925	0.09
728.105	0.05
728.284	0.16
728.463	0.05
728.643	0.16
728.822	0.09
729.001	0.13
729.18	0.21
729.359	0.22
729.539	0.07
729.718	0.15
729.897	0.2
730.076	0.15
730.255	0.06
730.434	0.14
730.614	0.16
730.793	0.27
730.972	0.17
731.151	0.11
731.33	0.26
731.509	0.19
731.688	0.12
731.867	0.15
732.046	0.04
732.225	0.27
732.404	0.09
732.583	0.04
732.762	0.13
732.941	0.16
733.12	0.09
733.298	0.07
733.477	0.26
733.656	0.06
733.835	0.06
734.014	0.21
734.193	0.06
734.371	0.15
734.55	0.13
734.729	-0.03
734.908	0.21
735.086	0.23
735.265	0.27
735.444	0.07
735.623	0.12
735.801	0.06
735.98	0.07
736.159	0.06
736.337	0.23
736.516	0.18
736.694	0.11
736.873	0.08
737.052	0.25
737.23	0.23
737.409	0.03
737.587	0.28
737.766	-0.05
737.944	0.17
738.123	0.21
738.301	0.18
738.479	0.1
738.658	0.12
738.836	-0
739.015	0.09
739.193	0.23
739.371	0.02
739.55	0.15
739.728	0.04
739.906	0.29
740.085	0.29
740.263	0.23
740.441	-0.05
740.62	0.33
740.798	0.25
740.976	0.05
741.154	0.08
741.332	0.2
741.511	0.04
741.689	0.21
741.867	0.15
742.045	0.04
742.223	0.11
742.401	0.03
742.579	0.09
742.757	0.1
742.935	0.18
743.114	0.09
743.292	0.03
743.47	0.17
743.648	0.13
743.826	0.21
744.004	0.13
744.181	0.15
744.359	0.14
744.537	0.2
744.715	0.06
744.893	0.03
745.071	0.09
745.249	0.1
745.427	0.12
745.605	0.16
745.782	0.15
745.96	0.25
746.138	0.12
746.316	0.24
746.493	0.13
746.671	0.1
746.849	0.1
747.027	0.27
747.204	0.01
747.382	0.12
747.56	-0.01
747.737	0.11
747.915	-0
748.093	0.16
748.27	0.1
748.448	0.1
748.625	0.02
748.803	0.12
748.98	-0.02
749.158	0.18
749.335	0.22
749.513	0.16
749.69	0.09
749.868	0.08
750.045	0.22
750.223	0.06
750.4	-0.02
750.578	0.33
750.755	0.14
750.932	-0.04
751.11	0.2
751.287	-0.07
751.464	0.2
751.642	0.02
751.819	0.14
751.996	0.17
752.173	0.09
752.351	-0.03
752.528	0.05
752.705	0.06
752.882	0.16
753.06	0.2
753.237	0.16
753.414	0.29
753.591	0.29
753.768	0.15
753.945	0.08
754.122	0.03
754.299	0.15
754.476	-0.01
754.654	0.06
754.831	0.26
755.008	0.13
755.185	0.04
755.362	0.03
755.539	0.06
755.716	-0.01
755.892	0.13
756.069	0.17
756.246	0.14
756.423	0.19
756.6	0.29
756.777	0.14
756.954	0.2
757.131	0.19
757.307	0.06
757.484	0.02
757.661	0.18
757.838	0.16
758.015	0.01
758.191	0.14
758.368	0.2
758.545	0.28
758.721	0.14
758.898	0.12
759.075	0.14
759.251	0.18
759.428	0.2
759.605	0.06
759.781	0.13
759.958	0.17
760.134	0.04
760.311	0.08
760.488	0.29
760.664	0.11
760.841	0.11
761.017	0.08
761.194	0.17
761.37	0.21
761.547	0.19
761.723	0.24
761.899	0.18
762.076	0.11
762.252	0.09
762.429	0.13
762.605	0.15
762.781	0.16
762.958	0.15
763.134	0.13
763.31	0.05
763.486	0.08
763.663	-0.03
763.839	0.15
764.015	-0.03
764.191	-0.02
764.368	0.16
764.544	0.06
764.72	0.11
764.896	0.18
765.072	0.03
765.248	0.14
765.425	0.13
765.601	0.2
765.777	0.19
765.953	-0.12
766.129	0.07
766.305	0.01
766.481	0.25
766.657	0.23
766.833	0.23
767.009	-0.01
767.185	0.15
767.361	0.15
767.537	0.11
767.713	0.27
767.889	0.12
768.065	0.1
768.24	0.17
768.416	0.22
768.592	0.04
768.768	0.14
768.944	0.25
769.12	-0.11
769.295	0.15
769.471	0.12
769.647	0.04
769.823	0.22
769.998	0.14
770.174	0.07
770.35	0.45
770.525	0.45
770.701	0.22
770.877	0.01
771.052	-0.04
771.228	0.23
771.403	0.14
771.579	0.21
771.755	0.51
771.93	0.03
772.106	0.06
772.281	-0.08
772.457	0.29
772.632	0.14
772.808	0.09
772.983	0.19
773.159	0.01
773.334	0.3
773.509	0.03
773.685	0.02
773.86	0.38
774.036	0.41
774.211	-0.05
774.386	0.18
774.562	0.11
774.737	0.15
774.912	0.05
775.087	0.16
775.263	0.3
775.438	0.38
775.613	0.14
775.788	0.04
775.964	0.26
776.139	0.47
776.314	0.03
776.489	0.2
776.664	0.26
776.839	0.05
777.014	0.19
777.19	0.41
777.365	0.3
777.54	0.47
777.715	0.05
777.89	0.23
778.065	0.04
778.24	0.17
778.415	0.15
778.59	0
778.765	-0.04
778.94	0.21
779.115	0
779.289	0.04
779.464	0.05
779.639	0.38
779.814	-0.03
779.989	-0.06
780.164	0.36
780.339	0.09
780.513	0.05
780.688	0.03
780.863	0.1
781.038	0.34
781.212	0.02
781.387	0.07
781.562	0.31
781.737	0.1
781.911	0.33
782.086	0.01
782.261	0.1
782.435	0.37
782.61	0.08
782.784	0.25
782.959	0.3
783.134	0.03
783.308	-0.03
783.483	0.12
783.657	0.38
783.832	0.35
784.006	-0.1
784.181	0.16
784.355	0.25
784.53	0.13
784.704	-0.03
784.878	0.57
785.053	0.38
785.227	0.41
785.402	0.46
785.576	-0.02
785.75	0.08
785.925	0.18
786.099	0.17
786.273	0.23
786.448	0.42
786.622	0.36
786.796	0.07
786.97	0.11
787.145	0.45
787.319	-0.2
787.493	-0.07
787.667	-0.06
787.841	0.17
788.015	0.18
788.19	0.05
788.364	0.01
788.538	0.33
788.712	0.21
788.886	0.12
789.06	0.25
789.234	0.34
789.408	-0.14
789.582	0.08
789.756	-0.05
789.93	-0.23
790.104	0.22
790.278	0.01
790.452	-0.21
790.626	0.4
790.8	-0.09
790.973	0.27
791.147	0.2
791.321	0.39
791.495	0.36
791.669	0.32
791.843	0.08
792.016	0.29
792.19	0.45
792.364	-0.02
792.538	0.48
792.711	0.38
792.885	-0.1
793.059	-0.16
793.233	-0.34
793.406	0.6
793.58	0.22
793.754	0.2
793.927	0.1
794.101	0.4
794.274	0.23
794.448	0.24
794.622	-0.03
794.795	0.4
794.969	0.12
795.142	0.5
795.316	0.25
795.489	0.04
795.663	0.5
795.836	0.18
796.009	0.03
796.183	0.57
796.356	0.18
796.53	0.45
796.703	0.01
796.876	0.85
797.05	0.11
797.223	0.09
797.396	0.15
797.57	0.05
797.743	0.55
797.916	0.26
798.09	-0.01
798.263	0.42
798.436	0.52
798.609	0.11
798.782	0.01
798.956	0.17
799.129	0.08
799.302	-0.02
799.475	-0.18
799.648	-0.09
799.821	0.07
799.994	0.21
800.167	-0.3
800.34	0.04
800.514	0.14
800.687	0.03
800.86	0.08
801.033	0.35
801.206	0.27
801.379	-0.02
801.551	0.33
801.724	0.49
801.897	0.47
802.07	0.08
802.243	-0.02
802.416	0.06
802.589	0.26
802.762	0.44
802.935	0.15
803.107	0.41
803.28	0.11
803.453	0.57
803.626	0.11
803.798	0.35
803.971	-0.02
804.144	0.44
804.317	0.59
804.489	0.62
804.662	-0.11
804.835	0.17
805.007	0.13
805.18	0.74
805.353	0.12
805.525	-0.01
805.698	0.09
805.87	0.56
806.043	0.28
806.215	0.07
806.388	-0.01
806.56	0.36
806.733	0.53
806.905	0.26
807.078	0.25
807.25	-0.01
807.423	0.24
807.595	0.3
807.768	0.2
807.94	0.41
808.112	0.34
808.285	0.28
808.457	0.31
808.629	0.44
808.802	0.64
808.974	-0.04
809.146	0.09
809.318	0.07
809.491	0.33
809.663	0.4
809.835	-0.01
810.007	0.17
810.18	0.1
810.352	-0.39
810.524	0.05
810.696	0.83
810.868	0.74
811.04	0.08
811.212	0.02
811.384	0.73
811.556	0.34
811.728	0.49
811.901	0.91
812.073	0.35
812.245	0.12
812.417	0.23
812.589	-0.62
812.76	0.49
812.932	0.47
813.104	0.54
813.276	0.07
813.448	0.49
813.62	0.37
813.792	0.39
813.964	-0.29
814.136	0.22
814.307	-0.11
814.479	0
814.651	-0.29
814.823	0.69
814.995	0.07
815.166	0.55
815.338	-0.01
815.51	-0.83
815.681	0.86
815.853	0.48
816.025	0.24
816.196	1.04
816.368	0.68
816.54	-0.44
816.711	-0.23
816.883	0.58
817.054	1.36
817.226	-0.34
817.398	0.86
817.569	0.22
817.741	0.51
817.912	0.65
818.084	0.36
818.255	0.74
818.426	-0.2
818.598	0.19
818.769	-0.02
818.941	0.32
819.112	0.39
819.283	0.77
819.455	0.32
819.626	0.77
819.798	0.26
819.969	0.22
820.14	0.02
820.311	-0.03
820.483	0.39
820.654	0.34
820.825	0
820.996	0.34
821.168	-0.13
821.339	0.33
821.51	-0.23
821.681	0.12
821.852	0.07
822.023	-0.21
822.195	-0.8
822.366	0.78
822.537	0.36
822.708	0.46
822.879	-0.19
823.05	0.64
823.221	0.08
823.392	0.23
823.563	-0.01
823.734	0.1
823.905	0.18
824.076	0.3
824.247	-0.1
824.418	-0.05
824.589	0.53
824.759	-0.09
824.93	-0.18
825.101	-0.22
825.272	1.08
825.443	1.04
825.614	0.75
825.784	-0.84
825.955	1.03
826.126	1.21
826.297	0.28
826.467	1.15
826.638	0.76
826.809	-0.82
826.98	-0.05
827.15	0.32
827.321	0.28
827.492	0.9
827.662	0.4
827.833	1.46
828.003	0.49
828.174	-0.35
828.345	-0.08
828.515	1.08
828.686	0.64
828.856	-0.35
829.027	0.7
829.197	0.59
829.368	0.75
829.538	-0.16
829.709	-0.02
829.879	0.39
830.049	0.64
830.22	0.61
830.39	0.51
830.56	0.83
830.731	0.56
830.901	0.16
831.072	0.67
831.242	0.22
831.412	-0.12
831.582	0.31
831.753	-0.26
831.923	0.55
832.093	0.22
832.263	0.07
832.434	-0.21
832.604	-0.25
832.774	0.26
832.944	-0.65
833.114	-0
833.284	1.06
833.454	-0.36
833.624	-0.45
833.795	-0.12
833.965	1.02
834.135	0.38
834.305	-0.66
834.475	-0.6
834.645	0.18
834.815	-0.57
834.985	-0.74
835.155	-0.17
835.325	0.58
835.494	0.76
835.664	0.31
835.834	0.08
836.004	0.78
836.174	0.39
836.344	-0.23
836.514	0.08
836.684	0.28
836.853	0.64
837.023	0.95
837.193	0.04
837.363	1.27
837.532	1.35
837.702	0.5
837.872	0.35
838.041	1.17
838.211	2.1
838.381	0.33
838.55	0.41
838.72	2.22
838.89	1.85
839.059	0.1
839.229	-0.12
839.398	2.21
839.568	-0.36
839.738	-0.18
839.907	1.21
840.077	0.18
840.246	-0.18
840.416	-0.29
840.585	-0.62
840.755	1.88
840.924	1.21
841.093	-0.85
841.263	0.39
841.432	0.56
841.602	-0.26
841.771	0.06
841.94	0.33
842.11	1.42
842.279	2.15
842.448	-0.42
842.617	-0.13
842.787	1.47
842.956	-0.08
843.125	0.37
843.294	0.71
843.464	0.65
843.633	0.31
843.802	-0.6
843.971	0.82
844.14	0.16
844.309	0.56
844.479	0.21
844.648	0.54
844.817	0.22
844.986	0.58
845.155	-0.24
845.324	0.97
845.493	-0.2
845.662	-0.98
845.831	0.36
846	0.99
846.169	0.61
846.338	1.67
846.507	0.67
846.676	0.98
846.844	-0.05
847.013	1.31
847.182	1.02
847.351	-0.69
847.52	0.81
847.689	1.16
847.858	0.34
848.026	-0.49
848.195	-0.08
848.364	-0.61
848.533	-0.24
848.701	-0.59
848.87	0.98
849.039	1.57
849.207	1.21
849.376	1
849.545	1.38
849.713	-0.24
849.882	0.2
850.051	-0.04
850.219	1.27
850.388	1.31
850.556	-1.07
850.725	-0.38
850.893	0.69
851.062	-0.05
851.23	0.96
851.399	-1.51
851.567	0.21
851.736	-0.51
851.904	0.34
852.073	0.59
852.241	1.66
852.41	0.58
852.578	0.07
852.746	0.01
852.915	1.19
853.083	1.05
853.251	-0.62
853.42	-0.37
853.588	0.51
853.756	1.78
853.924	0.07
854.093	0.54
854.261	0.2
854.429	-1.04
854.597	0.43
854.765	-0.08
854.934	1.34
855.102	1.69
855.27	1.09
855.438	1.99
855.606	1.43
855.774	1.43
855.942	-0.75
856.11	-1.85
856.278	0.89
856.446	1.4
856.614	0.24
856.782	-0.96
856.95	2.36
857.118	0.83
857.286	0.41
857.454	-0.01
857.622	1.29
857.79	1.34
857.958	-0.6
858.126	0.37
858.294	-1.74
858.462	-0.03
858.629	-0.53
858.797	-0.39
858.965	-0.29
859.133	-0.31
859.301	0.55
859.468	1.21
859.636	-1.09
859.804	2.22
859.971	1.09
860.139	-0.45
860.307	2.06
860.474	2.04
860.642	-0.72
860.81	0.36
860.977	0.52
861.145	1.31
861.313	-0.69
861.48	0.2
861.648	1.71
861.815	0.46
861.983	-1.05
862.15	-0.05
862.318	1.16
862.485	1.45
862.653	-0.31
862.82	-0.09
862.988	1.44
863.155	1.13
863.322	-0.13
863.49	0.21
863.657	0.62
863.824	2.81
863.992	2.14
864.159	1.11
864.326	0.95
864.494	0.02
864.661	3.38
864.828	0.5
864.996	2.43
865.163	2.15
865.33	-0.95
865.497	-0.77
865.664	-0.1
865.832	-1.88
865.999	0.56
866.166	-2.42
866.333	-0.5
866.5	0.02
866.667	-0.01
866.834	0.36
867.001	1.84
867.168	-0.9
867.335	1.18
867.502	-0.85
867.669	0.21
867.836	3.01
868.003	1.04
868.17	2.27
868.337	2.7
868.504	2.62
868.671	-1.18
868.838	0.13
869.005	1.29
869.172	0.27
869.339	0.68
869.505	-0.29
869.672	-0.66
869.839	2.07
870.006	1.11
870.173	-1.05
870.339	1.44
870.506	2.82
870.673	-2.62
870.84	1.61
871.006	0.05
871.173	0.31
871.34	0.31
871.506	-0.12
871.673	0.4
871.839	-2.57
872.006	0.51
872.173	0.56
872.339	0.3
872.506	1.5
872.672	1.15
872.839	-1.21
873.005	0.72
873.172	3.01
873.338	3.19
873.505	0.47
873.671	1.4
873.838	1.85
874.004	-0.78
874.171	-0.78
874.337	0.67
874.503	1.98
874.67	0.06
874.836	-0.01
875.002	1.58
875.169	1.1
875.335	0.72
875.501	0.16
875.668	2.07
875.834	0.04
876	0.43
876.166	1.92
876.332	0.24
876.499	2.55
876.665	1.51
876.831	1.49
876.997	4.47
877.163	1.71
877.329	-0.2
877.495	1.43
877.662	2.97
877.828	1.09
877.994	2.14
878.16	-2.23
878.326	-2.34
878.492	1.82
878.658	-1.7
878.824	1.08
878.99	2.65
879.156	-0.44
879.322	4.71
879.487	-1.1
879.653	0.88
879.819	0.42
879.985	0.77
880.151	-0.09
880.317	2.1
880.483	2.55
880.648	2.27
880.814	-1.11
880.98	0.94
881.146	-0.89
881.312	0.93
881.477	-0.41
881.643	1.17
881.809	3.83
881.974	0.8
882.14	-3.98
882.306	2.13
882.471	2.62
882.637	-0.14
882.803	0.61
882.968	2.81
883.134	3.2
883.299	0.89
883.465	0.27
883.63	1.65
883.796	2.73
883.961	1.47
884.127	-0.12
884.292	-3.56
884.458	-1.54
884.623	-1.54
