Data from Apollo_Calib_20240827__AbsoluteIrradiance__356__05-05-03-151.txt Node

Date: Wed Aug 28 05:05:03 BST 2024
User: biology
Spectrometer: FLMT08252
Trigger mode: 0
Integration Time (sec): 5.000000E-1
Scans to average: 5
Electric dark correction enabled: true
Nonlinearity correction enabled: false
Boxcar width: 0
XAxis mode: Wavelengths
Number of Pixels in Spectrum: 3648
>>>>>Begin Spectral Data<<<<<
179.588	-0
179.809	-0
180.03	-0
180.251	-0
180.473	-0
180.694	0
180.915	0
181.136	-0
181.357	0
181.578	0
181.799	0
182.02	-0
182.241	0
182.462	-0
182.683	0
182.904	-0
183.125	0
183.346	0
183.567	0
183.788	0
184.009	-0
184.23	0
184.451	0
184.672	-0
184.892	-0
185.113	0
185.334	0
185.555	-0
185.776	-0
185.996	0
186.217	0
186.438	0
186.659	-0
186.879	0
187.1	-0
187.321	-0
187.541	-0
187.762	0
187.983	0
188.203	0
188.424	0
188.644	0
188.865	0
189.086	0
189.306	0
189.527	0
189.747	0
189.968	-0
190.188	0
190.409	0
190.629	0
190.849	-0
191.07	0
191.29	0
191.511	0
191.731	-0
191.951	-0
192.172	0
192.392	0
192.612	0
192.833	0
193.053	0
193.273	0
193.493	0
193.714	0
193.934	0
194.154	0
194.374	0
194.594	0
194.815	0
195.035	0
195.255	0
195.475	0
195.695	0
195.915	0
196.135	0
196.355	0
196.575	0
196.795	0
197.015	-0
197.235	-0
197.455	-0
197.675	0
197.895	0
198.115	0
198.335	0
198.555	0
198.775	0
198.995	0
199.214	0
199.434	0
199.654	0
199.874	0
200.094	1.11
200.313	0.36
200.533	0.33
200.753	-0.57
200.973	1.38
201.192	0.95
201.412	-0.44
201.632	0.04
201.851	0.74
202.071	0.3
202.291	-0.19
202.51	0.14
202.73	0.78
202.95	0.02
203.169	-0.43
203.389	0.35
203.608	0.55
203.828	-0.33
204.047	0.35
204.267	0.68
204.486	1.06
204.706	0.84
204.925	0.01
205.145	0.05
205.364	0.71
205.583	1.09
205.803	0.04
206.022	-0.1
206.242	0.64
206.461	0.7
206.68	0.04
206.9	0.52
207.119	0.79
207.338	0.89
207.557	0.03
207.777	0.1
207.996	0.18
208.215	0.72
208.434	0.01
208.654	-0.01
208.873	0.28
209.092	0.71
209.311	-0.09
209.53	-0.03
209.749	-0.04
209.968	0.1
210.187	0.11
210.407	-0.14
210.626	0.27
210.845	0.69
211.064	0.33
211.283	-0.1
211.502	0.56
211.721	0.22
211.94	0
212.159	0.27
212.377	0.48
212.596	0.63
212.815	0.21
213.034	0.32
213.253	0.33
213.472	0.43
213.691	0.05
213.91	0.02
214.128	-0.14
214.347	0.66
214.566	-0.1
214.785	-0.02
215.003	0.43
215.222	0.15
215.441	0.22
215.66	-0.07
215.878	0.38
216.097	0.45
216.316	0.04
216.534	0.22
216.753	0.38
216.972	0.23
217.19	0.07
217.409	-0.04
217.627	-0.01
217.846	0.13
218.064	0.21
218.283	-0.1
218.501	0.43
218.72	0.53
218.938	-0.3
219.157	0.09
219.375	0.47
219.594	0.25
219.812	-0.07
220.031	0.03
220.249	0.54
220.467	0.28
220.686	0.04
220.904	-0.17
221.122	0.14
221.341	0.51
221.559	0.2
221.777	-0.02
221.995	0.2
222.214	0.35
222.432	-0.11
222.65	0.12
222.868	0.1
223.086	0.13
223.305	0.39
223.523	0.08
223.741	0.47
223.959	0.15
224.177	-0.1
224.395	-0.04
224.613	0.3
224.831	0.24
225.049	0
225.267	-0.06
225.485	0.18
225.703	-0
225.921	0
226.139	-0.03
226.357	0.38
226.575	0.24
226.793	-0.06
227.011	0.74
227.229	0.19
227.447	0.27
227.665	0.05
227.883	-0.12
228.1	0.13
228.318	0.23
228.536	-0.25
228.754	0.05
228.972	0.23
229.189	0.27
229.407	-0.04
229.625	0.08
229.843	0.39
230.06	0.27
230.278	-0.08
230.496	0.18
230.713	0.25
230.931	0.34
231.149	0.08
231.366	-0.13
231.584	0.13
231.801	0.62
232.019	0.08
232.236	-0.04
232.454	0.08
232.671	0.19
232.889	0.15
233.106	0.04
233.324	0.1
233.541	0.12
233.759	0.19
233.976	-0.02
234.194	0.07
234.411	0
234.628	0.03
234.846	0.05
235.063	0.1
235.28	0.19
235.498	-0.03
235.715	0.13
235.932	0.27
236.149	0.13
236.367	-0.06
236.584	0.2
236.801	0.07
237.018	0.23
237.236	0.06
237.453	-0.08
237.67	0.23
237.887	0.11
238.104	0.06
238.321	-0
238.538	-0
238.755	0.26
238.973	0.02
239.19	0.03
239.407	0.18
239.624	0.04
239.841	-0.1
240.058	-0.01
240.275	0.07
240.492	0.06
240.709	0.04
240.925	0.07
241.142	0.19
241.359	0.04
241.576	-0.03
241.793	0.05
242.01	0.18
242.227	0.22
242.444	0.16
242.66	0.21
242.877	0.13
243.094	0.07
243.311	0.13
243.527	0.01
243.744	0.11
243.961	0.15
244.178	0.01
244.394	0.06
244.611	0.23
244.828	0.22
245.044	-0.07
245.261	0.04
245.477	0.19
245.694	0.06
245.911	-0.02
246.127	0.09
246.344	0.25
246.56	0.17
246.777	0.04
246.993	0.11
247.21	0.15
247.426	0.11
247.643	0.01
247.859	-0.04
248.076	0.06
248.292	0.38
248.508	-0.03
248.725	0.19
248.941	0.14
249.157	0.18
249.374	-0.05
249.59	0.07
249.806	0.14
250.023	0.24
250.239	-0.02
250.455	0.09
250.671	0.1
250.888	0.09
251.104	0.12
251.32	0.03
251.536	-0
251.752	0.08
251.969	0.02
252.185	0.13
252.401	0.29
252.617	0.13
252.833	0.03
253.049	0.14
253.265	0.18
253.481	0.15
253.697	0.07
253.913	0.02
254.129	0.18
254.345	0.09
254.561	0.07
254.777	0.02
254.993	0.17
255.209	0.11
255.425	0.07
255.641	0.05
255.857	0.2
256.073	0.14
256.288	-0.1
256.504	0.1
256.72	0.05
256.936	0.24
257.152	0.1
257.367	-0.01
257.583	0.1
257.799	0.2
258.015	0.03
258.23	0.04
258.446	0.22
258.662	0.1
258.877	-0.04
259.093	0.03
259.309	0.1
259.524	0.17
259.74	0.05
259.955	-0.05
260.171	0.08
260.387	0.08
260.602	0.21
260.818	0.09
261.033	0.01
261.249	0.08
261.464	0.03
261.68	-0.06
261.895	0.08
262.11	0.17
262.326	0.03
262.541	-0.01
262.757	0.12
262.972	0.17
263.187	0.12
263.403	0.07
263.618	0.14
263.833	0.17
264.049	0.02
264.264	0.11
264.479	0.12
264.694	0.18
264.91	0.04
265.125	0.1
265.34	0.21
265.555	0.26
265.77	0.11
265.986	0.08
266.201	0.11
266.416	0.18
266.631	0.04
266.846	0.1
267.061	0.15
267.276	0.18
267.491	-0.05
267.706	0.14
267.921	0.15
268.136	0.14
268.351	0.06
268.566	0.02
268.781	0.19
268.996	0.14
269.211	0.15
269.426	0.01
269.641	0.09
269.856	0.15
270.071	0
270.285	-0.03
270.5	0.07
270.715	0.13
270.93	0.11
271.145	0.16
271.359	0.16
271.574	0.07
271.789	0.12
272.004	0.02
272.218	0.03
272.433	0.22
272.648	0
272.862	0.17
273.077	0.08
273.292	0.13
273.506	0.07
273.721	0.08
273.936	0.16
274.15	0.18
274.365	0.06
274.579	0.15
274.794	0.16
275.008	0.11
275.223	-0.01
275.437	0.09
275.652	0.16
275.866	0.17
276.081	0.07
276.295	0.15
276.509	0.16
276.724	0.09
276.938	0.12
277.153	0.12
277.367	0.18
277.581	0.05
277.796	0.01
278.01	0.02
278.224	0.14
278.438	0.17
278.653	-0.01
278.867	0.02
279.081	0.2
279.295	0.07
279.51	0.12
279.724	0.02
279.938	0.13
280.152	0.17
280.366	0.04
280.58	0.1
280.794	0.22
281.008	0.18
281.222	0.15
281.437	0.19
281.651	0.1
281.865	0.16
282.079	0.07
282.293	0.02
282.507	0.01
282.721	0.11
282.935	0.06
283.148	-0.01
283.362	0.14
283.576	0.05
283.79	0.08
284.004	0.08
284.218	0.13
284.432	0.08
284.646	0.08
284.859	0.07
285.073	0.03
285.287	0.07
285.501	0.11
285.714	0.05
285.928	0.09
286.142	0.14
286.356	0.06
286.569	0.08
286.783	0.19
286.997	0.15
287.21	0.15
287.424	0.1
287.637	0.01
287.851	0.09
288.065	0.13
288.278	0.06
288.492	0.1
288.705	0.08
288.919	0.16
289.132	0.04
289.346	0.13
289.559	0.02
289.773	0.05
289.986	0.14
290.2	0.08
290.413	0.14
290.626	0.05
290.84	0.09
291.053	0.05
291.267	0.15
291.48	0.09
291.693	0.08
291.906	0.03
292.12	0.09
292.333	0.05
292.546	0.07
292.76	0.15
292.973	0.14
293.186	0.14
293.399	0.08
293.612	0.19
293.826	0.12
294.039	0.11
294.252	0.1
294.465	0.15
294.678	0.17
294.891	0.1
295.104	0.07
295.317	0.08
295.53	0.13
295.743	0.06
295.956	0.08
296.169	0.17
296.382	0.17
296.595	0.08
296.808	0.07
297.021	0.12
297.234	0.11
297.447	0.06
297.66	0.11
297.873	0.19
298.086	0.13
298.299	0.09
298.511	0.04
298.724	0.1
298.937	0.01
299.15	0.09
299.363	0.09
299.575	0.12
299.788	0.13
300.001	0.05
300.213	0.1
300.426	0.09
300.639	0.05
300.852	0.06
301.064	0.11
301.277	0.19
301.489	0.14
301.702	0.12
301.915	0.08
302.127	0.12
302.34	0.15
302.552	0.11
302.765	0.09
302.977	0.15
303.19	0.08
303.402	0.08
303.615	0.11
303.827	0.1
304.04	0.09
304.252	0.11
304.464	0.1
304.677	0.22
304.889	0.18
305.102	0.08
305.314	0.05
305.526	0.16
305.739	0.13
305.951	0.07
306.163	0.12
306.375	0.22
306.588	0.09
306.8	0.11
307.012	0.02
307.224	0.09
307.436	0.17
307.649	0
307.861	0.12
308.073	0.15
308.285	0.07
308.497	0.08
308.709	0.05
308.921	0.15
309.133	0.16
309.346	0.06
309.558	0.08
309.77	0.15
309.982	0.16
310.194	0.14
310.406	0.06
310.617	0.23
310.829	0.12
311.041	0.12
311.253	0.06
311.465	0.11
311.677	0.1
311.889	0.07
312.101	0.06
312.313	0.19
312.524	0.14
312.736	0.05
312.948	0.07
313.16	0.2
313.372	0.12
313.583	0.09
313.795	0.06
314.007	0.07
314.218	0.12
314.43	0.11
314.642	0.08
314.853	0.04
315.065	0.12
315.277	0.06
315.488	0.12
315.7	0.11
315.912	0.13
316.123	0.12
316.335	0.08
316.546	0.19
316.758	0.09
316.969	0.04
317.181	0.07
317.392	0.08
317.604	0.15
317.815	0.02
318.026	0.07
318.238	0.07
318.449	0.14
318.661	0
318.872	0.03
319.083	0.06
319.295	0.11
319.506	0.07
319.717	0.09
319.929	0.18
320.14	0.12
320.351	0.11
320.562	0.1
320.774	0.04
320.985	0.1
321.196	0.04
321.407	0.03
321.618	0.13
321.829	0.1
322.041	0.1
322.252	0.09
322.463	0.07
322.674	0.13
322.885	0.04
323.096	0.07
323.307	0.04
323.518	0.11
323.729	0.1
323.94	0.08
324.151	0.09
324.362	0.15
324.573	0.11
324.784	0.09
324.995	0.12
325.206	0.12
325.417	0.06
325.628	0.05
325.838	0.07
326.049	0.12
326.26	0.11
326.471	0.08
326.682	0.11
326.892	0.11
327.103	0.04
327.314	0.05
327.525	0.14
327.735	0.04
327.946	0.1
328.157	0.05
328.368	0.11
328.578	0.11
328.789	0.17
328.999	0.08
329.21	0.09
329.421	0.11
329.631	0.06
329.842	0.05
330.052	0.11
330.263	0.16
330.473	0.15
330.684	0.07
330.894	0.05
331.105	0.09
331.315	0.12
331.526	0.02
331.736	0.18
331.947	0.11
332.157	0.07
332.367	0.06
332.578	0.11
332.788	0.17
332.999	0.11
333.209	0.08
333.419	0.04
333.629	0.15
333.84	0.1
334.05	0.09
334.26	0.13
334.47	0.1
334.681	0.15
334.891	0.07
335.101	0.1
335.311	0.21
335.521	0.08
335.732	0.02
335.942	0.13
336.152	0.11
336.362	0.12
336.572	0.09
336.782	0.17
336.992	0.03
337.202	0.08
337.412	0.02
337.622	0.12
337.832	0.11
338.042	0.09
338.252	0.04
338.462	0.05
338.672	0.11
338.882	0.06
339.092	0.04
339.302	0.22
339.511	0.09
339.721	0.06
339.931	0.06
340.141	0.13
340.351	0.14
340.561	0.11
340.77	0.13
340.98	0.09
341.19	0.13
341.4	0.08
341.609	-0
341.819	0.1
342.029	0.04
342.238	0.06
342.448	0.05
342.658	0.1
342.867	0.09
343.077	0.14
343.286	0.15
343.496	0.14
343.706	0.14
343.915	0.1
344.125	0.13
344.334	0.12
344.544	0.04
344.753	0.03
344.963	0.1
345.172	0.1
345.381	0.07
345.591	0.09
345.8	0.09
346.01	0.13
346.219	0.17
346.428	-0.07
346.638	0.1
346.847	0.1
347.056	0.15
347.266	0.03
347.475	0.1
347.684	0.11
347.893	0.15
348.103	0.08
348.312	0.09
348.521	0.1
348.73	0.1
348.94	0.1
349.149	0.09
349.358	0.08
349.567	0.05
349.776	0.05
349.985	0.05
350.194	0.17
350.403	0.15
350.612	0.02
350.821	0.09
351.03	0.13
351.239	0.03
351.448	0.11
351.657	0.04
351.866	0.16
352.075	0.07
352.284	0.12
352.493	0.06
352.702	0.14
352.911	0.12
353.12	0.12
353.329	0.08
353.538	0.11
353.746	0.11
353.955	0.05
354.164	0.12
354.373	0.09
354.582	0.15
354.79	0.11
354.999	0.11
355.208	0.09
355.416	0.13
355.625	0.06
355.834	0.09
356.042	0.1
356.251	0.08
356.46	0.03
356.668	0.11
356.877	0.21
357.085	0.12
357.294	-0
357.503	0.12
357.711	0.09
357.92	0.23
358.128	0.11
358.337	0.11
358.545	0.07
358.754	0.05
358.962	0.13
359.17	0.07
359.379	0.07
359.587	0.12
359.796	0.1
360.004	0.13
360.212	0.15
360.421	0.16
360.629	0.07
360.837	0.05
361.046	0.15
361.254	0.19
361.462	0.11
361.67	0.11
361.879	0.09
362.087	0.14
362.295	0.09
362.503	0.08
362.711	0.05
362.92	0.04
363.128	0.07
363.336	0.04
363.544	0.05
363.752	0.02
363.96	0.05
364.168	0.06
364.376	0.1
364.584	0.13
364.792	0.12
365	0.11
365.208	0.1
365.416	0.12
365.624	0.14
365.832	0.07
366.04	0.15
366.248	0.13
366.456	0.08
366.664	0.1
366.872	0.11
367.079	0.08
367.287	0.1
367.495	0.1
367.703	0.1
367.911	0.1
368.118	0.11
368.326	0.06
368.534	0.08
368.742	0.16
368.949	0.05
369.157	0.09
369.365	0.12
369.572	0.01
369.78	0.06
369.988	0.11
370.195	0.11
370.403	0.14
370.61	0.07
370.818	0.06
371.026	0.14
371.233	0.03
371.441	0.13
371.648	0.09
371.856	0.14
372.063	0.1
372.271	0.09
372.478	0.1
372.685	0.1
372.893	0.16
373.1	0.11
373.308	0.04
373.515	0.16
373.722	0.14
373.93	0.08
374.137	0.11
374.344	0.17
374.552	0.12
374.759	0.15
374.966	0.1
375.173	0.09
375.381	0.15
375.588	0.07
375.795	0.07
376.002	0.08
376.209	0.1
376.417	0.08
376.624	0.06
376.831	0.09
377.038	0.08
377.245	0.03
377.452	0.08
377.659	0.11
377.866	0.06
378.073	0.1
378.28	0.07
378.487	0.15
378.694	0.15
378.901	0.13
379.108	0.08
379.315	0.11
379.522	0.2
379.729	0.12
379.936	0.09
380.143	0.13
380.35	0.11
380.557	0.1
380.763	0.13
380.97	0.11
381.177	0.11
381.384	0.11
381.591	0.1
381.797	0.08
382.004	0.14
382.211	0.11
382.418	0.11
382.624	0.15
382.831	0.15
383.038	0.11
383.244	0.08
383.451	0.09
383.658	0.16
383.864	0.1
384.071	0.07
384.277	0.19
384.484	0.07
384.69	0.14
384.897	0.11
385.103	0.08
385.31	0.11
385.516	0.07
385.723	0.06
385.929	0.1
386.136	0.08
386.342	0.14
386.549	0.08
386.755	0.14
386.961	0.19
387.168	0.09
387.374	0.08
387.58	0.16
387.787	0.11
387.993	0.16
388.199	0.13
388.406	0.08
388.612	0.1
388.818	0.09
389.024	0.03
389.231	0.08
389.437	0.16
389.643	0.12
389.849	0.13
390.055	0.11
390.261	0.14
390.467	0.12
390.674	0.08
390.88	0.09
391.086	0.14
391.292	0.07
391.498	0.13
391.704	0.14
391.91	0.12
392.116	0.09
392.322	0.04
392.528	0.1
392.734	0.09
392.94	0.12
393.146	0.13
393.352	0.13
393.557	0.1
393.763	0.14
393.969	0.13
394.175	0.12
394.381	0.13
394.587	0.07
394.792	0.19
394.998	0.18
395.204	0.15
395.41	0.09
395.615	0.14
395.821	0.15
396.027	0.12
396.233	0.08
396.438	0.12
396.644	0.24
396.85	0.16
397.055	0.14
397.261	0.16
397.466	0.13
397.672	0.15
397.878	0.17
398.083	0.18
398.289	0.11
398.494	0.15
398.7	0.18
398.905	0.07
399.111	0.21
399.316	0.12
399.522	0.15
399.727	0.18
399.932	0.16
400.138	0.12
400.343	0.17
400.549	0.16
400.754	0.15
400.959	0.18
401.165	0.17
401.37	0.16
401.575	0.15
401.78	0.12
401.986	0.17
402.191	0.16
402.396	0.14
402.601	0.19
402.807	0.21
403.012	0.16
403.217	0.21
403.422	0.14
403.627	0.18
403.832	0.17
404.037	0.22
404.243	0.19
404.448	0.16
404.653	0.15
404.858	0.18
405.063	0.18
405.268	0.12
405.473	0.14
405.678	0.13
405.883	0.38
406.088	0.2
406.293	0.11
406.498	0.15
406.703	0.27
406.907	0.22
407.112	0.15
407.317	0.25
407.522	0.28
407.727	0.2
407.932	0.25
408.136	0.32
408.341	0.24
408.546	0.29
408.751	0.23
408.956	0.21
409.16	0.29
409.365	0.24
409.57	0.25
409.774	0.31
409.979	0.31
410.184	0.29
410.388	0.25
410.593	0.38
410.798	0.34
411.002	0.33
411.207	0.38
411.411	0.39
411.616	0.3
411.82	0.32
412.025	0.39
412.229	0.35
412.434	0.44
412.638	0.42
412.843	0.4
413.047	0.46
413.252	0.4
413.456	0.47
413.66	0.5
413.865	0.48
414.069	0.55
414.273	0.45
414.478	0.48
414.682	0.58
414.886	0.55
415.091	0.55
415.295	0.56
415.499	0.67
415.703	0.61
415.908	0.72
416.112	0.6
416.316	0.79
416.52	0.75
416.724	0.76
416.929	0.77
417.133	0.96
417.337	0.86
417.541	0.91
417.745	0.95
417.949	0.98
418.153	1.02
418.357	1
418.561	1.21
418.765	1.16
418.969	1.29
419.173	1.3
419.377	1.28
419.581	1.45
419.785	1.39
419.989	1.4
420.193	1.49
420.397	1.64
420.601	1.7
420.804	1.77
421.008	1.74
421.212	1.81
421.416	1.9
421.62	1.81
421.823	1.96
422.027	2.08
422.231	2.1
422.435	2.06
422.638	2.2
422.842	2.27
423.046	2.29
423.249	2.45
423.453	2.46
423.657	2.62
423.86	2.66
424.064	2.76
424.268	2.92
424.471	2.89
424.675	3.13
424.878	3.19
425.082	3.23
425.285	3.54
425.489	3.46
425.692	3.59
425.896	3.58
426.099	3.85
426.303	3.91
426.506	4.09
426.71	4.27
426.913	4.48
427.116	4.62
427.32	4.57
427.523	4.8
427.726	5.1
427.93	5.02
428.133	5.48
428.336	5.54
428.54	5.73
428.743	5.93
428.946	6.16
429.149	6.11
429.353	6.22
429.556	6.36
429.759	6.44
429.962	6.62
430.165	6.76
430.368	6.57
430.571	6.65
430.775	6.72
430.978	6.67
431.181	6.82
431.384	6.88
431.587	7.06
431.79	7.36
431.993	7.31
432.196	7.63
432.399	8.05
432.602	8.15
432.805	8.25
433.008	8.82
433.211	8.69
433.414	9.02
433.616	9.05
433.819	9.05
434.022	9.42
434.225	9.52
434.428	9.46
434.631	9.96
434.833	9.85
435.036	10.14
435.239	10.34
435.442	10.49
435.645	10.6
435.847	10.82
436.05	11.2
436.253	11.35
436.455	11.49
436.658	11.49
436.861	11.72
437.063	12.01
437.266	12.18
437.468	12.47
437.671	12.92
437.874	13.03
438.076	12.98
438.279	13.59
438.481	13.69
438.684	14.56
438.886	14.29
439.089	14.74
439.291	14.82
439.494	15.39
439.696	15.6
439.899	16.42
440.101	16.87
440.303	17.24
440.506	18.24
440.708	18.19
440.91	18.49
441.113	18.93
441.315	19.34
441.517	19.32
441.72	19.97
441.922	19.88
442.124	20.05
442.326	20.68
442.529	21.07
442.731	21.22
442.933	21.89
443.135	21.76
443.337	21.87
443.539	22.84
443.742	22.52
443.944	23.52
444.146	23.54
444.348	23.58
444.55	23.69
444.752	24.18
444.954	24.47
445.156	24.47
445.358	24.95
445.56	25.61
445.762	25.77
445.964	26.14
446.166	26.09
446.368	26.26
446.57	26.38
446.772	26
446.974	25.87
447.175	26.36
447.377	26.22
447.579	26.9
447.781	26.57
447.983	26.23
448.184	25.79
448.386	26.34
448.588	25.8
448.79	25.79
448.991	26.31
449.193	26.58
449.395	25.56
449.597	24.82
449.798	24.82
450	24.27
450.202	24.24
450.403	24.03
450.605	23.77
450.806	23.47
451.008	23.51
451.21	22.94
451.411	22.26
451.613	21.12
451.814	21.55
452.016	21.36
452.217	20.12
452.419	20.25
452.62	19.66
452.821	19.28
453.023	19.09
453.224	18.54
453.426	17.81
453.627	16.67
453.828	16.78
454.03	16.93
454.231	16.71
454.432	16.51
454.634	16.04
454.835	15.58
455.036	15.55
455.238	14.72
455.439	14.31
455.64	13.9
455.841	13.77
456.042	13.78
456.244	13.22
456.445	12.9
456.646	12.43
456.847	12.25
457.048	12.21
457.249	12.13
457.45	11.62
457.651	11.13
457.852	10.8
458.054	10.37
458.255	10.19
458.456	10.27
458.657	10.06
458.858	9.61
459.058	9.36
459.259	9.34
459.46	8.97
459.661	8.9
459.862	8.9
460.063	8.83
460.264	8.59
460.465	8.22
460.666	8.33
460.866	7.99
461.067	7.47
461.268	7.59
461.469	7.49
461.67	7.31
461.87	7.1
462.071	7.09
462.272	6.95
462.473	6.8
462.673	7.06
462.874	6.85
463.075	6.7
463.275	6.75
463.476	6.61
463.676	6.57
463.877	6.4
464.078	6.21
464.278	6.36
464.479	6.21
464.679	5.96
464.88	5.82
465.08	5.8
465.281	5.51
465.481	5.18
465.682	5
465.882	4.99
466.083	4.84
466.283	4.78
466.483	4.56
466.684	4.4
466.884	4.26
467.085	4.21
467.285	4.23
467.485	4.07
467.686	3.95
467.886	3.79
468.086	3.64
468.286	3.62
468.487	3.67
468.687	3.46
468.887	3.34
469.087	3.51
469.287	3.25
469.488	3.06
469.688	3.22
469.888	3.18
470.088	3.05
470.288	2.93
470.488	2.88
470.688	2.72
470.888	2.62
471.088	2.42
471.288	2.57
471.488	2.46
471.688	2.39
471.888	2.32
472.088	2.45
472.288	2.3
472.488	2.18
472.688	2.13
472.888	2.1
473.088	2.11
473.288	1.99
473.488	1.95
473.688	2.09
473.887	1.94
474.087	1.9
474.287	1.8
474.487	1.73
474.687	1.72
474.886	1.7
475.086	1.64
475.286	1.68
475.486	1.52
475.685	1.53
475.885	1.48
476.085	1.52
476.284	1.5
476.484	1.45
476.684	1.43
476.883	1.52
477.083	1.36
477.282	1.31
477.482	1.37
477.681	1.27
477.881	1.23
478.08	1.15
478.28	1.15
478.479	1.22
478.679	1.23
478.878	1.11
479.078	1.1
479.277	1.09
479.477	1.03
479.676	1.06
479.875	1.01
480.075	0.93
480.274	0.96
480.473	1.04
480.673	0.92
480.872	0.95
481.071	0.91
481.271	0.91
481.47	0.84
481.669	0.83
481.868	0.83
482.067	0.8
482.267	0.75
482.466	0.75
482.665	0.75
482.864	0.7
483.063	0.69
483.262	0.72
483.461	0.77
483.661	0.71
483.86	0.65
484.059	0.72
484.258	0.61
484.457	0.65
484.656	0.6
484.855	0.66
485.054	0.52
485.253	0.54
485.452	0.51
485.651	0.55
485.849	0.53
486.048	0.49
486.247	0.46
486.446	0.47
486.645	0.43
486.844	0.46
487.043	0.47
487.241	0.47
487.44	0.4
487.639	0.43
487.838	0.46
488.037	0.42
488.235	0.44
488.434	0.39
488.633	0.32
488.831	0.39
489.03	0.41
489.229	0.36
489.427	0.32
489.626	0.36
489.825	0.39
490.023	0.33
490.222	0.32
490.42	0.36
490.619	0.33
490.817	0.32
491.016	0.29
491.214	0.32
491.413	0.26
491.611	0.26
491.81	0.28
492.008	0.28
492.207	0.29
492.405	0.28
492.604	0.2
492.802	0.28
493	0.3
493.199	0.23
493.397	0.24
493.595	0.26
493.794	0.22
493.992	0.3
494.19	0.21
494.388	0.21
494.587	0.18
494.785	0.23
494.983	0.18
495.181	0.21
495.379	0.23
495.578	0.21
495.776	0.22
495.974	0.2
496.172	0.18
496.37	0.16
496.568	0.17
496.766	0.16
496.964	0.19
497.162	0.18
497.36	0.15
497.558	0.18
497.756	0.19
497.954	0.17
498.152	0.14
498.35	0.14
498.548	0.14
498.746	0.15
498.944	0.11
499.142	0.15
499.34	0.13
499.538	0.14
499.736	0.11
499.933	0.19
500.131	0.19
500.329	0.16
500.527	0.17
500.725	0.16
500.922	0.16
501.12	0.14
501.318	0.14
501.516	0.1
501.713	0.14
501.911	0.12
502.109	0.1
502.306	0.13
502.504	0.13
502.701	0.11
502.899	0.12
503.097	0.16
503.294	0.14
503.492	0.1
503.689	0.11
503.887	0.13
504.084	0.17
504.282	0.12
504.479	0.07
504.677	0.1
504.874	0.09
505.072	0.09
505.269	0.11
505.466	0.12
505.664	0.1
505.861	0.06
506.059	0.09
506.256	0.13
506.453	0.08
506.651	0.18
506.848	0.13
507.045	0.11
507.242	0.1
507.44	0.06
507.637	0.09
507.834	0.08
508.031	0.1
508.229	0.04
508.426	0.08
508.623	0.12
508.82	0.09
509.017	0.06
509.214	0.1
509.411	0.09
509.608	0.06
509.805	0.05
510.003	0.07
510.2	0.09
510.397	0.1
510.594	0.07
510.791	0.03
510.988	0.07
511.184	0.12
511.381	0.08
511.578	0.05
511.775	0.1
511.972	0.04
512.169	0.04
512.366	0.07
512.563	0.1
512.76	0.05
512.956	0.09
513.153	0.05
513.35	0.09
513.547	0.06
513.744	0.04
513.94	0.05
514.137	0.08
514.334	0.1
514.53	0.07
514.727	0.08
514.924	0.14
515.12	0.07
515.317	0.03
515.514	0.05
515.71	0.04
515.907	0.05
516.103	0.05
516.3	0.08
516.497	0.07
516.693	0.09
516.89	0.06
517.086	0.02
517.283	0.11
517.479	0.06
517.676	0.05
517.872	0.06
518.068	0.05
518.265	0.06
518.461	0.06
518.658	0.05
518.854	0.07
519.05	0.07
519.247	0.06
519.443	0.07
519.639	0.06
519.836	0.07
520.032	0.04
520.228	0.07
520.424	0.1
520.621	0.06
520.817	0.04
521.013	0.07
521.209	0.06
521.405	0.09
521.601	0.07
521.798	0.06
521.994	0.12
522.19	0.03
522.386	0.02
522.582	0.05
522.778	0.05
522.974	0.04
523.17	0.05
523.366	0.06
523.562	0.08
523.758	0.07
523.954	0.04
524.15	0.06
524.346	0.05
524.542	0.04
524.738	0.03
524.934	0.05
525.129	0.04
525.325	0.07
525.521	0.06
525.717	0.08
525.913	0.06
526.109	0.06
526.304	0.04
526.5	0.05
526.696	0.09
526.892	0.03
527.087	0.07
527.283	0.03
527.479	0.07
527.674	0.04
527.87	0.03
528.066	0.03
528.261	0.06
528.457	0.06
528.653	0.05
528.848	0.03
529.044	0.05
529.239	0.05
529.435	0.09
529.63	0.05
529.826	0.11
530.021	0.06
530.217	0.03
530.412	0.03
530.608	0.03
530.803	0.04
530.999	0.05
531.194	0.01
531.389	0.07
531.585	0.01
531.78	0.05
531.975	0.03
532.171	0.07
532.366	0.07
532.561	0.05
532.757	0.03
532.952	0.04
533.147	0.07
533.342	0.05
533.538	0.03
533.733	0.08
533.928	0.03
534.123	0.02
534.318	0.01
534.513	0.03
534.709	0.03
534.904	0.03
535.099	0.06
535.294	0.02
535.489	0.06
535.684	0.05
535.879	0.02
536.074	0.06
536.269	0.01
536.464	0.05
536.659	0.02
536.854	0.07
537.049	0.06
537.244	0.04
537.439	0.03
537.634	0.08
537.828	0.05
538.023	0.03
538.218	0.01
538.413	0.04
538.608	0.01
538.803	0.05
538.997	0.02
539.192	0.09
539.387	0.05
539.582	0.06
539.776	0.04
539.971	0.04
540.166	0.04
540.36	-0.01
540.555	0.01
540.75	0.03
540.944	0.04
541.139	0.01
541.334	0.01
541.528	0.07
541.723	0.08
541.917	0.03
542.112	-0.01
542.306	0.03
542.501	0.05
542.695	0.05
542.89	0.02
543.084	0.04
543.279	0.02
543.473	0.05
543.668	0.04
543.862	0.03
544.056	0.08
544.251	0.03
544.445	0.04
544.64	0.02
544.834	0.02
545.028	0.03
545.222	0.04
545.417	0.05
545.611	0.03
545.805	0.04
546	0.01
546.194	0.03
546.388	0.03
546.582	0.05
546.776	0.04
546.97	0.03
547.165	0.03
547.359	0.06
547.553	0.01
547.747	0.04
547.941	0.04
548.135	0.05
548.329	0.06
548.523	0.05
548.717	0.01
548.911	0.02
549.105	0
549.299	0.04
549.493	0.04
549.687	0.06
549.881	0.04
550.075	0.05
550.269	0.01
550.463	0.04
550.657	0.05
550.85	0.05
551.044	0.03
551.238	0.03
551.432	0.03
551.626	0.03
551.82	0.04
552.013	0.03
552.207	0.04
552.401	0.04
552.594	0.03
552.788	0.05
552.982	0.03
553.176	0.01
553.369	0.03
553.563	0.06
553.756	-0.02
553.95	0.02
554.144	0.03
554.337	0.05
554.531	0.03
554.724	0.05
554.918	0.01
555.111	0.05
555.305	0.01
555.498	0.07
555.692	0.05
555.885	0.02
556.079	0.04
556.272	0.02
556.466	0.08
556.659	0.04
556.852	0.05
557.046	0.03
557.239	0.06
557.432	-0.01
557.626	0.01
557.819	0.05
558.012	0.04
558.206	0.05
558.399	0.06
558.592	0.04
558.785	0.04
558.979	0.05
559.172	0.03
559.365	0.05
559.558	0.06
559.751	0.02
559.944	0.05
560.138	0.02
560.331	0.05
560.524	0.01
560.717	0.05
560.91	0.02
561.103	0.05
561.296	0.03
561.489	0.03
561.682	0.02
561.875	0.1
562.068	0.04
562.261	0.04
562.454	0.08
562.647	0.05
562.84	0.03
563.032	0.03
563.225	0.06
563.418	0.01
563.611	0.02
563.804	0.03
563.997	-0.01
564.19	-0
564.382	0.05
564.575	0.03
564.768	0.03
564.961	0.03
565.153	0.03
565.346	0.03
565.539	0.04
565.731	0.07
565.924	0.03
566.117	0.05
566.309	0.04
566.502	0.02
566.695	0.01
566.887	0.05
567.08	0
567.272	0.01
567.465	0.01
567.657	0.02
567.85	0.05
568.042	0.05
568.235	0.06
568.427	-0
568.62	0.03
568.812	0.03
569.005	0.02
569.197	-0
569.389	0.03
569.582	0.03
569.774	0.05
569.966	0.02
570.159	-0.01
570.351	0.05
570.543	0.01
570.736	0.03
570.928	-0
571.12	0.05
571.312	0.02
571.505	-0
571.697	0.06
571.889	0.01
572.081	0.01
572.273	0.01
572.465	0.06
572.658	0.03
572.85	0.03
573.042	0.03
573.234	0.02
573.426	0.05
573.618	-0.01
573.81	0.03
574.002	0.07
574.194	0.07
574.386	-0.02
574.578	-0.04
574.77	0
574.962	0.01
575.154	-0.01
575.346	0.02
575.538	0.05
575.729	0
575.921	0
576.113	0.02
576.305	0.04
576.497	0.02
576.689	0
576.88	-0.01
577.072	0.05
577.264	0.03
577.456	0.02
577.647	-0.06
577.839	0.04
578.031	0.06
578.223	-0
578.414	-0.02
578.606	0.05
578.798	0.03
578.989	0.02
579.181	0.01
579.372	0.04
579.564	0.02
579.755	0.02
579.947	0.05
580.139	0.05
580.33	-0.01
580.522	-0
580.713	-0.02
580.905	0.04
581.096	0.05
581.287	0.03
581.479	0.02
581.67	0.02
581.862	0.02
582.053	0
582.244	-0.04
582.436	0.03
582.627	0.06
582.818	0.01
583.01	-0.04
583.201	0.06
583.392	0.06
583.583	0.03
583.775	0.03
583.966	0.01
584.157	0.02
584.348	0.01
584.54	-0.03
584.731	0.03
584.922	0.03
585.113	0.01
585.304	0.04
585.495	0.05
585.686	0.05
585.877	0.03
586.068	0.02
586.259	0.04
586.45	0.04
586.641	-0
586.832	-0.02
587.023	0
587.214	0.05
587.405	0.04
587.596	-0
587.787	0.06
587.978	0.03
588.169	-0.01
588.36	-0.01
588.551	0.03
588.742	0.01
588.932	0.04
589.123	0.02
589.314	0.05
589.505	0.03
589.696	0.04
589.886	-0
590.077	-0.01
590.268	0.03
590.458	-0.01
590.649	-0.03
590.84	0.05
591.03	0
591.221	-0.03
591.412	-0.04
591.602	0.04
591.793	0.07
591.984	0.01
592.174	0.01
592.365	0.1
592.555	0.02
592.746	0
592.936	0.05
593.127	0.03
593.317	0.06
593.508	0.01
593.698	-0
593.889	0.02
594.079	0.03
594.269	0.01
594.46	0.01
594.65	0.03
594.84	0.03
595.031	-0.02
595.221	-0.01
595.411	-0.04
595.602	0.05
595.792	0.02
595.982	-0.01
596.172	0.07
596.363	0.01
596.553	0.02
596.743	0.03
596.933	0.04
597.123	0.06
597.314	0.01
597.504	0
597.694	0.06
597.884	0.06
598.074	0.01
598.264	0.01
598.454	0.04
598.644	0.02
598.834	0.03
599.024	-0.04
599.214	0.03
599.404	0.05
599.594	0.04
599.784	0.01
599.974	0.07
600.164	0.05
600.354	-0.01
600.544	-0.03
600.734	0.02
600.924	0.09
601.114	0
601.303	0.01
601.493	0.01
601.683	0.01
601.873	0.04
602.063	-0.03
602.252	0.04
602.442	-0.04
602.632	-0.01
602.821	-0.01
603.011	0.02
603.201	-0
603.39	-0.01
603.58	0.02
603.77	0.06
603.959	0.05
604.149	0.03
604.339	-0
604.528	0.05
604.718	0.03
604.907	-0
605.097	-0.01
605.286	0
605.476	0.05
605.665	0.05
605.855	0.01
606.044	0.05
606.234	0.03
606.423	0.02
606.612	-0.04
606.802	0.03
606.991	0.06
607.181	0.05
607.37	-0.03
607.559	0.02
607.749	-0.04
607.938	0.01
608.127	-0.02
608.316	0.03
608.506	0.04
608.695	0.02
608.884	-0.01
609.073	0.03
609.263	0.03
609.452	0.06
609.641	0.02
609.83	-0.01
610.019	0.02
610.208	-0.01
610.397	0.01
610.586	0.06
610.775	-0
610.965	-0.03
611.154	-0.01
611.343	0.02
611.532	-0.01
611.721	-0
611.91	-0.01
612.099	0.06
612.287	0.02
612.476	-0
612.665	0.02
612.854	0
613.043	0.08
613.232	0.02
613.421	-0.01
613.61	0.03
613.798	-0
613.987	0.06
614.176	-0.02
614.365	0.03
614.554	0.01
614.742	0.07
614.931	-0
615.12	0.05
615.309	0.03
615.497	0.04
615.686	-0.01
615.875	-0
616.063	0.03
616.252	-0.02
616.44	-0.03
616.629	0.05
616.818	0.04
617.006	0.03
617.195	0.03
617.383	-0.01
617.572	0.02
617.76	-0.01
617.949	0.02
618.137	0.05
618.326	0.06
618.514	0.01
618.703	0
618.891	0.06
619.079	-0.04
619.268	0.05
619.456	-0.01
619.644	0.07
619.833	0.03
620.021	-0.01
620.209	-0.02
620.398	0.03
620.586	0.04
620.774	0.04
620.962	0.03
621.151	0.08
621.339	-0.02
621.527	-0.02
621.715	-0.01
621.903	-0.03
622.092	-0.02
622.28	0
622.468	0.02
622.656	0.01
622.844	0.04
623.032	-0
623.22	-0.03
623.408	0.07
623.596	0.03
623.784	0.02
623.972	-0.01
624.16	0.02
624.348	0.07
624.536	0.01
624.724	0
624.912	0.09
625.1	0.07
625.288	-0.01
625.476	-0.01
625.664	0.06
625.851	-0.01
626.039	0.01
626.227	0.02
626.415	0.03
626.603	-0.04
626.79	0.02
626.978	-0.02
627.166	0.04
627.354	0.03
627.541	0.03
627.729	-0.05
627.917	0.03
628.104	0.04
628.292	0.03
628.48	-0
628.667	0.02
628.855	0.05
629.042	0.02
629.23	0.02
629.418	0.03
629.605	0
629.793	0.01
629.98	0
630.168	0
630.355	0.01
630.543	0.05
630.73	-0.01
630.917	0.05
631.105	0.1
631.292	-0.03
631.48	0.01
631.667	0.1
631.854	0.03
632.042	-0.01
632.229	-0.05
632.416	0.03
632.604	0
632.791	-0.02
632.978	0.02
633.165	0.06
633.353	0.04
633.54	0.06
633.727	-0.05
633.914	-0
634.101	-0.05
634.289	0.08
634.476	-0.01
634.663	-0.02
634.85	0.02
635.037	-0.04
635.224	-0.06
635.411	0.04
635.598	0.03
635.785	-0.01
635.972	-0.01
636.159	0.06
636.346	0.01
636.533	0.01
636.72	0.02
636.907	-0.02
637.094	0.03
637.281	-0.02
637.468	0.06
637.655	0.01
637.842	-0.01
638.029	-0.03
638.215	0.06
638.402	0.02
638.589	-0.03
638.776	0
638.963	-0.06
639.149	0.04
639.336	0.06
639.523	0.02
639.709	0.03
639.896	-0.03
640.083	0.05
640.27	0.04
640.456	-0.01
640.643	0.03
640.829	-0.03
641.016	0.01
641.203	-0.02
641.389	0.03
641.576	0.04
641.762	0.02
641.949	-0.04
642.135	0.03
642.322	0.04
642.508	-0.05
642.695	-0.01
642.881	0.03
643.068	-0.01
643.254	-0
643.441	0.06
643.627	-0.01
643.813	-0
644	0.03
644.186	-0
644.372	0.01
644.559	0.08
644.745	0.01
644.931	-0.02
645.118	0.01
645.304	0
645.49	-0.03
645.676	-0
645.862	0.02
646.049	0.07
646.235	0.01
646.421	0.12
646.607	0.08
646.793	-0.01
646.979	0.01
647.165	0.01
647.352	0.02
647.538	0.06
647.724	0.02
647.91	-0.01
648.096	0.05
648.282	0.02
648.468	0.02
648.654	-0
648.84	0.03
649.026	0.01
649.212	0.04
649.397	-0.01
649.583	-0.03
649.769	0.06
649.955	0.03
650.141	0.02
650.327	0.08
650.513	-0.03
650.698	0.01
650.884	-0.07
651.07	0.06
651.256	0.03
651.442	-0.01
651.627	0.01
651.813	0.06
651.999	0.03
652.184	0.01
652.37	0.01
652.556	0
652.741	0.06
652.927	-0.04
653.113	0.01
653.298	0.01
653.484	0.04
653.669	-0.03
653.855	0.01
654.04	0
654.226	0.03
654.412	-0
654.597	0
654.782	0
654.968	0.08
655.153	0.04
655.339	-0
655.524	-0.03
655.71	0.06
655.895	0.01
656.08	-0
656.266	0.06
656.451	0.01
656.636	-0.02
656.822	0.02
657.007	-0.02
657.192	0.01
657.378	-0.03
657.563	0.03
657.748	0.04
657.933	0.03
658.118	0.01
658.304	-0
658.489	0.03
658.674	0.05
658.859	-0.04
659.044	0.01
659.229	0.01
659.414	-0.01
659.599	0.02
659.785	-0.07
659.97	-0.02
660.155	0.08
660.34	0.04
660.525	0.02
660.71	0.01
660.895	0.06
661.08	-0.01
661.264	-0.02
661.449	0.08
661.634	0.05
661.819	0.04
662.004	0.04
662.189	-0.04
662.374	0
662.559	-0.03
662.743	-0.03
662.928	0.02
663.113	0
663.298	-0.04
663.483	0.01
663.667	0.02
663.852	-0.03
664.037	0.07
664.221	-0.01
664.406	0
664.591	0.02
664.775	0.02
664.96	0.04
665.145	0.05
665.329	0.07
665.514	-0.01
665.698	0.01
665.883	-0.04
666.068	0.09
666.252	0.01
666.437	-0.08
666.621	-0.02
666.806	0.04
666.99	0.01
667.174	-0.04
667.359	0.06
667.543	-0.02
667.728	0.02
667.912	-0.06
668.096	0.03
668.281	-0.02
668.465	0.02
668.649	0.01
668.834	-0
669.018	0.03
669.202	-0.01
669.387	-0.02
669.571	0.06
669.755	-0.06
669.939	0.04
670.124	0.02
670.308	0.08
670.492	0.07
670.676	0.02
670.86	0.04
671.044	-0.02
671.228	0.08
671.413	0.01
671.597	-0.02
671.781	-0
671.965	0.06
672.149	-0.02
672.333	-0
672.517	-0.03
672.701	0.04
672.885	-0.01
673.069	-0.04
673.253	0.09
673.437	0.01
673.621	-0.03
673.804	0.02
673.988	0.04
674.172	0.03
674.356	-0.03
674.54	0.02
674.724	0.06
674.908	0.01
675.091	0.06
675.275	0.03
675.459	0.07
675.643	0.08
675.826	0.03
676.01	0.03
676.194	0.01
676.377	0.07
676.561	0.03
676.745	0.06
676.928	0.03
677.112	0.06
677.296	-0.01
677.479	-0.02
677.663	0.01
677.846	0.04
678.03	-0.02
678.213	0.01
678.397	0.02
678.58	-0.02
678.764	-0.01
678.947	-0.01
679.131	-0.02
679.314	0.08
679.498	0.01
679.681	0.04
679.865	0.06
680.048	0.01
680.231	-0.02
680.415	0.02
680.598	0.03
680.781	0.03
680.965	-0.02
681.148	-0.01
681.331	0.03
681.514	0.08
681.698	0.02
681.881	-0.01
682.064	0.03
682.247	-0
682.43	-0.05
682.614	0.04
682.797	0.08
682.98	0.02
683.163	-0.01
683.346	0.02
683.529	-0.02
683.712	0.04
683.895	0.04
684.078	-0.06
684.261	0
684.444	-0
684.627	0.04
684.81	0.01
684.993	-0.01
685.176	0.02
685.359	-0.05
685.542	-0.06
685.725	0.1
685.908	0.04
686.091	-0.02
686.274	0.06
686.457	0.06
686.639	-0.02
686.822	0.06
687.005	0.03
687.188	0.04
687.371	0.14
687.553	0.06
687.736	0.07
687.919	0.11
688.102	0.09
688.284	0.01
688.467	0.01
688.65	0.01
688.832	0.01
689.015	-0.02
689.197	-0.06
689.38	0.13
689.563	0.09
689.745	-0.01
689.928	-0
690.11	0.01
690.293	0.03
690.475	-0.03
690.658	0.04
690.84	-0.01
691.023	0.03
691.205	-0.02
691.388	0.01
691.57	0.06
691.752	0.11
691.935	-0.05
692.117	-0
692.3	0.04
692.482	0.02
692.664	0.06
692.847	0.03
693.029	0.11
693.211	0.03
693.393	0
693.576	0
693.758	0.06
693.94	-0.02
694.122	-0
694.304	0.02
694.487	0.02
694.669	0.08
694.851	-0.04
695.033	0.03
695.215	-0.04
695.397	-0.02
695.579	-0.02
695.761	0.03
695.943	-0.06
696.125	0.12
696.308	0.04
696.49	-0.11
696.671	0.12
696.853	0.05
697.035	0.12
697.217	0.02
697.399	0.04
697.581	0.01
697.763	0.04
697.945	-0.03
698.127	0.05
698.309	0.12
698.491	0.03
698.672	0.08
698.854	0.09
699.036	0.13
699.218	0.01
699.399	0.07
699.581	0.04
699.763	0.09
699.945	-0
700.126	-0.06
700.308	0.03
700.49	0.03
700.671	-0.05
700.853	-0.01
701.035	-0.03
701.216	0.01
701.398	-0.02
701.579	0.02
701.761	0.08
701.943	-0.01
702.124	0
702.306	0.03
702.487	0.18
702.669	0.04
702.85	-0.02
703.031	-0.05
703.213	0.12
703.394	0.08
703.576	0
703.757	0.06
703.938	0.1
704.12	0.18
704.301	0.02
704.483	-0.08
704.664	0.03
704.845	0.12
705.026	0.08
705.208	-0.02
705.389	0.03
705.57	0.01
705.751	0.02
705.933	0.05
706.114	0.04
706.295	0.05
706.476	-0.07
706.657	0.09
706.838	0.03
707.02	0.09
707.201	-0
707.382	0.01
707.563	0.09
707.744	-0.05
707.925	-0.04
708.106	0.01
708.287	0.04
708.468	0.14
708.649	-0.01
708.83	0.08
709.011	0.01
709.192	0.07
709.373	-0.01
709.554	0.01
709.734	0.01
709.915	0.09
710.096	-0.01
710.277	-0.14
710.458	0.01
710.639	0.1
710.819	-0.1
711	0.04
711.181	0.08
711.362	0.11
711.542	0.04
711.723	0.05
711.904	0.07
712.085	0.03
712.265	0.05
712.446	-0.09
712.627	-0.01
712.807	-0.03
712.988	-0.03
713.168	-0.1
713.349	0.12
713.53	-0.1
713.71	-0.05
713.891	-0.06
714.071	0.01
714.252	-0.03
714.432	-0.03
714.613	-0.12
714.793	0.02
714.974	0.12
715.154	0.09
715.334	0.07
715.515	0.1
715.695	0
715.876	0.03
716.056	-0.04
716.236	-0.03
716.417	-0.04
716.597	-0.06
716.777	0.13
716.957	0.01
717.138	0.05
717.318	-0.03
717.498	-0.03
717.678	-0.02
717.859	0.04
718.039	-0.05
718.219	0.05
718.399	0.05
718.579	-0.02
718.759	-0.01
718.939	0
719.12	-0.03
719.3	0.07
719.48	-0.11
719.66	-0.08
719.84	0.09
720.02	0.07
720.2	-0.04
720.38	0.04
720.56	0.13
720.74	0
720.92	0.08
721.1	0.11
721.279	0.08
721.459	-0.02
721.639	-0.11
721.819	0.01
721.999	-0
722.179	-0
722.359	-0.07
722.538	0
722.718	-0
722.898	-0.02
723.078	-0.05
723.257	0.02
723.437	0.03
723.617	0.06
723.797	-0.04
723.976	-0.02
724.156	0.01
724.336	0.19
724.515	0.16
724.695	-0.11
724.874	0.03
725.054	0.02
725.234	0.04
725.413	0.03
725.593	-0.01
725.772	0.02
725.952	0
726.131	-0
726.311	0.11
726.49	-0
726.67	-0.1
726.849	-0.03
727.028	0.06
727.208	-0.04
727.387	0.07
727.567	-0.12
727.746	-0.05
727.925	0.04
728.105	-0.02
728.284	-0.04
728.463	-0.01
728.643	0.02
728.822	-0.12
729.001	0.07
729.18	0.04
729.359	0.12
729.539	-0.04
729.718	0.04
729.897	-0.02
730.076	-0
730.255	-0.11
730.434	0.03
730.614	0.11
730.793	0.07
730.972	0.02
731.151	0.03
731.33	0.11
731.509	0.07
731.688	0.06
731.867	-0.02
732.046	-0.05
732.225	0.2
732.404	-0.05
732.583	-0.08
732.762	0.07
732.941	0.03
733.12	-0.02
733.298	-0.13
733.477	0.18
733.656	-0.04
733.835	0
734.014	0.09
734.193	0.06
734.371	0.08
734.55	0.06
734.729	-0.03
734.908	0
735.086	0.06
735.265	0.1
735.444	-0.2
735.623	-0.08
735.801	-0.06
735.98	0.08
736.159	-0.08
736.337	0.02
736.516	0.05
736.694	0.03
736.873	0.03
737.052	0.19
737.23	0.16
737.409	0.02
737.587	0.18
737.766	-0.07
737.944	0.05
738.123	0.14
738.301	0.06
738.479	-0.07
738.658	0.16
738.836	-0.11
739.015	0.15
739.193	0.16
739.371	-0.16
739.55	-0.11
739.728	-0.05
739.906	0.13
740.085	0.12
740.263	0.1
740.441	-0.16
740.62	0.15
740.798	0.19
740.976	-0.16
741.154	-0.02
741.332	0.17
741.511	0.07
741.689	-0
741.867	0.04
742.045	0.17
742.223	-0.02
742.401	-0.03
742.579	-0
742.757	0.07
742.935	-0.06
743.114	0.01
743.292	-0.04
743.47	-0.03
743.648	0.1
743.826	0.05
744.004	0.1
744.181	0.12
744.359	-0.03
744.537	0
744.715	0.03
744.893	0
745.071	0.11
745.249	-0.07
745.427	-0.02
745.605	0.1
745.782	0.13
745.96	0.14
746.138	0.04
746.316	0.19
746.493	0.02
746.671	-0
746.849	0.06
747.027	0.12
747.204	-0.01
747.382	0.08
747.56	-0.11
747.737	-0
747.915	0.01
748.093	0.08
748.27	-0.08
748.448	-0
748.625	-0.14
748.803	-0.1
748.98	-0.04
749.158	0.04
749.335	0.09
749.513	0.01
749.69	0.05
749.868	0.05
750.045	0.13
750.223	0.03
750.4	-0.1
750.578	0.24
750.755	-0.01
750.932	-0.13
751.11	0.08
751.287	-0.14
751.464	0.13
751.642	-0.07
751.819	0.08
751.996	0.1
752.173	-0.11
752.351	-0.03
752.528	0.03
752.705	-0.02
752.882	-0.07
753.06	0.1
753.237	0.09
753.414	0.13
753.591	0.13
753.768	-0.01
753.945	-0.05
754.122	-0.09
754.299	0.1
754.476	-0.09
754.654	-0
754.831	0.1
755.008	0.12
755.185	-0.01
755.362	-0.11
755.539	0.09
755.716	-0.03
755.892	0.03
756.069	0.02
756.246	0.05
756.423	-0.05
756.6	0.2
756.777	0.01
756.954	0.07
757.131	0.07
757.307	-0.11
757.484	-0.13
757.661	-0.08
757.838	0.08
758.015	-0.13
758.191	0.09
758.368	-0.03
758.545	0.2
758.721	0.1
758.898	-0.08
759.075	0.05
759.251	0.1
759.428	0.02
759.605	-0.02
759.781	0.06
759.958	0.05
760.134	0.02
760.311	0.04
760.488	0.24
760.664	0.08
760.841	0.05
761.017	0.01
761.194	0.07
761.37	0.1
761.547	-0.02
761.723	0.03
761.899	0.17
762.076	-0.09
762.252	-0.13
762.429	-0.01
762.605	0.09
762.781	-0.02
762.958	0.14
763.134	0.13
763.31	-0.08
763.486	0.18
763.663	-0.18
763.839	0.07
764.015	-0.24
764.191	-0.11
764.368	0.01
764.544	-0.16
764.72	0.02
764.896	0.18
765.072	0.13
765.248	-0.01
765.425	-0.06
765.601	0.01
765.777	0.11
765.953	-0.17
766.129	-0.15
766.305	-0.01
766.481	0.06
766.657	0.12
766.833	0.28
767.009	-0.1
767.185	0.03
767.361	0.09
767.537	-0.18
767.713	0.15
767.889	-0.01
768.065	-0.05
768.24	-0.09
768.416	0.18
768.592	-0.07
768.768	-0.06
768.944	0.02
769.12	-0.06
769.295	-0.07
769.471	-0.03
769.647	0.04
769.823	0.28
769.998	-0.05
770.174	0.02
770.35	0.29
770.525	0.33
770.701	0.18
770.877	-0.09
771.052	-0.11
771.228	0.19
771.403	0.04
771.579	0.14
771.755	0.21
771.93	0.02
772.106	0
772.281	-0.17
772.457	0.02
772.632	0.07
772.808	-0.17
772.983	-0.04
773.159	-0.07
773.334	0.23
773.509	-0.01
773.685	-0.04
773.86	0.41
774.036	0.09
774.211	0.06
774.386	-0.09
774.562	0.02
774.737	0.08
774.912	-0.07
775.087	0.08
775.263	-0.01
775.438	-0.05
775.613	-0.14
775.788	0.05
775.964	0.22
776.139	0.42
776.314	-0.24
776.489	0.2
776.664	0.12
776.839	-0.17
777.014	0.08
777.19	0.16
777.365	0.35
777.54	0.26
777.715	-0.18
777.89	0.05
778.065	-0.02
778.24	0.09
778.415	0.15
778.59	-0.15
778.765	-0.05
778.94	0
779.115	0.09
779.289	-0.1
779.464	-0.11
779.639	0.06
779.814	-0.17
779.989	-0.15
780.164	0.1
780.339	0.08
780.513	-0.08
780.688	-0.11
780.863	0.21
781.038	0.2
781.212	-0.11
781.387	0.15
781.562	0.46
781.737	-0.01
781.911	0.34
782.086	-0.19
782.261	0.09
782.435	0.28
782.61	0.06
782.784	0.12
782.959	0.17
783.134	-0.06
783.308	-0.11
783.483	-0.12
783.657	0.38
783.832	0.16
784.006	-0.43
784.181	-0.19
784.355	0.32
784.53	-0.3
784.704	-0.19
784.878	0.15
785.053	0.12
785.227	0.35
785.402	0.28
785.576	-0.18
785.75	0.04
785.925	0.13
786.099	0
786.273	0.07
786.448	0.02
786.622	0.23
786.796	-0.19
786.97	-0.02
787.145	0.56
787.319	-0.11
787.493	-0.01
787.667	-0.31
787.841	0.04
788.015	-0.03
788.19	-0.11
788.364	0.12
788.538	0.01
788.712	0.16
788.886	-0.16
789.06	0.26
789.234	0.2
789.408	-0.3
789.582	0.07
789.756	-0.08
789.93	0.03
790.104	-0.08
790.278	-0.09
790.452	-0.05
790.626	0.08
790.8	-0.09
790.973	0.25
791.147	0.26
791.321	0.44
791.495	0.49
791.669	-0.03
791.843	-0.03
792.016	0.08
792.19	0.25
792.364	-0.21
792.538	0.54
792.711	0.45
792.885	0.14
793.059	-0.21
793.233	-0.22
793.406	0.16
793.58	0.05
793.754	0.06
793.927	-0
794.101	0.3
794.274	0.01
794.448	-0.03
794.622	-0.2
794.795	0.37
794.969	-0.17
795.142	0.37
795.316	0.06
795.489	-0.14
795.663	0.47
795.836	-0.01
796.009	-0.14
796.183	0.52
796.356	0.09
796.53	0.13
796.703	-0.02
796.876	0.44
797.05	-0.05
797.223	0.17
797.396	-0.01
797.57	0.18
797.743	0.15
797.916	0.32
798.09	0.13
798.263	0.37
798.436	0.11
798.609	0.1
798.782	-0.17
798.956	0.2
799.129	0.06
799.302	-0.04
799.475	-0.19
799.648	0.07
799.821	-0.33
799.994	0.05
800.167	-0.35
800.34	0.04
800.514	0.11
800.687	-0.17
800.86	-0.09
801.033	0.2
801.206	0.04
801.379	-0.4
801.551	0.46
801.724	0.36
801.897	0.57
802.07	-0.25
802.243	-0.52
802.416	-0.25
802.589	-0.04
802.762	-0.03
802.935	-0.06
803.107	0.34
803.28	0.39
803.453	0.26
803.626	-0.09
803.798	0.07
803.971	-0.38
804.144	-0.1
804.317	0.18
804.489	0.23
804.662	-0.35
804.835	0.13
805.007	-0.15
805.18	0.36
805.353	0.31
805.525	-0.31
805.698	-0.37
805.87	0.08
806.043	0.45
806.215	-0.19
806.388	-0.52
806.56	0.01
806.733	0.29
806.905	-0.09
807.078	-0.39
807.25	-0.3
807.423	0.1
807.595	-0.02
807.768	0.05
807.94	0.52
808.112	0.32
808.285	0.01
808.457	-0.22
808.629	0.37
808.802	0.17
808.974	-0.03
809.146	-0.29
809.318	-0.52
809.491	0.32
809.663	0.3
809.835	-0.42
810.007	0.17
810.18	0.33
810.352	-0.26
810.524	0.01
810.696	0.33
810.868	0.38
811.04	0.01
811.212	-0.15
811.384	0.18
811.556	-0.12
811.728	-0.42
811.901	0.8
812.073	0.11
812.245	0.1
812.417	0.19
812.589	-0.8
812.76	0.07
812.932	0.59
813.104	0.43
813.276	0.17
813.448	0.45
813.62	0.31
813.792	0.23
813.964	-0.03
814.136	0.25
814.307	0.18
814.479	-0.05
814.651	-0.06
814.823	1.02
814.995	0.02
815.166	0.22
815.338	-0.32
815.51	-0.43
815.681	0.95
815.853	-0.2
816.025	-0.1
816.196	0.4
816.368	0.75
816.54	-0.48
816.711	0.31
816.883	0.52
817.054	0.82
817.226	-0.76
817.398	0.11
817.569	-0.23
817.741	0.39
817.912	-0.06
818.084	0.27
818.255	0.33
818.426	-0.57
818.598	0.08
818.769	-0.18
818.941	-0.2
819.112	0.6
819.283	0.36
819.455	-0.46
819.626	0.47
819.798	0.21
819.969	0.24
820.14	-0.18
820.311	-0.45
820.483	0.18
820.654	0.17
820.825	-0
820.996	-0.37
821.168	-0.23
821.339	-0.13
821.51	-0.3
821.681	0.09
821.852	0.06
822.023	-0.48
822.195	-0.68
822.366	0.6
822.537	-0.08
822.708	0.04
822.879	-0.42
823.05	0.5
823.221	-0.23
823.392	-0.04
823.563	0.65
823.734	-0.22
823.905	-0.08
824.076	-0.53
824.247	-0.27
824.418	0.14
824.589	0.83
824.759	-0.33
824.93	-0.01
825.101	-0.38
825.272	0.59
825.443	0.25
825.614	0.04
825.784	-0.82
825.955	1.13
826.126	-0.1
826.297	-0.31
826.467	1.06
826.638	0.64
826.809	-0.79
826.98	0.11
827.15	0.68
827.321	0.14
827.492	1.07
827.662	0.03
827.833	0.97
828.003	1.11
828.174	-0.54
828.345	-0.98
828.515	0.65
828.686	0.65
828.856	-0.22
829.027	-0.05
829.197	0.31
829.368	0.3
829.538	-0.35
829.709	-0.5
829.879	-0.02
830.049	-0.03
830.22	-0.62
830.39	0.38
830.56	0.89
830.731	-0.43
830.901	-0.57
831.072	-0.13
831.242	0.37
831.412	0.29
831.582	0.3
831.753	-0.95
831.923	1.22
832.093	-0.15
832.263	-0.16
832.434	-0.2
832.604	-0.05
832.774	0.32
832.944	0.05
833.114	-0.17
833.284	-0.07
833.454	-0.34
833.624	-0.42
833.795	-0.36
833.965	0.83
834.135	1.38
834.305	-0.92
834.475	-0.52
834.645	-0.21
834.815	0.33
834.985	-0.07
835.155	-0.3
835.325	0.7
835.494	0.4
835.664	-0.15
835.834	-0.55
836.004	0.29
836.174	0.7
836.344	-0.24
836.514	-0.82
836.684	-0.36
836.853	0.51
837.023	0.29
837.193	-0.04
837.363	0.68
837.532	0.53
837.702	-0.12
837.872	-0.31
838.041	0.59
838.211	1.46
838.381	-1.03
838.55	0.27
838.72	2.06
838.89	1.08
839.059	0.07
839.229	-0.66
839.398	1.37
839.568	-0.33
839.738	-0.56
839.907	1.32
840.077	0.75
840.246	-0.29
840.416	-0.7
840.585	-0.78
840.755	0.83
840.924	1.18
841.093	-0.72
841.263	-0.06
841.432	0.01
841.602	-0.33
841.771	-0.44
841.94	-0.31
842.11	2.11
842.279	1.91
842.448	-0.88
842.617	-0.89
842.787	0.81
842.956	-0.65
843.125	-0.12
843.294	-0.13
843.464	1.42
843.633	-0.23
843.802	-0.62
843.971	-0.3
844.14	0.71
844.309	0.33
844.479	-0.6
844.648	-0.59
844.817	-1.08
844.986	0.34
845.155	-0.41
845.324	-0.77
845.493	0.5
845.662	-0.92
845.831	1.24
846	-0.07
846.169	-0.45
846.338	2.04
846.507	0.9
846.676	0.41
846.844	0.64
847.013	0.33
847.182	0.37
847.351	0.01
847.52	-0.27
847.689	0.85
847.858	0.09
848.026	-0.33
848.195	0.45
848.364	0.19
848.533	-0.64
848.701	-0.23
848.87	0.31
849.039	1.52
849.207	0.9
849.376	1.79
849.545	1.51
849.713	-0.64
849.882	-0.46
850.051	-0.25
850.219	-0.41
850.388	1.09
850.556	0.03
850.725	-0.72
850.893	0.8
851.062	-0.57
851.23	1.19
851.399	-0.76
851.567	-0.83
851.736	-0.2
851.904	-0.35
852.073	0.2
852.241	0.31
852.41	-0.06
852.578	-0.08
852.746	-0.73
852.915	0.29
853.083	0.29
853.251	-0.86
853.42	-0.22
853.588	-0.72
853.756	0.47
853.924	0.76
854.093	0.04
854.261	-0.18
854.429	-1.18
854.597	0.32
854.765	-2.01
854.934	-0.12
855.102	0.23
855.27	0.23
855.438	0.62
855.606	0.7
855.774	1.47
855.942	-0.18
856.11	-1.68
856.278	-0.19
856.446	1.99
856.614	0.04
856.782	-0.88
856.95	1.11
857.118	1.56
857.286	0.36
857.454	-1.39
857.622	0.55
857.79	1.12
857.958	-1.07
858.126	-0.47
858.294	-2.48
858.462	-1.35
858.629	0.03
858.797	-0.96
858.965	-0.29
859.133	-0.3
859.301	-0.36
859.468	0.16
859.636	-0.55
859.804	2.02
859.971	0.92
860.139	-1.79
860.307	0.79
860.474	0.32
860.642	0.54
860.81	-0.52
860.977	-1.03
861.145	2.07
861.313	-0.56
861.48	-0.05
861.648	1.28
861.815	-0.57
861.983	-0.75
862.15	-0.41
862.318	0.58
862.485	0.78
862.653	-2.03
862.82	-0.62
862.988	2.16
863.155	2.22
863.322	-1
863.49	-1.27
863.657	-0.37
863.824	1.23
863.992	0.62
864.159	0.43
864.326	1.19
864.494	0.55
864.661	2.71
864.828	-1.36
864.996	1.79
865.163	0.05
865.33	-0.63
865.497	-2.08
865.664	-1.44
865.832	-1.06
865.999	-1.36
866.166	-0.39
866.333	-0.78
866.5	-1.13
866.667	-1.47
866.834	-1.08
867.001	1.25
867.168	-2.59
867.335	-0.21
867.502	-1.56
867.669	0.35
867.836	1.23
868.003	1.14
868.17	1.13
868.337	-0
868.504	1.52
868.671	-1.84
868.838	-1.76
869.005	1.99
869.172	-0.13
869.339	0.67
869.505	-0.35
869.672	-0.65
869.839	1.43
870.006	-0.63
870.173	-1.78
870.339	1.43
870.506	2.67
870.673	-1.42
870.84	0.58
871.006	-1.16
871.173	-0.83
871.34	1.04
871.506	-1.8
871.673	1.15
871.839	-2.89
872.006	-0.36
872.173	-0.05
872.339	1.05
872.506	1.92
872.672	-1.85
872.839	-2.13
873.005	0.95
873.172	2.73
873.338	3.9
873.505	-0.29
873.671	0.99
873.838	1
874.004	-2.47
874.171	-0.34
874.337	-0.35
874.503	1.05
874.67	0.32
874.836	-0.68
875.002	4.02
875.169	0.76
875.335	0.17
875.501	0.65
875.668	1.32
875.834	-0.09
876	-0.57
876.166	2.27
876.332	1.77
876.499	3.59
876.665	-0.73
876.831	-1.03
876.997	3.16
877.163	-0.79
877.329	0.69
877.495	0.4
877.662	2.03
877.828	0.69
877.994	-0.48
878.16	-2.94
878.326	-1.41
878.492	0.81
878.658	-1.1
878.824	1.3
878.99	0.29
879.156	-1.21
879.322	4.03
879.487	0.22
879.653	1.6
879.819	-0.32
879.985	-1.58
880.151	0.86
880.317	-1.35
880.483	0.67
880.648	1.06
880.814	-3.47
880.98	1.07
881.146	-2.11
881.312	-0.4
881.477	-1.15
881.643	1.37
881.809	1.67
881.974	1.52
882.14	-3.18
882.306	1.11
882.471	3.86
882.637	-2.46
882.803	0.8
882.968	2.41
883.134	3.49
883.299	-0.38
883.465	-1.27
883.63	2.57
883.796	1.32
883.961	-0.42
884.127	0.03
884.292	-4.83
884.458	-3.34
884.623	-3.34
