Data from Apollo_Calib_20240827__AbsoluteIrradiance__712__11-01-02-338.txt Node

Date: Wed Aug 28 11:01:02 BST 2024
User: biology
Spectrometer: FLMT08252
Trigger mode: 0
Integration Time (sec): 5.000000E-1
Scans to average: 5
Electric dark correction enabled: true
Nonlinearity correction enabled: false
Boxcar width: 0
XAxis mode: Wavelengths
Number of Pixels in Spectrum: 3648
>>>>>Begin Spectral Data<<<<<
179.588	-0
179.809	-0
180.03	-0
180.251	-0
180.473	-0
180.694	0
180.915	0
181.136	-0
181.357	0
181.578	-0
181.799	-0
182.02	-0
182.241	0
182.462	-0
182.683	0
182.904	-0
183.125	0
183.346	0
183.567	0
183.788	-0
184.009	-0
184.23	0
184.451	0
184.672	-0
184.892	-0
185.113	0
185.334	0
185.555	-0
185.776	-0
185.996	0
186.217	0
186.438	0
186.659	-0
186.879	0
187.1	-0
187.321	-0
187.541	-0
187.762	0
187.983	-0
188.203	0
188.424	-0
188.644	-0
188.865	0
189.086	-0
189.306	-0
189.527	-0
189.747	0
189.968	-0
190.188	0
190.409	0
190.629	0
190.849	-0
191.07	-0
191.29	0
191.511	0
191.731	-0
191.951	-0
192.172	-0
192.392	-0
192.612	0
192.833	-0
193.053	0
193.273	0
193.493	-0
193.714	-0
193.934	0
194.154	0
194.374	0
194.594	0
194.815	0
195.035	0
195.255	0
195.475	-0
195.695	0
195.915	0
196.135	0
196.355	0
196.575	0
196.795	0
197.015	-0
197.235	-0
197.455	-0
197.675	0
197.895	-0
198.115	-0
198.335	0
198.555	-0
198.775	0
198.995	0
199.214	0
199.434	0
199.654	-0
199.874	-0
200.094	0.89
200.313	0.38
200.533	-0.18
200.753	-0.77
200.973	0.97
201.192	0.18
201.412	-0.7
201.632	-0.09
201.851	0.97
202.071	-0.4
202.291	-0.32
202.51	-0.7
202.73	0.24
202.95	-0.1
203.169	-0.37
203.389	-0.06
203.608	0.07
203.828	-0.41
204.047	-0.42
204.267	0.5
204.486	-0.02
204.706	0.24
204.925	-0.07
205.145	0.03
205.364	0.62
205.583	0.55
205.803	-0.52
206.022	-0.33
206.242	-0.08
206.461	-0.02
206.68	-0.07
206.9	0.09
207.119	0.61
207.338	0.68
207.557	-0.28
207.777	0.05
207.996	-0.08
208.215	0.48
208.434	-0.12
208.654	-0.27
208.873	-0.01
209.092	0.17
209.311	-0.36
209.53	0.17
209.749	-0.14
209.968	-0.24
210.187	0.14
210.407	-0.17
210.626	0.03
210.845	0.2
211.064	0.13
211.283	-0.25
211.502	0.14
211.721	0.25
211.94	-0.26
212.159	0.29
212.377	0.22
212.596	0.39
212.815	0.13
213.034	0.28
213.253	0.37
213.472	0.18
213.691	-0.38
213.91	-0.52
214.128	-0.25
214.347	0.38
214.566	-0.4
214.785	-0.17
215.003	0.33
215.222	0.02
215.441	-0.05
215.66	-0.31
215.878	0.16
216.097	0.23
216.316	-0.26
216.534	-0.06
216.753	-0.02
216.972	-0.01
217.19	-0.13
217.409	-0.19
217.627	0.03
217.846	-0.2
218.064	0.02
218.283	-0.01
218.501	0.34
218.72	0.14
218.938	-0.11
219.157	-0.15
219.375	0.07
219.594	0.1
219.812	-0.19
220.031	-0.04
220.249	0.38
220.467	0.29
220.686	-0.13
220.904	-0.31
221.122	-0.19
221.341	0.55
221.559	-0.07
221.777	-0.13
221.995	-0.01
222.214	0.17
222.432	-0.03
222.65	0.11
222.868	0.05
223.086	0.13
223.305	0.04
223.523	-0.01
223.741	0.37
223.959	-0.13
224.177	-0.23
224.395	-0.11
224.613	-0
224.831	0.19
225.049	-0.25
225.267	-0.04
225.485	-0.03
225.703	-0.12
225.921	0.03
226.139	-0.13
226.357	0.14
226.575	0
226.793	-0.05
227.011	0.49
227.229	0.13
227.447	0.15
227.665	0.09
227.883	-0.31
228.1	0.13
228.318	0.08
228.536	-0.26
228.754	-0.16
228.972	0.11
229.189	0.08
229.407	-0.12
229.625	-0.09
229.843	0.12
230.06	0.11
230.278	-0.03
230.496	0.02
230.713	0.04
230.931	0.24
231.149	-0.07
231.366	-0.17
231.584	0
231.801	0.28
232.019	-0.06
232.236	-0.15
232.454	-0.09
232.671	0.05
232.889	0.09
233.106	-0.17
233.324	-0.1
233.541	-0.11
233.759	-0.05
233.976	-0.09
234.194	0.09
234.411	0.03
234.628	-0.07
234.846	-0.06
235.063	-0.02
235.28	-0.06
235.498	-0.02
235.715	-0.17
235.932	0.1
236.149	-0.03
236.367	-0.02
236.584	0.08
236.801	-0.19
237.018	0.05
237.236	0.02
237.453	-0.12
237.67	0.17
237.887	-0.03
238.104	0.02
238.321	-0.09
238.538	-0.07
238.755	0.19
238.973	-0.18
239.19	-0.01
239.407	-0.07
239.624	-0.01
239.841	-0.08
240.058	-0.08
240.275	0.06
240.492	-0.05
240.709	0.01
240.925	-0
241.142	0.02
241.359	-0.08
241.576	-0.11
241.793	-0.14
242.01	-0.13
242.227	0.15
242.444	0.04
242.66	0.03
242.877	-0
243.094	-0.06
243.311	0.06
243.527	-0.05
243.744	0.02
243.961	0.09
244.178	-0.14
244.394	0.02
244.611	0.12
244.828	0.17
245.044	-0.1
245.261	0.01
245.477	0.05
245.694	0.06
245.911	-0.03
246.127	-0
246.344	0.12
246.56	0.01
246.777	-0.04
246.993	-0.01
247.21	0.08
247.426	-0.01
247.643	-0.05
247.859	-0.09
248.076	0.02
248.292	0.16
248.508	-0.05
248.725	0.02
248.941	0.04
249.157	0.11
249.374	-0.01
249.59	-0.02
249.806	-0
250.023	0.06
250.239	-0.09
250.455	-0.07
250.671	0.03
250.888	0.1
251.104	-0.01
251.32	-0.04
251.536	-0.07
251.752	-0.01
251.969	0.01
252.185	0.01
252.401	0.17
252.617	0.01
252.833	-0
253.049	-0.05
253.265	0.01
253.481	0.06
253.697	0.02
253.913	-0.06
254.129	0
254.345	0.08
254.561	-0.05
254.777	-0.01
254.993	0.1
255.209	0.01
255.425	-0.08
255.641	-0.02
255.857	0.04
256.073	0.05
256.288	-0.1
256.504	-0.03
256.72	0.05
256.936	0.11
257.152	-0.01
257.367	-0.04
257.583	0.01
257.799	0.07
258.015	-0.11
258.23	-0.08
258.446	0.06
258.662	-0.01
258.877	-0.06
259.093	-0.11
259.309	0.02
259.524	0
259.74	-0.07
259.955	-0.08
260.171	0.02
260.387	-0.03
260.602	0.01
260.818	0.09
261.033	-0.05
261.249	0.01
261.464	-0.02
261.68	-0.16
261.895	-0.01
262.11	0.03
262.326	-0.04
262.541	-0.04
262.757	0.08
262.972	0.09
263.187	-0.06
263.403	-0.05
263.618	0.07
263.833	-0.02
264.049	-0.05
264.264	-0.04
264.479	-0.02
264.694	0.12
264.91	-0.04
265.125	0.01
265.34	0.09
265.555	0.13
265.77	0.03
265.986	-0
266.201	0.06
266.416	0.07
266.631	-0.09
266.846	-0.03
267.061	0.03
267.276	0.12
267.491	-0.04
267.706	0.11
267.921	0.06
268.136	-0.01
268.351	-0.02
268.566	-0.06
268.781	0.08
268.996	0.12
269.211	-0.01
269.426	-0.09
269.641	0.02
269.856	0.08
270.071	0
270.285	-0.07
270.5	0.06
270.715	0.12
270.93	-0
271.145	-0.02
271.359	0.13
271.574	-0.03
271.789	-0.05
272.004	-0.08
272.218	-0.02
272.433	0.04
272.648	-0.07
272.862	0.1
273.077	-0.01
273.292	0
273.506	-0.01
273.721	-0
273.936	0.03
274.15	0.14
274.365	-0.05
274.579	0.02
274.794	0.06
275.008	0.06
275.223	-0.08
275.437	-0.05
275.652	0.07
275.866	0.07
276.081	-0
276.295	0.07
276.509	0.03
276.724	0.02
276.938	0.02
277.153	0.05
277.367	0.04
277.581	0.01
277.796	-0.01
278.01	-0.05
278.224	0.06
278.438	0.12
278.653	-0.06
278.867	-0.04
279.081	0.05
279.295	-0.01
279.51	-0.01
279.724	-0.13
279.938	0.03
280.152	0.06
280.366	-0.05
280.58	0
280.794	0.07
281.008	-0.01
281.222	0.06
281.437	0.14
281.651	0.07
281.865	0.04
282.079	0.03
282.293	-0.05
282.507	-0.06
282.721	0.02
282.935	0.01
283.148	-0.1
283.362	0.02
283.576	-0.03
283.79	0.02
284.004	-0.03
284.218	0.1
284.432	-0.05
284.646	-0.01
284.859	-0
285.073	-0.01
285.287	0.06
285.501	0.04
285.714	0.01
285.928	0.06
286.142	0.01
286.356	-0.01
286.569	-0.03
286.783	0.05
286.997	0.02
287.21	0.02
287.424	-0
287.637	0.01
287.851	0.05
288.065	0.07
288.278	-0.05
288.492	0.01
288.705	0.02
288.919	0.04
289.132	-0.05
289.346	0.04
289.559	-0.09
289.773	-0.06
289.986	0.01
290.2	0.02
290.413	0.02
290.626	-0.08
290.84	-0.04
291.053	0.03
291.267	0.07
291.48	0
291.693	-0
291.906	-0.07
292.12	-0.04
292.333	-0.03
292.546	-0.01
292.76	0.08
292.973	0.02
293.186	0.06
293.399	0.02
293.612	0.1
293.826	-0
294.039	-0.01
294.252	0.01
294.465	0.01
294.678	0.02
294.891	0.04
295.104	-0.04
295.317	-0.01
295.53	0.03
295.743	0.02
295.956	0.01
296.169	0.08
296.382	0.02
296.595	0.04
296.808	-0.01
297.021	0.02
297.234	0.02
297.447	0.02
297.66	0.04
297.873	0.06
298.086	0.03
298.299	-0.05
298.511	-0.02
298.724	-0.03
298.937	-0.06
299.15	0.01
299.363	0.02
299.575	0.05
299.788	0.02
300.001	-0.02
300.213	-0.06
300.426	-0
300.639	0
300.852	-0.04
301.064	0.08
301.277	0.08
301.489	0.05
301.702	0.04
301.915	-0.03
302.127	-0.02
302.34	0.02
302.552	0.09
302.765	0.02
302.977	0.06
303.19	-0.07
303.402	0.02
303.615	0.02
303.827	-0.02
304.04	0.01
304.252	0.06
304.464	-0.04
304.677	0.09
304.889	0.05
305.102	-0.03
305.314	0.01
305.526	0.05
305.739	0.03
305.951	-0.02
306.163	-0.01
306.375	0.15
306.588	0.01
306.8	-0.05
307.012	-0.05
307.224	0
307.436	0.13
307.649	-0.08
307.861	0
308.073	0.02
308.285	0.03
308.497	-0.01
308.709	0
308.921	0.01
309.133	0.08
309.346	0.01
309.558	0.02
309.77	0.02
309.982	0.06
310.194	0.03
310.406	-0.05
310.617	0.07
310.829	0.04
311.041	0.06
311.253	-0.01
311.465	-0.03
311.677	0.05
311.889	0.01
312.101	-0.05
312.313	0.07
312.524	0.06
312.736	-0.05
312.948	-0
313.16	0.07
313.372	0.04
313.583	0.02
313.795	0.01
314.007	-0.01
314.218	0.04
314.43	-0.03
314.642	-0.04
314.853	-0.02
315.065	0.04
315.277	0.02
315.488	0.03
315.7	0.07
315.912	-0
316.123	-0.01
316.335	0.03
316.546	0.09
316.758	-0.04
316.969	-0.03
317.181	0
317.392	-0.03
317.604	0.05
317.815	-0.05
318.026	-0.02
318.238	-0
318.449	0.03
318.661	-0.06
318.872	-0.03
319.083	-0.03
319.295	0.04
319.506	0.02
319.717	0.06
319.929	0.01
320.14	0.03
320.351	0.02
320.562	-0.02
320.774	-0
320.985	0.01
321.196	-0.05
321.407	-0.02
321.618	0.04
321.829	0.03
322.041	0.02
322.252	0.05
322.463	-0.01
322.674	-0.02
322.885	0
323.096	-0.03
323.307	-0
323.518	0.01
323.729	-0.07
323.94	-0.01
324.151	-0.01
324.362	0.04
324.573	0.02
324.784	-0.02
324.995	0.05
325.206	0.01
325.417	-0.04
325.628	-0.01
325.838	0.03
326.049	0.02
326.26	0.08
326.471	-0.01
326.682	0.02
326.892	-0.02
327.103	-0.06
327.314	-0.04
327.525	0.09
327.735	0.01
327.946	-0.03
328.157	-0
328.368	0.03
328.578	-0.02
328.789	0.07
328.999	0.06
329.21	-0.02
329.421	0.05
329.631	0
329.842	-0.02
330.052	0.04
330.263	0.03
330.473	0.06
330.684	-0.01
330.894	0
331.105	0
331.315	0.01
331.526	-0.12
331.736	0.04
331.947	0.04
332.157	0.05
332.367	-0.01
332.578	0.03
332.788	-0.01
332.999	0.02
333.209	-0.01
333.419	-0.04
333.629	0.03
333.84	0.06
334.05	-0.01
334.26	0.09
334.47	-0
334.681	0.06
334.891	0.01
335.101	0.05
335.311	0.04
335.521	-0.02
335.732	-0.04
335.942	0.09
336.152	0.03
336.362	-0.01
336.572	-0.02
336.782	0.05
336.992	0.02
337.202	0.01
337.412	-0.04
337.622	0.06
337.832	0.02
338.042	0.01
338.252	-0.03
338.462	0.01
338.672	0.01
338.882	0.01
339.092	-0
339.302	0.12
339.511	0.04
339.721	0.01
339.931	-0.01
340.141	0.04
340.351	0.05
340.561	0.03
340.77	0.01
340.98	0.01
341.19	0.02
341.4	-0.03
341.609	-0.04
341.819	-0.02
342.029	-0.05
342.238	0.03
342.448	-0.01
342.658	0.08
342.867	-0.01
343.077	0.05
343.286	-0.02
343.496	0.01
343.706	0.07
343.915	-0.05
344.125	0.03
344.334	0.06
344.544	-0.06
344.753	0
344.963	0.01
345.172	0.02
345.381	0.01
345.591	-0.04
345.8	0.03
346.01	0.03
346.219	0.07
346.428	-0.13
346.638	-0.02
346.847	-0.02
347.056	0.05
347.266	-0.01
347.475	0.01
347.684	0.03
347.893	0.04
348.103	0.02
348.312	0.01
348.521	0.02
348.73	0.02
348.94	-0.01
349.149	-0.03
349.358	-0.01
349.567	-0.02
349.776	-0.06
349.985	-0.03
350.194	0.08
350.403	0.03
350.612	-0.04
350.821	0.02
351.03	0.02
351.239	-0.04
351.448	0.01
351.657	-0.01
351.866	0.09
352.075	0
352.284	0.03
352.493	-0.05
352.702	0.09
352.911	0.05
353.12	0.02
353.329	0.01
353.538	0.01
353.746	0.03
353.955	-0.01
354.164	0.05
354.373	0.01
354.582	0.04
354.79	0.05
354.999	0.04
355.208	-0
355.416	0.05
355.625	-0.06
355.834	-0.04
356.042	0.02
356.251	-0.05
356.46	-0.02
356.668	0.03
356.877	0.05
357.085	0.04
357.294	-0.09
357.503	0.02
357.711	0.01
357.92	0.11
358.128	0
358.337	-0.02
358.545	0.02
358.754	-0.05
358.962	0.05
359.17	-0.04
359.379	0.02
359.587	0.04
359.796	0.02
360.004	0.03
360.212	0.03
360.421	0.02
360.629	0.02
360.837	0
361.046	0.06
361.254	0.13
361.462	0
361.67	-0.02
361.879	0.04
362.087	0.08
362.295	0.02
362.503	-0
362.711	-0.03
362.92	-0.03
363.128	0
363.336	-0
363.544	-0.1
363.752	-0.06
363.96	-0.02
364.168	-0.04
364.376	0.02
364.584	-0
364.792	0.06
365	0.02
365.208	-0.01
365.416	-0.04
365.624	0.06
365.832	-0.01
366.04	0.07
366.248	0.02
366.456	0.03
366.664	-0.01
366.872	0.04
367.079	0.08
367.287	0.03
367.495	0.06
367.703	-0.02
367.911	-0.05
368.118	-0.01
368.326	-0.01
368.534	-0.03
368.742	0.1
368.949	-0.07
369.157	0.02
369.365	0.05
369.572	-0.01
369.78	-0.04
369.988	0.01
370.195	0.02
370.403	0.01
370.61	0.01
370.818	0.01
371.026	0.07
371.233	-0.01
371.441	0.02
371.648	-0.01
371.856	0.03
372.063	-0.01
372.271	-0
372.478	0.01
372.685	-0.01
372.893	0.06
373.1	-0
373.308	-0.01
373.515	0.06
373.722	0.02
373.93	-0.07
374.137	0.03
374.344	0.06
374.552	0.06
374.759	0.08
374.966	0.07
375.173	-0
375.381	0.07
375.588	0
375.795	-0.03
376.002	-0.01
376.209	0.01
376.417	0.02
376.624	0
376.831	0.03
377.038	-0.02
377.245	-0.06
377.452	-0.04
377.659	0
377.866	-0.05
378.073	-0.04
378.28	0.01
378.487	0.02
378.694	0.03
378.901	-0.01
379.108	0
379.315	0.07
379.522	0.15
379.729	0.03
379.936	-0.03
380.143	0.05
380.35	0.02
380.557	-0.01
380.763	0.01
380.97	0.04
381.177	0.04
381.384	0.05
381.591	-0.04
381.797	0.03
382.004	0.03
382.211	0.08
382.418	-0.04
382.624	0.06
382.831	0.05
383.038	0.01
383.244	-0.04
383.451	-0
383.658	0.01
383.864	0.01
384.071	-0.03
384.277	0.06
384.484	-0.04
384.69	0.03
384.897	0.02
385.103	-0.01
385.31	-0.02
385.516	-0.02
385.723	-0.05
385.929	0.01
386.136	-0
386.342	0.04
386.549	0.01
386.755	0.07
386.961	0.01
387.168	0.01
387.374	-0.04
387.58	0.05
387.787	0.03
387.993	0.02
388.199	-0.01
388.406	-0.02
388.612	0
388.818	0
389.024	-0
389.231	0.02
389.437	0.09
389.643	0.02
389.849	0.03
390.055	0.05
390.261	-0.03
390.467	0.02
390.674	-0.06
390.88	0
391.086	0.03
391.292	-0.01
391.498	0
391.704	-0.01
391.91	-0.02
392.116	0.01
392.322	-0.06
392.528	0.03
392.734	0.02
392.94	0.02
393.146	0
393.352	0
393.557	-0
393.763	-0.03
393.969	0.04
394.175	-0.01
394.381	0
394.587	-0.03
394.792	0.01
394.998	0.06
395.204	0.06
395.41	-0.05
395.615	-0.02
395.821	0
396.027	0.01
396.233	-0.01
396.438	0.04
396.644	0.04
396.85	0.06
397.055	0.03
397.261	-0.03
397.466	0.04
397.672	0.02
397.878	0.02
398.083	0
398.289	-0.04
398.494	0.04
398.7	0.07
398.905	-0.03
399.111	0.04
399.316	-0.03
399.522	0.01
399.727	0.04
399.932	-0.06
400.138	0.02
400.343	0.04
400.549	0.04
400.754	0.01
400.959	0.05
401.165	0
401.37	0.02
401.575	0.01
401.78	-0
401.986	0
402.191	-0.01
402.396	0.01
402.601	0.05
402.807	0.02
403.012	0.02
403.217	0.06
403.422	-0
403.627	0.04
403.832	-0
404.037	0.05
404.243	0.03
404.448	-0.05
404.653	0
404.858	-0
405.063	0.04
405.268	0
405.473	0
405.678	-0.02
405.883	0.17
406.088	0.02
406.293	-0
406.498	-0.03
406.703	0.05
406.907	-0.02
407.112	-0.02
407.317	-0.03
407.522	0.06
407.727	-0.08
407.932	0
408.136	0.07
408.341	0.02
408.546	0.04
408.751	0.02
408.956	-0
409.16	0.08
409.365	0.05
409.57	-0.01
409.774	0.01
409.979	0.07
410.184	0.01
410.388	-0.03
410.593	0.06
410.798	0.04
411.002	0.01
411.207	0.04
411.411	0.03
411.616	0.02
411.82	-0.02
412.025	0.03
412.229	-0
412.434	0.1
412.638	0.04
412.843	0.04
413.047	0.08
413.252	0.02
413.456	0.01
413.66	0.06
413.865	-0.04
414.069	0.11
414.273	0
414.478	0.03
414.682	0.04
414.886	0.08
415.091	-0.01
415.295	-0.06
415.499	0.05
415.703	0.05
415.908	0.1
416.112	-0.04
416.316	0.16
416.52	0.06
416.724	0
416.929	0.03
417.133	0.19
417.337	0.06
417.541	0.03
417.745	0.07
417.949	0.09
418.153	0.1
418.357	0.06
418.561	0.18
418.765	0.1
418.969	0.18
419.173	0.13
419.377	0.12
419.581	0.21
419.785	0.1
419.989	0.06
420.193	0.15
420.397	0.11
420.601	0.16
420.804	0.17
421.008	0.12
421.212	0.19
421.416	0.19
421.62	0.09
421.823	0.1
422.027	0.22
422.231	0.2
422.435	0.14
422.638	0.2
422.842	0.18
423.046	0.12
423.249	0.22
423.453	0.24
423.657	0.21
423.86	0.21
424.064	0.14
424.268	0.27
424.471	0.24
424.675	0.31
424.878	0.29
425.082	0.24
425.285	0.28
425.489	0.26
425.692	0.25
425.896	0.2
426.099	0.25
426.303	0.21
426.506	0.17
426.71	0.33
426.913	0.36
427.116	0.39
427.32	0.25
427.523	0.32
427.726	0.41
427.93	0.25
428.133	0.29
428.336	0.26
428.54	0.25
428.743	0.4
428.946	0.44
429.149	0.37
429.353	0.39
429.556	0.39
429.759	0.35
429.962	0.31
430.165	0.39
430.368	0.36
430.571	0.4
430.775	0.41
430.978	0.33
431.181	0.42
431.384	0.36
431.587	0.33
431.79	0.35
431.993	0.29
432.196	0.34
432.399	0.36
432.602	0.43
432.805	0.4
433.008	0.41
433.211	0.36
433.414	0.49
433.616	0.5
433.819	0.43
434.022	0.38
434.225	0.55
434.428	0.53
434.631	0.57
434.833	0.51
435.036	0.48
435.239	0.53
435.442	0.5
435.645	0.52
435.847	0.53
436.05	0.61
436.253	0.58
436.455	0.51
436.658	0.53
436.861	0.61
437.063	0.51
437.266	0.53
437.468	0.59
437.671	0.71
437.874	0.61
438.076	0.53
438.279	0.61
438.481	0.64
438.684	0.58
438.886	0.65
439.089	0.59
439.291	0.64
439.494	0.7
439.696	0.6
439.899	0.69
440.101	0.82
440.303	0.73
440.506	0.85
440.708	0.86
440.91	0.85
441.113	0.82
441.315	0.87
441.517	0.77
441.72	0.91
441.922	0.88
442.124	0.82
442.326	0.94
442.529	0.96
442.731	0.85
442.933	1.02
443.135	0.97
443.337	0.89
443.539	0.93
443.742	0.93
443.944	0.99
444.146	0.94
444.348	0.99
444.55	0.91
444.752	1.01
444.954	0.91
445.156	1.01
445.358	0.97
445.56	1.07
445.762	1.03
445.964	1.09
446.166	1
446.368	0.99
446.57	1.12
446.772	1.03
446.974	1.02
447.175	1.02
447.377	1.02
447.579	1
447.781	0.94
447.983	1.05
448.184	0.94
448.386	1.05
448.588	0.95
448.79	1
448.991	0.93
449.193	0.99
449.395	1.02
449.597	0.97
449.798	0.99
450	0.93
450.202	0.92
450.403	0.92
450.605	0.89
450.806	0.86
451.008	0.8
451.21	0.86
451.411	0.82
451.613	0.76
451.814	0.78
452.016	0.85
452.217	0.74
452.419	0.76
452.62	0.75
452.821	0.76
453.023	0.79
453.224	0.74
453.426	0.66
453.627	0.6
453.828	0.67
454.03	0.58
454.231	0.62
454.432	0.59
454.634	0.63
454.835	0.56
455.036	0.51
455.238	0.59
455.439	0.62
455.64	0.47
455.841	0.48
456.042	0.58
456.244	0.47
456.445	0.47
456.646	0.41
456.847	0.43
457.048	0.51
457.249	0.48
457.45	0.66
457.651	0.29
457.852	0.4
458.054	0.35
458.255	0.36
458.456	0.42
458.657	0.4
458.858	0.34
459.058	0.35
459.259	0.43
459.46	0.3
459.661	0.31
459.862	0.49
460.063	0.29
460.264	0.35
460.465	0.23
460.666	0.43
460.866	0.27
461.067	0.29
461.268	0.28
461.469	0.26
461.67	0.3
461.87	0.25
462.071	0.22
462.272	0.21
462.473	0.27
462.673	0.25
462.874	0.26
463.075	0.25
463.275	0.22
463.476	0.29
463.676	0.28
463.877	0.26
464.078	0.26
464.278	0.29
464.479	0.22
464.679	0.23
464.88	0.22
465.08	0.29
465.281	0.2
465.481	0.19
465.682	0.19
465.882	0.27
466.083	0.2
466.283	0.19
466.483	0.2
466.684	0.2
466.884	0.14
467.085	0.18
467.285	0.25
467.485	0.13
467.686	0.17
467.886	0.12
468.086	0.14
468.286	0.2
468.487	0.21
468.687	0.09
468.887	0.12
469.087	0.22
469.287	0.19
469.488	0.08
469.688	0.2
469.888	0.2
470.088	0.23
470.288	0.22
470.488	0.21
470.688	0.07
470.888	0.15
471.088	0.09
471.288	0.15
471.488	0.11
471.688	0.13
471.888	0.1
472.088	0.19
472.288	0.14
472.488	0.12
472.688	0.11
472.888	0.11
473.088	0.12
473.288	0.13
473.488	0.13
473.688	0.2
473.887	0.13
474.087	0.13
474.287	0.14
474.487	0.12
474.687	0.12
474.886	0.08
475.086	0.09
475.286	0.13
475.486	0.09
475.685	0.14
475.885	0.08
476.085	0.1
476.284	0.12
476.484	0.07
476.684	0.14
476.883	0.16
477.083	0.13
477.282	0.1
477.482	0.11
477.681	0.16
477.881	0.1
478.08	0.05
478.28	0.11
478.479	0.1
478.679	0.17
478.878	0.06
479.078	0.09
479.277	0.09
479.477	0.1
479.676	0.13
479.875	0.1
480.075	0.03
480.274	0.14
480.473	0.1
480.673	0.07
480.872	0.16
481.071	0.08
481.271	0.09
481.47	0.09
481.669	0.06
481.868	0.08
482.067	0.05
482.267	0.07
482.466	0.08
482.665	0.06
482.864	0.06
483.063	0.06
483.262	0.12
483.461	0.15
483.661	0.15
483.86	0.09
484.059	0.1
484.258	0.09
484.457	0.1
484.656	0.1
484.855	0.11
485.054	0.04
485.253	0.06
485.452	0.08
485.651	0.11
485.849	0.09
486.048	0.07
486.247	0.06
486.446	0.1
486.645	0.07
486.844	0.09
487.043	0.08
487.241	0.15
487.44	0.09
487.639	0.09
487.838	0.13
488.037	0.12
488.235	0.16
488.434	0.1
488.633	0.08
488.831	0.12
489.03	0.13
489.229	0.11
489.427	0.09
489.626	0.14
489.825	0.15
490.023	0.12
490.222	0.08
490.42	0.13
490.619	0.14
490.817	0.12
491.016	0.1
491.214	0.16
491.413	0.13
491.611	0.11
491.81	0.12
492.008	0.14
492.207	0.15
492.405	0.13
492.604	0.09
492.802	0.13
493	0.12
493.199	0.11
493.397	0.12
493.595	0.15
493.794	0.1
493.992	0.18
494.19	0.12
494.388	0.13
494.587	0.12
494.785	0.13
494.983	0.1
495.181	0.14
495.379	0.16
495.578	0.16
495.776	0.17
495.974	0.16
496.172	0.14
496.37	0.16
496.568	0.13
496.766	0.16
496.964	0.17
497.162	0.18
497.36	0.14
497.558	0.17
497.756	0.19
497.954	0.18
498.152	0.16
498.35	0.16
498.548	0.15
498.746	0.19
498.944	0.15
499.142	0.17
499.34	0.13
499.538	0.18
499.736	0.16
499.933	0.21
500.131	0.23
500.329	0.18
500.527	0.21
500.725	0.23
500.922	0.24
501.12	0.2
501.318	0.22
501.516	0.19
501.713	0.2
501.911	0.2
502.109	0.18
502.306	0.22
502.504	0.2
502.701	0.2
502.899	0.21
503.097	0.26
503.294	0.24
503.492	0.24
503.689	0.24
503.887	0.27
504.084	0.29
504.282	0.23
504.479	0.22
504.677	0.26
504.874	0.21
505.072	0.26
505.269	0.23
505.466	0.28
505.664	0.27
505.861	0.21
506.059	0.22
506.256	0.28
506.453	0.25
506.651	0.31
506.848	0.29
507.045	0.3
507.242	0.26
507.44	0.25
507.637	0.28
507.834	0.28
508.031	0.32
508.229	0.27
508.426	0.28
508.623	0.31
508.82	0.28
509.017	0.25
509.214	0.3
509.411	0.3
509.608	0.24
509.805	0.32
510.003	0.3
510.2	0.28
510.397	0.32
510.594	0.31
510.791	0.29
510.988	0.32
511.184	0.35
511.381	0.3
511.578	0.28
511.775	0.35
511.972	0.31
512.169	0.34
512.366	0.32
512.563	0.35
512.76	0.31
512.956	0.33
513.153	0.31
513.35	0.32
513.547	0.33
513.744	0.34
513.94	0.3
514.137	0.34
514.334	0.34
514.53	0.35
514.727	0.37
514.924	0.42
515.12	0.36
515.317	0.34
515.514	0.34
515.71	0.3
515.907	0.35
516.103	0.38
516.3	0.38
516.497	0.39
516.693	0.4
516.89	0.36
517.086	0.35
517.283	0.4
517.479	0.35
517.676	0.38
517.872	0.37
518.068	0.36
518.265	0.37
518.461	0.37
518.658	0.34
518.854	0.39
519.05	0.39
519.247	0.38
519.443	0.39
519.639	0.4
519.836	0.38
520.032	0.4
520.228	0.39
520.424	0.41
520.621	0.41
520.817	0.4
521.013	0.41
521.209	0.43
521.405	0.46
521.601	0.41
521.798	0.38
521.994	0.45
522.19	0.38
522.386	0.39
522.582	0.39
522.778	0.41
522.974	0.39
523.17	0.41
523.366	0.39
523.562	0.43
523.758	0.42
523.954	0.39
524.15	0.38
524.346	0.44
524.542	0.38
524.738	0.38
524.934	0.42
525.129	0.4
525.325	0.42
525.521	0.42
525.717	0.46
525.913	0.41
526.109	0.42
526.304	0.41
526.5	0.44
526.696	0.46
526.892	0.43
527.087	0.44
527.283	0.41
527.479	0.44
527.674	0.39
527.87	0.4
528.066	0.43
528.261	0.45
528.457	0.45
528.653	0.42
528.848	0.43
529.044	0.46
529.239	0.41
529.435	0.46
529.63	0.43
529.826	0.45
530.021	0.43
530.217	0.47
530.412	0.42
530.608	0.43
530.803	0.43
530.999	0.43
531.194	0.41
531.389	0.45
531.585	0.39
531.78	0.46
531.975	0.42
532.171	0.43
532.366	0.45
532.561	0.43
532.757	0.41
532.952	0.44
533.147	0.46
533.342	0.43
533.538	0.43
533.733	0.48
533.928	0.45
534.123	0.43
534.318	0.43
534.513	0.43
534.709	0.47
534.904	0.44
535.099	0.45
535.294	0.45
535.489	0.45
535.684	0.43
535.879	0.41
536.074	0.47
536.269	0.43
536.464	0.46
536.659	0.43
536.854	0.45
537.049	0.47
537.244	0.47
537.439	0.42
537.634	0.47
537.828	0.46
538.023	0.45
538.218	0.41
538.413	0.47
538.608	0.44
538.803	0.48
538.997	0.42
539.192	0.49
539.387	0.47
539.582	0.45
539.776	0.45
539.971	0.45
540.166	0.46
540.36	0.41
540.555	0.47
540.75	0.44
540.944	0.44
541.139	0.4
541.334	0.44
541.528	0.46
541.723	0.5
541.917	0.43
542.112	0.42
542.306	0.41
542.501	0.45
542.695	0.45
542.89	0.42
543.084	0.47
543.279	0.45
543.473	0.46
543.668	0.44
543.862	0.43
544.056	0.47
544.251	0.43
544.445	0.5
544.64	0.44
544.834	0.44
545.028	0.45
545.222	0.46
545.417	0.51
545.611	0.45
545.805	0.48
546	0.43
546.194	0.45
546.388	0.45
546.582	0.48
546.776	0.44
546.97	0.47
547.165	0.45
547.359	0.49
547.553	0.43
547.747	0.46
547.941	0.47
548.135	0.44
548.329	0.48
548.523	0.47
548.717	0.42
548.911	0.42
549.105	0.45
549.299	0.46
549.493	0.47
549.687	0.45
549.881	0.47
550.075	0.44
550.269	0.44
550.463	0.49
550.657	0.44
550.85	0.45
551.044	0.42
551.238	0.45
551.432	0.46
551.626	0.46
551.82	0.45
552.013	0.41
552.207	0.45
552.401	0.51
552.594	0.43
552.788	0.46
552.982	0.45
553.176	0.42
553.369	0.49
553.563	0.47
553.756	0.42
553.95	0.44
554.144	0.44
554.337	0.49
554.531	0.45
554.724	0.45
554.918	0.48
555.111	0.47
555.305	0.45
555.498	0.47
555.692	0.47
555.885	0.47
556.079	0.45
556.272	0.41
556.466	0.48
556.659	0.44
556.852	0.43
557.046	0.45
557.239	0.47
557.432	0.42
557.626	0.45
557.819	0.47
558.012	0.45
558.206	0.47
558.399	0.45
558.592	0.5
558.785	0.44
558.979	0.49
559.172	0.47
559.365	0.45
559.558	0.46
559.751	0.44
559.944	0.45
560.138	0.44
560.331	0.45
560.524	0.46
560.717	0.46
560.91	0.42
561.103	0.47
561.296	0.47
561.489	0.47
561.682	0.47
561.875	0.46
562.068	0.48
562.261	0.45
562.454	0.47
562.647	0.45
562.84	0.46
563.032	0.46
563.225	0.44
563.418	0.46
563.611	0.46
563.804	0.45
563.997	0.43
564.19	0.4
564.382	0.41
564.575	0.44
564.768	0.45
564.961	0.45
565.153	0.43
565.346	0.48
565.539	0.45
565.731	0.47
565.924	0.45
566.117	0.49
566.309	0.44
566.502	0.43
566.695	0.44
566.887	0.48
567.08	0.44
567.272	0.44
567.465	0.42
567.657	0.45
567.85	0.49
568.042	0.46
568.235	0.47
568.427	0.44
568.62	0.43
568.812	0.48
569.005	0.48
569.197	0.42
569.389	0.47
569.582	0.47
569.774	0.45
569.966	0.42
570.159	0.44
570.351	0.46
570.543	0.45
570.736	0.48
570.928	0.4
571.12	0.46
571.312	0.43
571.505	0.43
571.697	0.45
571.889	0.4
572.081	0.45
572.273	0.43
572.465	0.51
572.658	0.46
572.85	0.48
573.042	0.43
573.234	0.44
573.426	0.46
573.618	0.42
573.81	0.47
574.002	0.47
574.194	0.48
574.386	0.44
574.578	0.37
574.77	0.43
574.962	0.45
575.154	0.39
575.346	0.44
575.538	0.44
575.729	0.38
575.921	0.46
576.113	0.43
576.305	0.46
576.497	0.43
576.689	0.43
576.88	0.42
577.072	0.45
577.264	0.46
577.456	0.43
577.647	0.39
577.839	0.48
578.031	0.47
578.223	0.4
578.414	0.42
578.606	0.44
578.798	0.47
578.989	0.42
579.181	0.44
579.372	0.44
579.564	0.43
579.755	0.44
579.947	0.4
580.139	0.48
580.33	0.36
580.522	0.42
580.713	0.37
580.905	0.44
581.096	0.45
581.287	0.43
581.479	0.44
581.67	0.46
581.862	0.43
582.053	0.4
582.244	0.36
582.436	0.43
582.627	0.42
582.818	0.39
583.01	0.38
583.201	0.45
583.392	0.44
583.583	0.4
583.775	0.4
583.966	0.41
584.157	0.42
584.348	0.43
584.54	0.39
584.731	0.45
584.922	0.39
585.113	0.41
585.304	0.44
585.495	0.45
585.686	0.43
585.877	0.45
586.068	0.44
586.259	0.43
586.45	0.44
586.641	0.41
586.832	0.37
587.023	0.42
587.214	0.4
587.405	0.41
587.596	0.39
587.787	0.44
587.978	0.43
588.169	0.41
588.36	0.4
588.551	0.42
588.742	0.4
588.932	0.41
589.123	0.38
589.314	0.45
589.505	0.4
589.696	0.44
589.886	0.38
590.077	0.37
590.268	0.41
590.458	0.37
590.649	0.31
590.84	0.42
591.03	0.33
591.221	0.37
591.412	0.37
591.602	0.45
591.793	0.42
591.984	0.38
592.174	0.4
592.365	0.48
592.555	0.37
592.746	0.44
592.936	0.4
593.127	0.42
593.317	0.41
593.508	0.37
593.698	0.42
593.889	0.38
594.079	0.35
594.269	0.37
594.46	0.4
594.65	0.4
594.84	0.4
595.031	0.34
595.221	0.36
595.411	0.36
595.602	0.4
595.792	0.37
595.982	0.35
596.172	0.43
596.363	0.36
596.553	0.38
596.743	0.36
596.933	0.37
597.123	0.4
597.314	0.33
597.504	0.38
597.694	0.4
597.884	0.38
598.074	0.38
598.264	0.36
598.454	0.38
598.644	0.39
598.834	0.36
599.024	0.3
599.214	0.37
599.404	0.38
599.594	0.34
599.784	0.35
599.974	0.42
600.164	0.41
600.354	0.31
600.544	0.34
600.734	0.37
600.924	0.38
601.114	0.34
601.303	0.36
601.493	0.34
601.683	0.35
601.873	0.39
602.063	0.33
602.252	0.36
602.442	0.3
602.632	0.31
602.821	0.31
603.011	0.38
603.201	0.34
603.39	0.31
603.58	0.33
603.77	0.35
603.959	0.4
604.149	0.36
604.339	0.33
604.528	0.39
604.718	0.35
604.907	0.33
605.097	0.35
605.286	0.31
605.476	0.36
605.665	0.37
605.855	0.34
606.044	0.38
606.234	0.36
606.423	0.34
606.612	0.29
606.802	0.37
606.991	0.36
607.181	0.37
607.37	0.32
607.559	0.31
607.749	0.29
607.938	0.32
608.127	0.34
608.316	0.33
608.506	0.34
608.695	0.33
608.884	0.28
609.073	0.31
609.263	0.36
609.452	0.38
609.641	0.33
609.83	0.27
610.019	0.28
610.208	0.29
610.397	0.33
610.586	0.35
610.775	0.27
610.965	0.31
611.154	0.29
611.343	0.33
611.532	0.3
611.721	0.32
611.91	0.28
612.099	0.33
612.287	0.29
612.476	0.26
612.665	0.31
612.854	0.28
613.043	0.35
613.232	0.32
613.421	0.27
613.61	0.31
613.798	0.27
613.987	0.31
614.176	0.32
614.365	0.34
614.554	0.33
614.742	0.34
614.931	0.27
615.12	0.29
615.309	0.25
615.497	0.33
615.686	0.24
615.875	0.29
616.063	0.27
616.252	0.26
616.44	0.27
616.629	0.32
616.818	0.33
617.006	0.28
617.195	0.23
617.383	0.31
617.572	0.27
617.76	0.27
617.949	0.25
618.137	0.29
618.326	0.29
618.514	0.26
618.703	0.24
618.891	0.33
619.079	0.21
619.268	0.28
619.456	0.24
619.644	0.32
619.833	0.27
620.021	0.23
620.209	0.2
620.398	0.27
620.586	0.27
620.774	0.29
620.962	0.25
621.151	0.32
621.339	0.26
621.527	0.21
621.715	0.21
621.903	0.24
622.092	0.22
622.28	0.3
622.468	0.26
622.656	0.26
622.844	0.22
623.032	0.24
623.22	0.18
623.408	0.29
623.596	0.25
623.784	0.28
623.972	0.22
624.16	0.25
624.348	0.29
624.536	0.22
624.724	0.23
624.912	0.27
625.1	0.28
625.288	0.22
625.476	0.23
625.664	0.27
625.851	0.2
626.039	0.26
626.227	0.27
626.415	0.22
626.603	0.15
626.79	0.22
626.978	0.25
627.166	0.26
627.354	0.23
627.541	0.2
627.729	0.16
627.917	0.27
628.104	0.26
628.292	0.23
628.48	0.24
628.667	0.23
628.855	0.24
629.042	0.22
629.23	0.23
629.418	0.19
629.605	0.23
629.793	0.21
629.98	0.18
630.168	0.23
630.355	0.22
630.543	0.23
630.73	0.19
630.917	0.19
631.105	0.28
631.292	0.2
631.48	0.22
631.667	0.27
631.854	0.2
632.042	0.21
632.229	0.16
632.416	0.22
632.604	0.21
632.791	0.15
632.978	0.22
633.165	0.22
633.353	0.25
633.54	0.23
633.727	0.12
633.914	0.18
634.101	0.21
634.289	0.23
634.476	0.16
634.663	0.14
634.85	0.22
635.037	0.15
635.224	0.14
635.411	0.22
635.598	0.22
635.785	0.18
635.972	0.2
636.159	0.2
636.346	0.18
636.533	0.17
636.72	0.16
636.907	0.16
637.094	0.22
637.281	0.17
637.468	0.18
637.655	0.16
637.842	0.18
638.029	0.17
638.215	0.22
638.402	0.17
638.589	0.15
638.776	0.14
638.963	0.15
639.149	0.22
639.336	0.23
639.523	0.2
639.709	0.17
639.896	0.14
640.083	0.2
640.27	0.17
640.456	0.16
640.643	0.21
640.829	0.12
641.016	0.14
641.203	0.12
641.389	0.2
641.576	0.18
641.762	0.16
641.949	0.13
642.135	0.17
642.322	0.17
642.508	0.13
642.695	0.19
642.881	0.14
643.068	0.15
643.254	0.16
643.441	0.19
643.627	0.13
643.813	0.13
644	0.17
644.186	0.13
644.372	0.13
644.559	0.19
644.745	0.12
644.931	0.13
645.118	0.19
645.304	0.14
645.49	0.13
645.676	0.17
645.862	0.15
646.049	0.21
646.235	0.14
646.421	0.23
646.607	0.19
646.793	0.1
646.979	0.12
647.165	0.17
647.352	0.14
647.538	0.17
647.724	0.15
647.91	0.13
648.096	0.18
648.282	0.16
648.468	0.14
648.654	0.15
648.84	0.16
649.026	0.15
649.212	0.11
649.397	0.13
649.583	0.1
649.769	0.17
649.955	0.13
650.141	0.15
650.327	0.17
650.513	0.1
650.698	0.18
650.884	0.06
651.07	0.14
651.256	0.15
651.442	0.14
651.627	0.11
651.813	0.11
651.999	0.11
652.184	0.14
652.37	0.12
652.556	0.09
652.741	0.15
652.927	0.05
653.113	0.13
653.298	0.15
653.484	0.11
653.669	0.08
653.855	0.11
654.04	0.13
654.226	0.1
654.412	0.11
654.597	0.09
654.782	0.14
654.968	0.16
655.153	0.13
655.339	0.1
655.524	0.08
655.71	0.12
655.895	0.12
656.08	0.06
656.266	0.14
656.451	0.12
656.636	0.04
656.822	0.13
657.007	0.08
657.192	0.08
657.378	0.07
657.563	0.09
657.748	0.12
657.933	0.12
658.118	0.07
658.304	0.08
658.489	0.11
658.674	0.1
658.859	0.09
659.044	0.1
659.229	0.11
659.414	0.09
659.599	0.13
659.785	0.04
659.97	0.08
660.155	0.13
660.34	0.06
660.525	0.08
660.71	0.09
660.895	0.13
661.08	0.08
661.264	0.11
661.449	0.15
661.634	0.13
661.819	0.12
662.004	0.15
662.189	0.04
662.374	0.1
662.559	0.06
662.743	0.02
662.928	0.07
663.113	0.08
663.298	0
663.483	0.06
663.667	0.12
663.852	0.02
664.037	0.14
664.221	0.06
664.406	0.12
664.591	0.12
664.775	0.1
664.96	0.1
665.145	0.07
665.329	0.14
665.514	0.12
665.698	0.09
665.883	0.02
666.068	0.18
666.252	0.05
666.437	0.03
666.621	0.06
666.806	0.11
666.99	0.06
667.174	0.06
667.359	0.11
667.543	0.04
667.728	0.06
667.912	0.04
668.096	0.1
668.281	0.06
668.465	0.04
668.649	0.04
668.834	0.06
669.018	0.09
669.202	0.07
669.387	0.05
669.571	0.13
669.755	0.01
669.939	0.06
670.124	0.08
670.308	0.15
670.492	0.1
670.676	0.09
670.86	0.08
671.044	0.04
671.228	0.08
671.413	0.07
671.597	0.05
671.781	0.04
671.965	0.13
672.149	0.06
672.333	0.02
672.517	0.06
672.701	0.12
672.885	0.05
673.069	0.02
673.253	0.12
673.437	0.05
673.621	0.07
673.804	0.03
673.988	0.08
674.172	0.1
674.356	-0.02
674.54	0.05
674.724	0.14
674.908	0.07
675.091	0.1
675.275	0.03
675.459	0.07
675.643	0.03
675.826	0.1
676.01	0.01
676.194	0.07
676.377	0.09
676.561	0.07
676.745	0.09
676.928	0.06
677.112	0.06
677.296	0.04
677.479	0.03
677.663	0.02
677.846	0.1
678.03	0.04
678.213	0.03
678.397	0.05
678.58	0.01
678.764	0.06
678.947	0.03
679.131	0.04
679.314	0.1
679.498	0.07
679.681	0.07
679.865	0.09
680.048	0.06
680.231	0.04
680.415	0.09
680.598	0.03
680.781	0.04
680.965	0.04
681.148	0.07
681.331	0.05
681.514	0.1
681.698	0.04
681.881	0.08
682.064	0.05
682.247	0.07
682.43	0.02
682.614	0.07
682.797	0.09
682.98	0.11
683.163	-0.01
683.346	0.09
683.529	0.03
683.712	0.03
683.895	0.1
684.078	0.03
684.261	0.05
684.444	0.09
684.627	0.1
684.81	0.05
684.993	-0.01
685.176	0.1
685.359	0.01
685.542	0.06
685.725	0.09
685.908	0.06
686.091	0.05
686.274	0.1
686.457	0.06
686.639	0.08
686.822	0.07
687.005	0.04
687.188	0.05
687.371	0.12
687.553	0.04
687.736	0.08
687.919	0.12
688.102	0.11
688.284	0.01
688.467	0.04
688.65	0.02
688.832	0.02
689.015	0.02
689.197	0.01
689.38	0.17
689.563	0.13
689.745	0.02
689.928	0.01
690.11	0.06
690.293	0.09
690.475	-0.05
690.658	0.08
690.84	0.07
691.023	-0.01
691.205	0.03
691.388	0.08
691.57	0.12
691.752	0.09
691.935	-0.02
692.117	-0.02
692.3	0.11
692.482	0.03
692.664	0.02
692.847	0.07
693.029	0.13
693.211	-0
693.393	0.05
693.576	-0.01
693.758	0.07
693.94	0.03
694.122	0.01
694.304	0
694.487	0.04
694.669	0.06
694.851	-0.02
695.033	0.05
695.215	-0.01
695.397	-0.02
695.579	0.06
695.761	0.01
695.943	-0.01
696.125	0.11
696.308	0.09
696.49	-0.08
696.671	0.16
696.853	0.03
697.035	0.17
697.217	0.07
697.399	0.03
697.581	-0.02
697.763	0.06
697.945	-0
698.127	0.01
698.309	0.09
698.491	0.04
698.672	0.11
698.854	0.1
699.036	0.1
699.218	0.02
699.399	0.12
699.581	0.07
699.763	0.08
699.945	-0.02
700.126	0.03
700.308	0.07
700.49	0.04
700.671	-0.05
700.853	-0.07
701.035	-0.02
701.216	0.04
701.398	0.01
701.579	0
701.761	0.16
701.943	0
702.124	0.02
702.306	-0.03
702.487	0.15
702.669	0.01
702.85	-0.01
703.031	-0
703.213	0.11
703.394	0.07
703.576	-0.02
703.757	0.1
703.938	0.09
704.12	0.15
704.301	-0.01
704.483	0.01
704.664	0
704.845	0.16
705.026	0.04
705.208	0.05
705.389	-0.02
705.57	0.02
705.751	-0.02
705.933	0.07
706.114	0.11
706.295	0.02
706.476	-0.01
706.657	0.1
706.838	0.09
707.02	0.05
707.201	0.01
707.382	-0.01
707.563	-0.02
707.744	-0
707.925	-0.02
708.106	-0.07
708.287	0.04
708.468	0.16
708.649	-0.01
708.83	0.11
709.011	-0.01
709.192	0.06
709.373	-0.02
709.554	0.04
709.734	0.13
709.915	0.12
710.096	0.02
710.277	-0.1
710.458	0.07
710.639	0.07
710.819	-0.09
711	0.01
711.181	0.06
711.362	0.08
711.542	0.05
711.723	-0.04
711.904	0.07
712.085	0
712.265	0.05
712.446	-0.06
712.627	0.03
712.807	0.04
712.988	-0.03
713.168	-0.05
713.349	0.04
713.53	-0.09
713.71	-0.06
713.891	-0.01
714.071	-0.04
714.252	-0.01
714.432	0.07
714.613	-0.07
714.793	0.03
714.974	0.14
715.154	0.11
715.334	0.07
715.515	0.1
715.695	-0.03
715.876	-0.04
716.056	-0.01
716.236	-0.02
716.417	0.04
716.597	-0.1
716.777	0.15
716.957	0.01
717.138	0.02
717.318	0.05
717.498	-0.1
717.678	0.05
717.859	0.07
718.039	-0
718.219	0.09
718.399	0.04
718.579	0.02
718.759	-0.03
718.939	0.05
719.12	-0.03
719.3	0.03
719.48	-0.14
719.66	-0.1
719.84	0.08
720.02	-0.02
720.2	-0.11
720.38	-0.01
720.56	0.1
720.74	0.03
720.92	0.11
721.1	0.12
721.279	0.04
721.459	-0.01
721.639	-0.02
721.819	0.01
721.999	-0
722.179	0.05
722.359	-0.13
722.538	0.03
722.718	-0.01
722.898	-0.04
723.078	-0
723.257	0.05
723.437	0.03
723.617	-0.03
723.797	-0.04
723.976	-0.04
724.156	0.04
724.336	0.15
724.515	0.13
724.695	-0.11
724.874	0.08
725.054	0.05
725.234	-0.02
725.413	0.08
725.593	-0.03
725.772	-0.01
725.952	-0.02
726.131	-0.05
726.311	0.04
726.49	0.04
726.67	-0.07
726.849	-0.04
727.028	0.08
727.208	0.02
727.387	0.03
727.567	-0.09
727.746	-0.03
727.925	-0.07
728.105	0.02
728.284	0.01
728.463	0.11
728.643	0.05
728.822	-0.1
729.001	-0.09
729.18	0.01
729.359	0.06
729.539	-0.03
729.718	-0
729.897	0.06
730.076	-0.06
730.255	-0.05
730.434	0.03
730.614	0.08
730.793	0.11
730.972	0.05
731.151	-0.01
731.33	0.07
731.509	0.03
731.688	0.03
731.867	0.08
732.046	-0.06
732.225	0.19
732.404	-0.06
732.583	-0.03
732.762	0
732.941	0.03
733.12	-0.02
733.298	0.01
733.477	0.07
733.656	-0.07
733.835	-0.12
734.014	0.13
734.193	-0.02
734.371	-0.01
734.55	0.05
734.729	-0.14
734.908	0.09
735.086	0
735.265	0.25
735.444	-0.12
735.623	-0.08
735.801	-0.09
735.98	0.03
736.159	-0.08
736.337	-0.01
736.516	0.04
736.694	-0.03
736.873	-0
737.052	0.14
737.23	0.17
737.409	-0.03
737.587	0.14
737.766	-0.16
737.944	-0.07
738.123	0.05
738.301	-0.07
738.479	0.02
738.658	-0.02
738.836	-0.12
739.015	-0.04
739.193	0.15
739.371	-0.13
739.55	0.08
739.728	-0.09
739.906	0.12
740.085	0.16
740.263	0.02
740.441	-0.16
740.62	0.23
740.798	0.09
740.976	0.02
741.154	-0.1
741.332	0.13
741.511	-0.02
741.689	0.01
741.867	0.13
742.045	0.07
742.223	-0.02
742.401	-0.06
742.579	-0.09
742.757	0.09
742.935	-0.04
743.114	-0.11
743.292	-0.05
743.47	-0.08
743.648	0.03
743.826	0.04
744.004	0.08
744.181	0.09
744.359	-0.16
744.537	0.03
744.715	-0.04
744.893	-0.05
745.071	0.08
745.249	-0.09
745.427	0.02
745.605	0.03
745.782	0.07
745.96	0.03
746.138	0.04
746.316	0.06
746.493	-0.03
746.671	0.04
746.849	-0.02
747.027	0.14
747.204	-0.08
747.382	0.1
747.56	-0.12
747.737	-0.02
747.915	-0.03
748.093	0.12
748.27	-0.13
748.448	0.05
748.625	-0.16
748.803	-0.05
748.98	0.05
749.158	0.1
749.335	-0
749.513	-0.03
749.69	0.06
749.868	-0.01
750.045	0.09
750.223	-0.05
750.4	-0.18
750.578	0.13
750.755	0.09
750.932	-0.13
751.11	-0.02
751.287	-0.04
751.464	0.03
751.642	-0.03
751.819	0
751.996	0.05
752.173	-0.03
752.351	-0.13
752.528	0.04
752.705	0.01
752.882	-0.01
753.06	-0
753.237	0.05
753.414	0.14
753.591	0.23
753.768	-0.05
753.945	-0.1
754.122	-0.03
754.299	0.11
754.476	-0.1
754.654	0.05
754.831	0.11
755.008	0.07
755.185	-0.06
755.362	-0.11
755.539	0.13
755.716	-0.1
755.892	0.03
756.069	0.03
756.246	0.09
756.423	-0.02
756.6	0.14
756.777	-0.12
756.954	-0.01
757.131	0.03
757.307	-0.05
757.484	-0.12
757.661	0.03
757.838	-0.05
758.015	-0.14
758.191	0.11
758.368	0.05
758.545	0.21
758.721	0.11
758.898	0.03
759.075	0.1
759.251	0.1
759.428	0.2
759.605	-0.07
759.781	0.01
759.958	0.05
760.134	0.12
760.311	-0.04
760.488	0.14
760.664	0.16
760.841	-0
761.017	-0.2
761.194	0.06
761.37	0.06
761.547	-0.03
761.723	-0.12
761.899	0.04
762.076	-0.17
762.252	-0.15
762.429	0.03
762.605	0.15
762.781	-0.05
762.958	0.14
763.134	0.07
763.31	-0.01
763.486	0.09
763.663	-0.14
763.839	0.07
764.015	-0.17
764.191	0.01
764.368	0.09
764.544	-0.07
764.72	0.15
764.896	0.18
765.072	0.03
765.248	0.1
765.425	-0.04
765.601	-0
765.777	0.04
765.953	-0.11
766.129	0.02
766.305	-0.17
766.481	0.11
766.657	0.06
766.833	0.19
767.009	-0.15
767.185	-0.04
767.361	0.02
767.537	-0.04
767.713	0.07
767.889	-0.15
768.065	0.02
768.24	-0.25
768.416	0.05
768.592	-0.05
768.768	-0.1
768.944	0.02
769.12	-0.12
769.295	-0.1
769.471	0.07
769.647	-0.01
769.823	0.16
769.998	-0.13
770.174	-0.14
770.35	0.36
770.525	0.24
770.701	0.11
770.877	-0.09
771.052	-0.09
771.228	0.1
771.403	0.16
771.579	0.11
771.755	0.23
771.93	0.04
772.106	-0.23
772.281	-0.21
772.457	0.06
772.632	0.05
772.808	-0.11
772.983	-0.11
773.159	-0.01
773.334	0.15
773.509	-0.04
773.685	-0.17
773.86	0.31
774.036	0.13
774.211	-0.03
774.386	-0.08
774.562	-0.13
774.737	-0.11
774.912	-0.04
775.087	0.14
775.263	0.01
775.438	-0.03
775.613	-0.18
775.788	0.01
775.964	0.14
776.139	0.34
776.314	-0.24
776.489	-0.03
776.664	-0.03
776.839	-0.16
777.014	0.19
777.19	0.05
777.365	0.32
777.54	0.14
777.715	-0.15
777.89	-0.09
778.065	-0.21
778.24	-0.12
778.415	0.13
778.59	-0.17
778.765	-0.13
778.94	0.1
779.115	0.03
779.289	-0.07
779.464	-0.06
779.639	-0.12
779.814	-0.14
779.989	-0.23
780.164	0.22
780.339	0.18
780.513	0.06
780.688	0.07
780.863	-0.03
781.038	0.11
781.212	-0.08
781.387	-0.05
781.562	0.35
781.737	-0.16
781.911	0.22
782.086	-0.07
782.261	-0.02
782.435	0.45
782.61	-0.17
782.784	-0.04
782.959	0.21
783.134	-0.14
783.308	-0.17
783.483	-0.28
783.657	0.46
783.832	0.04
784.006	-0.34
784.181	0.13
784.355	0.26
784.53	-0.25
784.704	-0.29
784.878	0.12
785.053	0.08
785.227	0.24
785.402	0.44
785.576	-0.3
785.75	-0.26
785.925	-0.16
786.099	-0.05
786.273	-0.06
786.448	0.28
786.622	-0.03
786.796	0.05
786.97	-0.2
787.145	0.57
787.319	-0.43
787.493	-0.12
787.667	-0.42
787.841	-0.17
788.015	0.17
788.19	0.09
788.364	0.04
788.538	0.16
788.712	0.13
788.886	0.02
789.06	0.14
789.234	0.17
789.408	-0.21
789.582	-0.03
789.756	0.08
789.93	-0.08
790.104	0.04
790.278	0.05
790.452	-0.07
790.626	0
790.8	-0.12
790.973	0.23
791.147	0.31
791.321	0.16
791.495	0.04
791.669	0.01
791.843	0.23
792.016	-0
792.19	0.32
792.364	-0.27
792.538	0.56
792.711	0.34
792.885	-0.07
793.059	-0.12
793.233	-0.48
793.406	0.27
793.58	-0.03
793.754	-0.17
793.927	0.01
794.101	0.31
794.274	-0.09
794.448	0.15
794.622	-0.14
794.795	0.24
794.969	-0.1
795.142	0.46
795.316	-0.2
795.489	-0.04
795.663	0.63
795.836	-0.18
796.009	-0.25
796.183	0.26
796.356	0.05
796.53	0.1
796.703	0.02
796.876	0.49
797.05	0.07
797.223	-0
797.396	0.01
797.57	-0
797.743	0.14
797.916	0.15
798.09	-0.07
798.263	0.15
798.436	0.08
798.609	0.05
798.782	-0.15
798.956	0.18
799.129	0.08
799.302	-0.12
799.475	0.13
799.648	-0.22
799.821	-0.09
799.994	0.05
800.167	-0.31
800.34	0.11
800.514	-0.13
800.687	-0.16
800.86	-0.21
801.033	-0.03
801.206	0.09
801.379	-0.25
801.551	0.32
801.724	0.2
801.897	0.18
802.07	-0.21
802.243	-0.37
802.416	-0.19
802.589	0.13
802.762	0.01
802.935	-0.06
803.107	0.18
803.28	0.23
803.453	0.02
803.626	-0.41
803.798	-0.2
803.971	-0.02
804.144	0
804.317	0.02
804.489	0.27
804.662	-0.17
804.835	0.35
805.007	-0.43
805.18	0.54
805.353	-0.11
805.525	-0.13
805.698	-0.16
805.87	0.21
806.043	0.31
806.215	-0.38
806.388	-0.15
806.56	0.04
806.733	0.28
806.905	0.14
807.078	-0.49
807.25	-0.21
807.423	0.13
807.595	-0.17
807.768	0.2
807.94	0.18
808.112	0.1
808.285	-0.05
808.457	0.06
808.629	0.14
808.802	0.32
808.974	0.2
809.146	0.15
809.318	-0.06
809.491	0.18
809.663	0.38
809.835	-0.14
810.007	0.46
810.18	-0.32
810.352	-0.41
810.524	-0.18
810.696	0.02
810.868	0.54
811.04	0.09
811.212	0.18
811.384	0.57
811.556	-0.02
811.728	-0.21
811.901	0.44
812.073	-0.14
812.245	0.2
812.417	0.19
812.589	-0.33
812.76	-0.25
812.932	0.06
813.104	0.31
813.276	-0.29
813.448	0.06
813.62	-0.36
813.792	-0.15
813.964	-0.11
814.136	0.11
814.307	-0.12
814.479	-0.33
814.651	-0
814.823	0.62
814.995	-0.01
815.166	-0.07
815.338	-0.06
815.51	-0.18
815.681	0.83
815.853	0.08
816.025	-0.49
816.196	0.3
816.368	0.11
816.54	-0.96
816.711	-0.12
816.883	-0.12
817.054	1.55
817.226	-0.7
817.398	0.09
817.569	-0.04
817.741	0.12
817.912	-0.14
818.084	0.03
818.255	0.28
818.426	-0.28
818.598	0.06
818.769	-0.34
818.941	0.29
819.112	0.38
819.283	0.26
819.455	-0.14
819.626	-0.09
819.798	0.26
819.969	-0.24
820.14	0.01
820.311	-0.04
820.483	0.25
820.654	0.24
820.825	-0.31
820.996	-0.09
821.168	-0.1
821.339	0.04
821.51	-0.15
821.681	0.78
821.852	0.22
822.023	-0.73
822.195	-0.2
822.366	0.05
822.537	-0.12
822.708	0.61
822.879	-0.37
823.05	0.49
823.221	-0.34
823.392	0.29
823.563	0.25
823.734	-0.3
823.905	-0.31
824.076	-0.22
824.247	-0.88
824.418	-0.18
824.589	0.59
824.759	0.15
824.93	-0.53
825.101	-0.49
825.272	0.79
825.443	0.88
825.614	0.81
825.784	-0.87
825.955	0.8
826.126	0.57
826.297	-0.13
826.467	0.97
826.638	0.7
826.809	-1.18
826.98	-0.18
827.15	-0.32
827.321	-0.04
827.492	0.47
827.662	0.19
827.833	0.78
828.003	0.85
828.174	-0.28
828.345	-0.51
828.515	0.33
828.686	0.29
828.856	0.32
829.027	-0.07
829.197	0.12
829.368	0.21
829.538	-0.64
829.709	0
829.879	-0.1
830.049	0.08
830.22	-0.13
830.39	0.1
830.56	0.85
830.731	-0.29
830.901	-0.86
831.072	0.09
831.242	-0.07
831.412	-0.09
831.582	0.38
831.753	-0.69
831.923	0.54
832.093	0.47
832.263	0.06
832.434	-0.22
832.604	-0.45
832.774	0.27
832.944	0.07
833.114	0.03
833.284	0.34
833.454	-0.45
833.624	-0.38
833.795	-0.06
833.965	0.76
834.135	1.04
834.305	-0.87
834.475	-0.16
834.645	-0.37
834.815	-0.18
834.985	-0.34
835.155	-0.27
835.325	0.23
835.494	0.43
835.664	-0.04
835.834	-0.65
836.004	0.13
836.174	0.19
836.344	0.03
836.514	-0.43
836.684	-0.43
836.853	-0.42
837.023	0.31
837.193	-0.52
837.363	0.17
837.532	0.81
837.702	-0.23
837.872	-0.44
838.041	1.2
838.211	1.14
838.381	-0.83
838.55	-0.25
838.72	1.95
838.89	1.23
839.059	-1
839.229	-0.29
839.398	1.05
839.568	-0.43
839.738	0.13
839.907	1.39
840.077	0.25
840.246	-1.1
840.416	-0.37
840.585	-0.13
840.755	1.25
840.924	0.83
841.093	-0.1
841.263	-0.32
841.432	0.15
841.602	-0.85
841.771	-0.7
841.94	-0.1
842.11	1.05
842.279	1.08
842.448	-0.2
842.617	-0.67
842.787	1.34
842.956	-0.32
843.125	0.43
843.294	0.42
843.464	1.22
843.633	0.09
843.802	-0.69
843.971	-0.08
844.14	0.06
844.309	0.59
844.479	-1.64
844.648	-0.71
844.817	-0.66
844.986	0.02
845.155	-0.85
845.324	-0.22
845.493	0.18
845.662	-0.87
845.831	0.65
846	1.05
846.169	-0.14
846.338	1.02
846.507	0.22
846.676	0.41
846.844	0.04
847.013	-0.2
847.182	0.54
847.351	-0.32
847.52	-0.2
847.689	0.66
847.858	-0.05
848.026	-0.13
848.195	0.63
848.364	-0.41
848.533	0.03
848.701	-0.19
848.87	-0.32
849.039	1.37
849.207	1.24
849.376	1.64
849.545	0.77
849.713	-0.77
849.882	0.34
850.051	-0.35
850.219	0.16
850.388	1.01
850.556	-1.08
850.725	-1.05
850.893	-0.53
851.062	0.88
851.23	-0.19
851.399	-1.05
851.567	-0.66
851.736	-0.43
851.904	-0.62
852.073	-0.3
852.241	0.5
852.41	1.19
852.578	-0.25
852.746	-0.43
852.915	-0.69
853.083	0.66
853.251	-0.49
853.42	-0.31
853.588	-0.23
853.756	0.81
853.924	-0.45
854.093	-0.67
854.261	-0.24
854.429	-0.94
854.597	1.12
854.765	-1.39
854.934	-0.21
855.102	1.26
855.27	-0.06
855.438	-0.29
855.606	1.3
855.774	1.08
855.942	-1.64
856.11	-1.11
856.278	0.6
856.446	1.41
856.614	-0.25
856.782	-1.27
856.95	1.5
857.118	0.51
857.286	0.4
857.454	-1.26
857.622	1.14
857.79	-0.02
857.958	-1.07
858.126	0.77
858.294	-2.84
858.462	-0.13
858.629	0.55
858.797	-1.61
858.965	0.65
859.133	0.1
859.301	-0.64
859.468	-0.1
859.636	-0.32
859.804	1.12
859.971	-0.03
860.139	-0.59
860.307	1.51
860.474	0.29
860.642	-1.31
860.81	-0.14
860.977	-1.01
861.145	2.45
861.313	0.01
861.48	-0.28
861.648	0.75
861.815	-0.25
861.983	-1.55
862.15	-0.52
862.318	0.44
862.485	1.02
862.653	-0.43
862.82	-0.67
862.988	1.81
863.155	0.6
863.322	-1
863.49	-0.76
863.657	-0.65
863.824	1.49
863.992	0.79
864.159	0.15
864.326	2.39
864.494	-0.64
864.661	3.39
864.828	-0.3
864.996	2.05
865.163	1.52
865.33	-1.07
865.497	-3.51
865.664	-0.85
865.832	-1.56
865.999	-0.43
866.166	-2.58
866.333	-0.59
866.5	-1.06
866.667	-0.02
866.834	0.02
867.001	2.33
867.168	-2.06
867.335	-0.11
867.502	-0.93
867.669	-0.02
867.836	3.39
868.003	-0.73
868.17	0.96
868.337	-1.71
868.504	1.21
868.671	-1.58
868.838	-2.35
869.005	1.37
869.172	2.62
869.339	0.12
869.505	-0.37
869.672	-0.25
869.839	1.63
870.006	0.07
870.173	-2.03
870.339	0.81
870.506	2.04
870.673	-1.62
870.84	1.29
871.006	1.26
871.173	-0.2
871.34	-0.65
871.506	-0.86
871.673	1.71
871.839	-1.07
872.006	0.29
872.173	-0.55
872.339	0.55
872.506	2.87
872.672	-1.59
872.839	-1.51
873.005	-0.44
873.172	4.51
873.338	0.61
873.505	-0.76
873.671	-0.23
873.838	1.72
874.004	-1.56
874.171	-0.93
874.337	-0.74
874.503	1.83
874.67	0.15
874.836	-1.34
875.002	1.05
875.169	1.59
875.335	-0.24
875.501	-0.43
875.668	0.55
875.834	0.31
876	-0.4
876.166	2.69
876.332	0.83
876.499	3.62
876.665	-1.08
876.831	-1.01
876.997	1.67
877.163	0.98
877.329	-0.69
877.495	-0.05
877.662	0.16
877.828	0.28
877.994	1.65
878.16	-1.84
878.326	-1.27
878.492	0.38
878.658	-1.25
878.824	0.62
878.99	1.27
879.156	-0.16
879.322	2.1
879.487	1.26
879.653	-0.7
879.819	-0.16
879.985	-1.35
880.151	0.21
880.317	0.2
880.483	2.25
880.648	0.03
880.814	-3.7
880.98	-1.12
881.146	-3.07
881.312	-1.73
881.477	-1.21
881.643	-0.52
881.809	1.14
881.974	1.48
882.14	-1.85
882.306	0.8
882.471	3.14
882.637	-0.67
882.803	0.33
882.968	1.79
883.134	2.09
883.299	-1.13
883.465	-0.72
883.63	1.17
883.796	0.77
883.961	1.08
884.127	1.14
884.292	-1.88
884.458	-2.37
884.623	-2.37
