Data from Apollo_Calib_20240827__AbsoluteIrradiance__290__03-59-01-704.txt Node

Date: Wed Aug 28 03:59:01 BST 2024
User: biology
Spectrometer: FLMT08252
Trigger mode: 0
Integration Time (sec): 5.000000E-1
Scans to average: 5
Electric dark correction enabled: true
Nonlinearity correction enabled: false
Boxcar width: 0
XAxis mode: Wavelengths
Number of Pixels in Spectrum: 3648
>>>>>Begin Spectral Data<<<<<
179.588	-0
179.809	-0
180.03	-0
180.251	-0
180.473	-0
180.694	0
180.915	0
181.136	-0
181.357	0
181.578	-0
181.799	-0
182.02	-0
182.241	0
182.462	-0
182.683	0
182.904	-0
183.125	-0
183.346	0
183.567	0
183.788	0
184.009	-0
184.23	0
184.451	0
184.672	-0
184.892	-0
185.113	0
185.334	0
185.555	-0
185.776	0
185.996	0
186.217	0
186.438	0
186.659	-0
186.879	0
187.1	0
187.321	-0
187.541	-0
187.762	0
187.983	0
188.203	0
188.424	0
188.644	0
188.865	0
189.086	0
189.306	0
189.527	0
189.747	0
189.968	-0
190.188	0
190.409	0
190.629	0
190.849	0
191.07	0
191.29	0
191.511	0
191.731	-0
191.951	-0
192.172	0
192.392	0
192.612	0
192.833	0
193.053	0
193.273	0
193.493	0
193.714	0
193.934	0
194.154	0
194.374	0
194.594	0
194.815	0
195.035	0
195.255	0
195.475	0
195.695	0
195.915	0
196.135	0
196.355	0
196.575	0
196.795	0
197.015	-0
197.235	-0
197.455	0
197.675	0
197.895	-0
198.115	-0
198.335	0
198.555	0
198.775	0
198.995	0
199.214	0
199.434	0
199.654	0
199.874	0
200.094	1.35
200.313	0.44
200.533	0.24
200.753	-0.02
200.973	1.39
201.192	1.05
201.412	-0.58
201.632	-0
201.851	1.16
202.071	0.15
202.291	-0.18
202.51	-0.17
202.73	0.9
202.95	0.24
203.169	-0.08
203.389	0.56
203.608	0.38
203.828	-0.19
204.047	-0.04
204.267	1.45
204.486	0.35
204.706	0.77
204.925	-0.08
205.145	0.17
205.364	0.87
205.583	1.22
205.803	0.1
206.022	0
206.242	0.44
206.461	0.3
206.68	0.04
206.9	0.57
207.119	1.04
207.338	0.99
207.557	0.09
207.777	-0.12
207.996	0.14
208.215	1
208.434	0.08
208.654	-0.19
208.873	0.36
209.092	0.96
209.311	0.26
209.53	0.13
209.749	0.04
209.968	-0.05
210.187	0.06
210.407	-0.13
210.626	0.18
210.845	0.51
211.064	0.27
211.283	-0.04
211.502	0.5
211.721	0.32
211.94	0.02
212.159	0.41
212.377	0.49
212.596	0.48
212.815	0.12
213.034	0.27
213.253	0.54
213.472	0.1
213.691	0.18
213.91	0.01
214.128	0.1
214.347	0.58
214.566	-0.1
214.785	-0.15
215.003	0.49
215.222	0.31
215.441	0.23
215.66	-0.06
215.878	0.21
216.097	0.51
216.316	-0.07
216.534	0.24
216.753	0.23
216.972	0.02
217.19	0.2
217.409	0.02
217.627	-0.05
217.846	0.17
218.064	0.28
218.283	0.05
218.501	0.81
218.72	0.35
218.938	0.04
219.157	0.11
219.375	0.4
219.594	0.24
219.812	0.1
220.031	-0.02
220.249	0.54
220.467	0.47
220.686	0.14
220.904	-0.06
221.122	0.15
221.341	0.69
221.559	0.19
221.777	0.08
221.995	0.14
222.214	0.31
222.432	0.03
222.65	0.18
222.868	0.23
223.086	0.4
223.305	0.19
223.523	0.23
223.741	0.48
223.959	0.2
224.177	-0.04
224.395	0.1
224.613	0.21
224.831	0.36
225.049	-0.02
225.267	0.02
225.485	0.18
225.703	0.07
225.921	-0.04
226.139	0.03
226.357	0.24
226.575	0.28
226.793	-0
227.011	0.67
227.229	0.17
227.447	0.34
227.665	0.05
227.883	-0.12
228.1	0.11
228.318	0.29
228.536	-0.12
228.754	0.04
228.972	0.26
229.189	0.32
229.407	0.08
229.625	0.05
229.843	0.39
230.06	0.32
230.278	0.08
230.496	0.09
230.713	0.27
230.931	0.26
231.149	0.17
231.366	-0.13
231.584	0.11
231.801	0.48
232.019	0.03
232.236	-0.03
232.454	0.1
232.671	0.18
232.889	0.07
233.106	0.01
233.324	0.14
233.541	0.12
233.759	0.12
233.976	-0.04
234.194	0.04
234.411	0.13
234.628	0.01
234.846	-0.03
235.063	0.15
235.28	0.12
235.498	0.18
235.715	-0.09
235.932	0.22
236.149	0.19
236.367	0
236.584	0.21
236.801	0.08
237.018	0.24
237.236	0.04
237.453	-0.14
237.67	0.18
237.887	0.15
238.104	0.08
238.321	0.02
238.538	0.04
238.755	0.27
238.973	-0.17
239.19	0.09
239.407	0.09
239.624	0.14
239.841	0.1
240.058	0.02
240.275	0.26
240.492	0.07
240.709	0.13
240.925	0.06
241.142	0.13
241.359	-0.05
241.576	0.03
241.793	0.03
242.01	0.08
242.227	0.25
242.444	0.18
242.66	0.13
242.877	0.13
243.094	0.17
243.311	0.12
243.527	0.18
243.744	0.11
243.961	0.2
244.178	0.03
244.394	0.07
244.611	0.18
244.828	0.31
245.044	0
245.261	0.06
245.477	0.09
245.694	0.11
245.911	0.03
246.127	0.12
246.344	0.25
246.56	0.19
246.777	0.07
246.993	0.13
247.21	0.1
247.426	0.29
247.643	0.04
247.859	0.05
248.076	0.02
248.292	0.25
248.508	0.04
248.725	0.13
248.941	0.14
249.157	0.22
249.374	0.03
249.59	0.1
249.806	0.05
250.023	0.18
250.239	0.15
250.455	0.02
250.671	0.07
250.888	0.08
251.104	0.16
251.32	-0.01
251.536	-0.02
251.752	0.04
251.969	0.07
252.185	0.09
252.401	0.27
252.617	0.12
252.833	0.06
253.049	0.09
253.265	0.09
253.481	0.11
253.697	0.09
253.913	-0.03
254.129	0.12
254.345	0.11
254.561	0.04
254.777	0.06
254.993	0.15
255.209	0.05
255.425	0.01
255.641	0.01
255.857	0.12
256.073	0.13
256.288	-0.07
256.504	0.03
256.72	0.07
256.936	0.26
257.152	0.08
257.367	0.03
257.583	0.1
257.799	0.19
258.015	0.05
258.23	0.01
258.446	0.31
258.662	0.06
258.877	0.02
259.093	0.01
259.309	0.08
259.524	0.08
259.74	0.05
259.955	-0.06
260.171	0.11
260.387	0.05
260.602	0.17
260.818	0.13
261.033	0.05
261.249	0.05
261.464	0.06
261.68	-0
261.895	0.16
262.11	0.15
262.326	0.02
262.541	0.02
262.757	0.15
262.972	0.18
263.187	0.15
263.403	0.07
263.618	0.15
263.833	0.16
264.049	-0.04
264.264	0.06
264.479	0.11
264.694	0.2
264.91	0.05
265.125	0.04
265.34	0.12
265.555	0.25
265.77	0.06
265.986	0.06
266.201	0.12
266.416	0.21
266.631	0.1
266.846	0.04
267.061	0.09
267.276	0.15
267.491	-0.07
267.706	0.08
267.921	0.11
268.136	0.11
268.351	0.08
268.566	0.01
268.781	0.19
268.996	0.15
269.211	0.06
269.426	0.08
269.641	0.06
269.856	0.16
270.071	0
270.285	0
270.5	0.16
270.715	0.08
270.93	0.06
271.145	0.1
271.359	0.18
271.574	0.03
271.789	0.03
272.004	-0.01
272.218	0.08
272.433	0.13
272.648	0.05
272.862	0.08
273.077	0.08
273.292	0.08
273.506	0.02
273.721	0.07
273.936	0.12
274.15	0.16
274.365	0.04
274.579	0.08
274.794	0.15
275.008	0.15
275.223	-0
275.437	0.11
275.652	0.09
275.866	0.1
276.081	0.05
276.295	0.17
276.509	0.06
276.724	0.09
276.938	0.12
277.153	0.13
277.367	0.12
277.581	0.01
277.796	0.08
278.01	0.02
278.224	0.08
278.438	0.19
278.653	0.04
278.867	0.01
279.081	-0.06
279.295	0.05
279.51	0.08
279.724	-0.03
279.938	0.09
280.152	0.11
280.366	-0.01
280.58	0.12
280.794	0.2
281.008	0.13
281.222	0.15
281.437	0.14
281.651	0.13
281.865	0.23
282.079	0.01
282.293	-0.07
282.507	0.01
282.721	0.07
282.935	0.07
283.148	-0.01
283.362	0.05
283.576	0.05
283.79	0.05
284.004	0.03
284.218	0.12
284.432	0.07
284.646	0.1
284.859	0.03
285.073	0.05
285.287	0.08
285.501	0.07
285.714	0.04
285.928	0.1
286.142	0.09
286.356	0.01
286.569	0.06
286.783	0.14
286.997	0.11
287.21	0.08
287.424	0.07
287.637	0.08
287.851	0.06
288.065	0.1
288.278	0.02
288.492	0.11
288.705	0.09
288.919	0.09
289.132	-0.02
289.346	0.17
289.559	0
289.773	0.04
289.986	0.01
290.2	0.06
290.413	0.09
290.626	0
290.84	0.08
291.053	0.03
291.267	0.12
291.48	0.06
291.693	0.1
291.906	0.03
292.12	0.07
292.333	0.01
292.546	0.03
292.76	0.16
292.973	0.04
293.186	0.13
293.399	0.02
293.612	0.1
293.826	0.05
294.039	0.02
294.252	0.06
294.465	0.12
294.678	0.06
294.891	0.02
295.104	0.04
295.317	0.09
295.53	0.11
295.743	0.06
295.956	0.07
296.169	0.16
296.382	0.11
296.595	0.11
296.808	0.02
297.021	0.11
297.234	0.1
297.447	0.06
297.66	0.09
297.873	0.15
298.086	0.09
298.299	0.02
298.511	0.03
298.724	0.07
298.937	0.07
299.15	0
299.363	0.05
299.575	0.09
299.788	0.1
300.001	0.04
300.213	0.02
300.426	0.02
300.639	0.01
300.852	0.03
301.064	0.13
301.277	0.1
301.489	0.12
301.702	0.09
301.915	0.06
302.127	0.09
302.34	0.08
302.552	0.07
302.765	0.03
302.977	0.09
303.19	0.07
303.402	0.04
303.615	0.05
303.827	0.06
304.04	0.06
304.252	0.1
304.464	0.06
304.677	0.19
304.889	0.07
305.102	0.04
305.314	0.02
305.526	0.1
305.739	0.09
305.951	0.06
306.163	0.05
306.375	0.11
306.588	0.05
306.8	0.01
307.012	-0.02
307.224	0.11
307.436	0.1
307.649	-0.02
307.861	0.07
308.073	0.07
308.285	0.06
308.497	-0.03
308.709	0.06
308.921	0.08
309.133	0.09
309.346	0.04
309.558	0.07
309.77	0.11
309.982	0.15
310.194	0.09
310.406	0.04
310.617	0.09
310.829	0.1
311.041	0.09
311.253	0.05
311.465	0.11
311.677	0.07
311.889	0.06
312.101	0.03
312.313	0.13
312.524	0.13
312.736	0
312.948	0.06
313.16	0.16
313.372	0.13
313.583	0.04
313.795	0.06
314.007	0.03
314.218	0.09
314.43	0.1
314.642	0.03
314.853	0.02
315.065	0.15
315.277	0.03
315.488	0.09
315.7	0.15
315.912	0.1
316.123	0.08
316.335	0.04
316.546	0.15
316.758	0.05
316.969	0.05
317.181	0.06
317.392	0.08
317.604	0.11
317.815	0.01
318.026	0
318.238	0.1
318.449	0.08
318.661	-0.04
318.872	-0.01
319.083	0.03
319.295	0.09
319.506	0.07
319.717	0.09
319.929	0.12
320.14	0.05
320.351	0.08
320.562	0.05
320.774	0.07
320.985	0.08
321.196	0.03
321.407	0.03
321.618	0.1
321.829	0.09
322.041	0.12
322.252	0.05
322.463	0.09
322.674	0.08
322.885	0
323.096	0.05
323.307	0.11
323.518	0.08
323.729	0.01
323.94	0.03
324.151	0.08
324.362	0.11
324.573	0.08
324.784	0.1
324.995	0.11
325.206	0.14
325.417	0.05
325.628	0.04
325.838	0.05
326.049	0.09
326.26	0.1
326.471	0.05
326.682	0.09
326.892	0.08
327.103	0.02
327.314	0.03
327.525	0.13
327.735	0.11
327.946	0.06
328.157	0.04
328.368	0.07
328.578	0.07
328.789	0.12
328.999	0.09
329.21	0.07
329.421	0.11
329.631	0.02
329.842	0.02
330.052	0.08
330.263	0.1
330.473	0.1
330.684	0.11
330.894	0.05
331.105	0.14
331.315	0.06
331.526	0.03
331.736	0.18
331.947	0.06
332.157	0.02
332.367	-0
332.578	0.11
332.788	0.12
332.999	0.07
333.209	0.11
333.419	0.03
333.629	0.1
333.84	0.11
334.05	0.1
334.26	0.16
334.47	0.15
334.681	0.12
334.891	0.03
335.101	0.11
335.311	0.18
335.521	0.04
335.732	0.06
335.942	0.14
336.152	0.09
336.362	0.06
336.572	0.09
336.782	0.12
336.992	0.04
337.202	0.04
337.412	0.07
337.622	0.11
337.832	0.07
338.042	0.05
338.252	0.04
338.462	0.04
338.672	0.07
338.882	0.05
339.092	0.06
339.302	0.15
339.511	0.12
339.721	0.05
339.931	0.03
340.141	0.13
340.351	0.13
340.561	0.06
340.77	0.08
340.98	0.07
341.19	0.06
341.4	0
341.609	0.05
341.819	0.07
342.029	0.06
342.238	0.1
342.448	0.07
342.658	0.07
342.867	0.12
343.077	0.08
343.286	0.07
343.496	0.07
343.706	0.14
343.915	0.02
344.125	0.09
344.334	0.12
344.544	0.02
344.753	0.05
344.963	0.07
345.172	0.07
345.381	0.07
345.591	0.06
345.8	0.1
346.01	0.13
346.219	0.15
346.428	-0.04
346.638	0.06
346.847	0.05
347.056	0.14
347.266	0.04
347.475	0.05
347.684	0.13
347.893	0.09
348.103	0.11
348.312	0.02
348.521	0.08
348.73	0.08
348.94	0.05
349.149	0.05
349.358	0.08
349.567	0.04
349.776	0.03
349.985	0.02
350.194	0.14
350.403	0.09
350.612	0.01
350.821	0.05
351.03	0.05
351.239	0.02
351.448	0.07
351.657	0
351.866	0.13
352.075	0.08
352.284	0.15
352.493	0.01
352.702	0.14
352.911	0.12
353.12	0.08
353.329	0.06
353.538	0.09
353.746	0.05
353.955	0.02
354.164	0.1
354.373	0.06
354.582	0.11
354.79	0.11
354.999	0.1
355.208	0.09
355.416	0.15
355.625	0.04
355.834	0.06
356.042	0.08
356.251	0.05
356.46	0.04
356.668	0.1
356.877	0.17
357.085	0.14
357.294	-0.03
357.503	0.08
357.711	0.06
357.92	0.21
358.128	0.06
358.337	0.06
358.545	0.1
358.754	0.04
358.962	0.11
359.17	0.06
359.379	0.08
359.587	0.1
359.796	0.08
360.004	0.13
360.212	0.08
360.421	0.13
360.629	0.09
360.837	0.04
361.046	0.11
361.254	0.19
361.462	0.08
361.67	0.07
361.879	0.06
362.087	0.16
362.295	0.08
362.503	0.07
362.711	0.05
362.92	0.04
363.128	0.03
363.336	0.04
363.544	0.02
363.752	0.07
363.96	0.05
364.168	0.07
364.376	0.09
364.584	0.1
364.792	0.12
365	0.1
365.208	0.11
365.416	0.09
365.624	0.16
365.832	0.06
366.04	0.15
366.248	0.12
366.456	0.08
366.664	0.11
366.872	0.09
367.079	0.07
367.287	0.1
367.495	0.07
367.703	0.1
367.911	0.08
368.118	0.07
368.326	0.08
368.534	0.06
368.742	0.12
368.949	0.03
369.157	0.05
369.365	0.11
369.572	0.09
369.78	0.06
369.988	0.14
370.195	0.12
370.403	0.13
370.61	0.09
370.818	0.1
371.026	0.11
371.233	0.07
371.441	0.11
371.648	0.07
371.856	0.11
372.063	0.07
372.271	0.1
372.478	0.07
372.685	0.07
372.893	0.1
373.1	0.1
373.308	0.1
373.515	0.19
373.722	0.12
373.93	0.07
374.137	0.12
374.344	0.19
374.552	0.14
374.759	0.1
374.966	0.1
375.173	0.07
375.381	0.14
375.588	0.09
375.795	0.07
376.002	0.06
376.209	0.07
376.417	0.1
376.624	0.13
376.831	0.15
377.038	0.08
377.245	0.02
377.452	0.09
377.659	0.09
377.866	0.06
378.073	0.09
378.28	0.11
378.487	0.13
378.694	0.12
378.901	0.1
379.108	0.08
379.315	0.12
379.522	0.18
379.729	0.15
379.936	0.1
380.143	0.15
380.35	0.15
380.557	0.1
380.763	0.11
380.97	0.11
381.177	0.12
381.384	0.11
381.591	0.11
381.797	0.15
382.004	0.18
382.211	0.14
382.418	0.12
382.624	0.13
382.831	0.18
383.038	0.09
383.244	0.17
383.451	0.1
383.658	0.15
383.864	0.12
384.071	0.09
384.277	0.17
384.484	0.1
384.69	0.17
384.897	0.07
385.103	0.12
385.31	0.05
385.516	0.14
385.723	0.04
385.929	0.12
386.136	0.09
386.342	0.18
386.549	0.11
386.755	0.2
386.961	0.14
387.168	0.12
387.374	0.14
387.58	0.17
387.787	0.13
387.993	0.15
388.199	0.15
388.406	0.14
388.612	0.18
388.818	0.15
389.024	0.11
389.231	0.16
389.437	0.28
389.643	0.18
389.849	0.18
390.055	0.13
390.261	0.18
390.467	0.17
390.674	0.12
390.88	0.23
391.086	0.21
391.292	0.14
391.498	0.23
391.704	0.22
391.91	0.18
392.116	0.16
392.322	0.1
392.528	0.21
392.734	0.16
392.94	0.24
393.146	0.21
393.352	0.24
393.557	0.21
393.763	0.17
393.969	0.25
394.175	0.25
394.381	0.26
394.587	0.23
394.792	0.26
394.998	0.34
395.204	0.36
395.41	0.26
395.615	0.31
395.821	0.34
396.027	0.34
396.233	0.31
396.438	0.38
396.644	0.39
396.85	0.41
397.055	0.38
397.261	0.37
397.466	0.49
397.672	0.43
397.878	0.5
398.083	0.49
398.289	0.48
398.494	0.54
398.7	0.55
398.905	0.46
399.111	0.66
399.316	0.49
399.522	0.58
399.727	0.62
399.932	0.66
400.138	0.6
400.343	0.72
400.549	0.78
400.754	0.74
400.959	0.79
401.165	0.82
401.37	0.85
401.575	1.03
401.78	0.88
401.986	0.91
402.191	0.96
402.396	1.06
402.601	1.12
402.807	1.19
403.012	1.2
403.217	1.37
403.422	1.27
403.627	1.4
403.832	1.44
404.037	1.59
404.243	1.57
404.448	1.61
404.653	1.67
404.858	1.83
405.063	1.84
405.268	1.89
405.473	1.92
405.678	2.04
405.883	2.32
406.088	2.27
406.293	2.26
406.498	2.4
406.703	2.46
406.907	2.64
407.112	2.74
407.317	2.94
407.522	3.13
407.727	3.23
407.932	3.3
408.136	3.6
408.341	3.57
408.546	3.75
408.751	3.86
408.956	3.98
409.16	4.36
409.365	4.37
409.57	4.42
409.774	4.56
409.979	4.83
410.184	5
410.388	5.19
410.593	5.5
410.798	5.64
411.002	6.06
411.207	6.11
411.411	6.37
411.616	6.48
411.82	6.82
412.025	7.11
412.229	7.29
412.434	7.61
412.638	7.8
412.843	8.13
413.047	8.27
413.252	8.5
413.456	8.97
413.66	9.19
413.865	9.43
414.069	9.66
414.273	10.04
414.478	10.18
414.682	10.44
414.886	10.91
415.091	11.04
415.295	11.48
415.499	11.99
415.703	11.95
415.908	12.51
416.112	12.73
416.316	13.29
416.52	13.67
416.724	13.9
416.929	14.27
417.133	14.86
417.337	14.93
417.541	15.45
417.745	15.82
417.949	15.98
418.153	16.59
418.357	16.97
418.561	17.54
418.765	17.52
418.969	17.98
419.173	18.83
419.377	18.98
419.581	19.64
419.785	20.07
419.989	20.23
420.193	20.98
420.397	21.04
420.601	21.33
420.804	21.77
421.008	21.72
421.212	22.16
421.416	21.83
421.62	21.87
421.823	21.94
422.027	21.99
422.231	21.84
422.435	21.49
422.638	21.31
422.842	21.57
423.046	21.98
423.249	22.09
423.453	21.8
423.657	21.8
423.86	21.98
424.064	22.24
424.268	21.95
424.471	21.8
424.675	21.91
424.878	21.61
425.082	21.74
425.285	22.32
425.489	21.29
425.692	21.19
425.896	20.72
426.099	20.75
426.303	20.76
426.506	20.59
426.71	20.4
426.913	20.37
427.116	20.19
427.32	19.47
427.523	19.14
427.726	19.24
427.93	18.96
428.133	19
428.336	18.87
428.54	18.56
428.743	18.33
428.946	18.19
429.149	17.37
429.353	16.79
429.556	16.53
429.759	15.75
429.962	15.59
430.165	15.3
430.368	13.94
430.571	13.67
430.775	13.22
430.978	12.68
431.181	12.21
431.384	11.97
431.587	11.62
431.79	11.75
431.993	11.14
432.196	11.15
432.399	11.15
432.602	10.85
432.805	10.57
433.008	10.85
433.211	10.26
433.414	10.29
433.616	9.9
433.819	9.54
434.022	9.49
434.225	9.16
434.428	8.93
434.631	9.13
434.833	8.41
435.036	8.37
435.239	8.26
435.442	7.96
435.645	7.79
435.847	7.66
436.05	7.57
436.253	7.47
436.455	7.24
436.658	6.95
436.861	6.93
437.063	6.72
437.266	6.54
437.468	6.48
437.671	6.4
437.874	6.17
438.076	5.81
438.279	5.92
438.481	5.72
438.684	5.91
438.886	5.49
439.089	5.41
439.291	5.3
439.494	5.25
439.696	5.08
439.899	5.1
440.101	5.07
440.303	4.96
440.506	4.98
440.708	4.73
440.91	4.65
441.113	4.57
441.315	4.54
441.517	4.23
441.72	4.3
441.922	4.01
442.124	3.76
442.326	3.82
442.529	3.77
442.731	3.6
442.933	3.65
443.135	3.39
443.337	3.19
443.539	3.29
443.742	3.09
443.944	3.19
444.146	3.01
444.348	2.89
444.55	2.81
444.752	2.69
444.954	2.63
445.156	2.63
445.358	2.59
445.56	2.57
445.762	2.45
445.964	2.42
446.166	2.29
446.368	2.24
446.57	2.27
446.772	2.15
446.974	1.96
447.175	2.03
447.377	2
447.579	1.96
447.781	1.84
447.983	1.86
448.184	1.75
448.386	1.81
448.588	1.62
448.79	1.65
448.991	1.66
449.193	1.62
449.395	1.61
449.597	1.54
449.798	1.5
450	1.46
450.202	1.43
450.403	1.44
450.605	1.44
450.806	1.4
451.008	1.3
451.21	1.29
451.411	1.27
451.613	1.19
451.814	1.21
452.016	1.23
452.217	1.05
452.419	1.22
452.62	1.11
452.821	1.13
453.023	1.17
453.224	1.1
453.426	0.99
453.627	0.98
453.828	1
454.03	0.97
454.231	1.06
454.432	0.93
454.634	0.98
454.835	0.91
455.036	0.92
455.238	0.91
455.439	0.94
455.64	0.81
455.841	0.78
456.042	0.96
456.244	0.84
456.445	0.75
456.646	0.68
456.847	0.73
457.048	0.76
457.249	0.79
457.45	0.99
457.651	0.67
457.852	0.74
458.054	0.64
458.255	0.6
458.456	0.64
458.657	0.59
458.858	0.58
459.058	0.61
459.259	0.67
459.46	0.56
459.661	0.59
459.862	0.75
460.063	0.57
460.264	0.63
460.465	0.45
460.666	0.67
460.866	0.45
461.067	0.48
461.268	0.48
461.469	0.45
461.67	0.49
461.87	0.44
462.071	0.45
462.272	0.44
462.473	0.46
462.673	0.54
462.874	0.42
463.075	0.44
463.275	0.41
463.476	0.45
463.676	0.46
463.877	0.46
464.078	0.39
464.278	0.49
464.479	0.39
464.679	0.42
464.88	0.37
465.08	0.48
465.281	0.32
465.481	0.39
465.682	0.38
465.882	0.35
466.083	0.34
466.283	0.35
466.483	0.32
466.684	0.3
466.884	0.29
467.085	0.31
467.285	0.35
467.485	0.25
467.686	0.29
467.886	0.24
468.086	0.3
468.286	0.28
468.487	0.3
468.687	0.25
468.887	0.26
469.087	0.32
469.287	0.27
469.488	0.22
469.688	0.3
469.888	0.29
470.088	0.32
470.288	0.3
470.488	0.28
470.688	0.21
470.888	0.24
471.088	0.17
471.288	0.27
471.488	0.27
471.688	0.25
471.888	0.25
472.088	0.3
472.288	0.33
472.488	0.16
472.688	0.24
472.888	0.25
473.088	0.17
473.288	0.22
473.488	0.22
473.688	0.28
473.887	0.21
474.087	0.15
474.287	0.22
474.487	0.2
474.687	0.24
474.886	0.19
475.086	0.2
475.286	0.19
475.486	0.18
475.685	0.18
475.885	0.17
476.085	0.16
476.284	0.21
476.484	0.17
476.684	0.18
476.883	0.24
477.083	0.17
477.282	0.13
477.482	0.21
477.681	0.21
477.881	0.17
478.08	0.11
478.28	0.13
478.479	0.18
478.679	0.23
478.878	0.11
479.078	0.13
479.277	0.16
479.477	0.17
479.676	0.2
479.875	0.17
480.075	0.06
480.274	0.16
480.473	0.17
480.673	0.13
480.872	0.17
481.071	0.12
481.271	0.13
481.47	0.12
481.669	0.14
481.868	0.1
482.067	0.11
482.267	0.11
482.466	0.11
482.665	0.07
482.864	0.11
483.063	0.07
483.262	0.12
483.461	0.17
483.661	0.13
483.86	0.11
484.059	0.14
484.258	0.12
484.457	0.11
484.656	0.13
484.855	0.13
485.054	0.08
485.253	0.09
485.452	0.07
485.651	0.1
485.849	0.08
486.048	0.08
486.247	0.09
486.446	0.09
486.645	0.05
486.844	0.07
487.043	0.09
487.241	0.13
487.44	0.06
487.639	0.09
487.838	0.13
488.037	0.1
488.235	0.14
488.434	0.1
488.633	0.06
488.831	0.12
489.03	0.12
489.229	0.11
489.427	0.08
489.626	0.14
489.825	0.15
490.023	0.1
490.222	0.06
490.42	0.09
490.619	0.14
490.817	0.12
491.016	0.08
491.214	0.12
491.413	0.08
491.611	0.07
491.81	0.09
492.008	0.08
492.207	0.12
492.405	0.1
492.604	0.05
492.802	0.07
493	0.08
493.199	0.08
493.397	0.08
493.595	0.07
493.794	0.04
493.992	0.12
494.19	0.09
494.388	0.09
494.587	0.04
494.785	0.08
494.983	0.03
495.181	0.09
495.379	0.06
495.578	0.04
495.776	0.07
495.974	0.1
496.172	0.06
496.37	0.04
496.568	0.06
496.766	0.06
496.964	0.1
497.162	0.07
497.36	0.05
497.558	0.1
497.756	0.09
497.954	0.07
498.152	0.04
498.35	0.06
498.548	0.07
498.746	0.07
498.944	0.02
499.142	0.04
499.34	0.04
499.538	0.06
499.736	0.04
499.933	0.11
500.131	0.1
500.329	0.07
500.527	0.09
500.725	0.09
500.922	0.08
501.12	0.07
501.318	0.08
501.516	0.04
501.713	0.07
501.911	0.05
502.109	0.03
502.306	0.07
502.504	0.03
502.701	0.04
502.899	0.07
503.097	0.11
503.294	0.08
503.492	0.07
503.689	0.05
503.887	0.09
504.084	0.12
504.282	0.06
504.479	0.05
504.677	0.05
504.874	0.04
505.072	0.05
505.269	0.05
505.466	0.08
505.664	0.07
505.861	0.02
506.059	0.03
506.256	0.1
506.453	0.03
506.651	0.1
506.848	0.09
507.045	0.06
507.242	0.05
507.44	0.06
507.637	0.05
507.834	0.05
508.031	0.08
508.229	0.04
508.426	0.05
508.623	0.08
508.82	0.04
509.017	0.04
509.214	0.07
509.411	0.05
509.608	0.03
509.805	0.04
510.003	0.04
510.2	0.06
510.397	0.07
510.594	0.05
510.791	0.03
510.988	0.03
511.184	0.09
511.381	0.06
511.578	0.01
511.775	0.09
511.972	0.05
512.169	0.05
512.366	0.05
512.563	0.05
512.76	0.02
512.956	0.08
513.153	0.05
513.35	0.05
513.547	0.04
513.744	0.05
513.94	0.02
514.137	0.05
514.334	0.04
514.53	0.06
514.727	0.05
514.924	0.1
515.12	0.04
515.317	0.01
515.514	0.04
515.71	0.03
515.907	0.02
516.103	0.05
516.3	0.04
516.497	0.07
516.693	0.09
516.89	0.03
517.086	0.02
517.283	0.08
517.479	0.06
517.676	0.04
517.872	0.01
518.068	0.03
518.265	0.02
518.461	0.02
518.658	0.02
518.854	0.06
519.05	0.04
519.247	0.02
519.443	0.05
519.639	0.04
519.836	0.04
520.032	0.04
520.228	0.05
520.424	0.07
520.621	0.06
520.817	0.04
521.013	0.07
521.209	0.04
521.405	0.08
521.601	0.05
521.798	0.06
521.994	0.07
522.19	0.05
522.386	0.01
522.582	0.02
522.778	0.04
522.974	0.02
523.17	0.03
523.366	0.08
523.562	0.07
523.758	0.04
523.954	0.02
524.15	0.02
524.346	0.06
524.542	0.02
524.738	0.02
524.934	0.03
525.129	0.03
525.325	0.04
525.521	0.03
525.717	0.04
525.913	0.04
526.109	0.03
526.304	0.03
526.5	0.05
526.696	0.07
526.892	0.05
527.087	0.04
527.283	0.02
527.479	0.05
527.674	0.02
527.87	0.03
528.066	0.03
528.261	0.04
528.457	0.05
528.653	0.03
528.848	0.03
529.044	0.05
529.239	0.03
529.435	0.06
529.63	0.05
529.826	0.09
530.021	0.06
530.217	0.06
530.412	0.03
530.608	0.03
530.803	0.05
530.999	0.01
531.194	-0.01
531.389	0.03
531.585	-0.02
531.78	0.03
531.975	0.02
532.171	0.06
532.366	0.04
532.561	0.04
532.757	0.02
532.952	0.02
533.147	0.08
533.342	0.04
533.538	0.03
533.733	0.06
533.928	0.04
534.123	0.03
534.318	0.01
534.513	0.04
534.709	0.03
534.904	0.02
535.099	0.02
535.294	0.03
535.489	0.04
535.684	0.04
535.879	0.02
536.074	0.04
536.269	0.01
536.464	0.04
536.659	0.03
536.854	0.04
537.049	0.05
537.244	0.04
537.439	0.03
537.634	0.04
537.828	0.02
538.023	0.03
538.218	0
538.413	0.05
538.608	-0.01
538.803	0.04
538.997	-0
539.192	0.06
539.387	0.05
539.582	0.05
539.776	0.06
539.971	0.01
540.166	0.03
540.36	0.01
540.555	0.03
540.75	0.02
540.944	0.05
541.139	0
541.334	0.01
541.528	0.05
541.723	0.06
541.917	0.01
542.112	-0.01
542.306	0.05
542.501	0.04
542.695	0.03
542.89	0.02
543.084	0.03
543.279	-0
543.473	0.02
543.668	0.03
543.862	0.03
544.056	0.02
544.251	0.04
544.445	0.04
544.64	0.02
544.834	0.02
545.028	0.02
545.222	0.03
545.417	0.05
545.611	0.05
545.805	0.04
546	0.02
546.194	0.02
546.388	0.02
546.582	0.05
546.776	0.05
546.97	0.03
547.165	0.05
547.359	0.06
547.553	0.02
547.747	0.02
547.941	0.03
548.135	0
548.329	0.05
548.523	0.06
548.717	0.03
548.911	0.03
549.105	0.01
549.299	0.05
549.493	0.07
549.687	0.03
549.881	0.08
550.075	0.02
550.269	0.01
550.463	0.03
550.657	0.02
550.85	0.03
551.044	0.02
551.238	0.04
551.432	-0
551.626	0
551.82	0.04
552.013	0.01
552.207	0.02
552.401	0.03
552.594	0.04
552.788	0.04
552.982	0.02
553.176	0.01
553.369	0.04
553.563	0.03
553.756	-0.02
553.95	-0
554.144	0.02
554.337	0.04
554.531	0.04
554.724	0.03
554.918	0.02
555.111	0.05
555.305	0.02
555.498	0.09
555.692	0.06
555.885	0.02
556.079	0.04
556.272	0.02
556.466	0.06
556.659	0.04
556.852	0.02
557.046	0.02
557.239	0.04
557.432	-0
557.626	0.01
557.819	0.02
558.012	0.05
558.206	0.04
558.399	0.02
558.592	0.04
558.785	0.02
558.979	0.04
559.172	0.05
559.365	0.06
559.558	0.02
559.751	0.02
559.944	0.05
560.138	0.03
560.331	0.03
560.524	-0.01
560.717	0.01
560.91	0.02
561.103	0.03
561.296	0.04
561.489	0.01
561.682	0.03
561.875	0.07
562.068	0.05
562.261	0.06
562.454	0.06
562.647	0.05
562.84	0.05
563.032	0.01
563.225	0.05
563.418	0.03
563.611	0.01
563.804	0.04
563.997	-0
564.19	0
564.382	0.03
564.575	0
564.768	0.03
564.961	0.01
565.153	0.03
565.346	0.05
565.539	0.04
565.731	0.04
565.924	0.04
566.117	0.04
566.309	0.02
566.502	-0.01
566.695	0.02
566.887	0.02
567.08	-0.02
567.272	0.03
567.465	-0.01
567.657	0.02
567.85	0.03
568.042	0.04
568.235	0.05
568.427	0.04
568.62	0.04
568.812	0.04
569.005	0.03
569.197	0.01
569.389	0.02
569.582	0.03
569.774	0.04
569.966	-0.01
570.159	-0.01
570.351	0.03
570.543	-0
570.736	0.02
570.928	0.01
571.12	0.03
571.312	-0
571.505	-0
571.697	0.06
571.889	0.02
572.081	0.01
572.273	-0
572.465	0.05
572.658	0.02
572.85	0.05
573.042	0.01
573.234	0.04
573.426	0.05
573.618	0.02
573.81	0.02
574.002	0.04
574.194	0.06
574.386	-0.02
574.578	-0.04
574.77	-0.01
574.962	0.02
575.154	0
575.346	0.01
575.538	0.04
575.729	0.02
575.921	0.02
576.113	0
576.305	0.04
576.497	0.01
576.689	0.02
576.88	-0.02
577.072	0.06
577.264	0.02
577.456	-0.01
577.647	-0.06
577.839	0.05
578.031	0.07
578.223	-0.01
578.414	-0
578.606	0.04
578.798	0.04
578.989	0
579.181	0.02
579.372	0.01
579.564	0.02
579.755	0.02
579.947	0.04
580.139	0.03
580.33	-0.02
580.522	0
580.713	-0.07
580.905	0.02
581.096	0.05
581.287	0.03
581.479	0.04
581.67	0.04
581.862	0.02
582.053	-0
582.244	-0.03
582.436	0.02
582.627	0.03
582.818	-0
583.01	0.02
583.201	0.05
583.392	0.06
583.583	0.03
583.775	0.02
583.966	0
584.157	-0
584.348	0.01
584.54	-0.01
584.731	0.04
584.922	0.02
585.113	-0.03
585.304	0.02
585.495	0.04
585.686	0.05
585.877	0.06
586.068	0.02
586.259	0.03
586.45	0.03
586.641	-0.01
586.832	-0.04
587.023	0.04
587.214	0.03
587.405	0.04
587.596	0
587.787	0.06
587.978	0.01
588.169	-0.01
588.36	0.01
588.551	0.02
588.742	-0.02
588.932	0.03
589.123	0.01
589.314	0.06
589.505	0.02
589.696	0.01
589.886	-0.01
590.077	-0.02
590.268	0.03
590.458	-0.03
590.649	-0.01
590.84	0.06
591.03	0.01
591.221	-0.03
591.412	-0.01
591.602	0.04
591.793	0.06
591.984	-0.02
592.174	0.02
592.365	0.07
592.555	-0.02
592.746	0.04
592.936	0.02
593.127	0.05
593.317	0.06
593.508	0.01
593.698	0.01
593.889	0.02
594.079	-0.01
594.269	0
594.46	0.01
594.65	0.03
594.84	0.01
595.031	0.01
595.221	-0.03
595.411	-0.04
595.602	0.05
595.792	0.01
595.982	0
596.172	0.08
596.363	0.02
596.553	0.05
596.743	0.02
596.933	0.02
597.123	0.04
597.314	-0.02
597.504	-0.01
597.694	0.03
597.884	0.07
598.074	-0.01
598.264	-0.01
598.454	0.02
598.644	0.02
598.834	0.02
599.024	-0.05
599.214	0
599.404	0.02
599.594	0.01
599.784	-0.01
599.974	0.09
600.164	0.02
600.354	-0.01
600.544	-0.03
600.734	0.03
600.924	0.07
601.114	-0.02
601.303	0.02
601.493	0.06
601.683	0
601.873	0.05
602.063	-0.03
602.252	0.03
602.442	-0.07
602.632	-0.01
602.821	-0.01
603.011	0.06
603.201	0.01
603.39	-0.01
603.58	-0
603.77	0.03
603.959	0.05
604.149	0.03
604.339	-0
604.528	0.06
604.718	0.05
604.907	-0
605.097	-0.02
605.286	-0.03
605.476	0.05
605.665	0.04
605.855	-0.01
606.044	0.06
606.234	0.03
606.423	0.01
606.612	-0.01
606.802	0.03
606.991	0.04
607.181	0.01
607.37	-0.02
607.559	0.03
607.749	-0.01
607.938	0.02
608.127	0.02
608.316	0.02
608.506	0.03
608.695	-0
608.884	-0
609.073	0.02
609.263	0.02
609.452	0.03
609.641	0.04
609.83	-0.02
610.019	0.01
610.208	-0.01
610.397	0.01
610.586	0.07
610.775	0.03
610.965	0.01
611.154	0.03
611.343	0.03
611.532	0.01
611.721	-0.06
611.91	-0
612.099	0.01
612.287	-0.02
612.476	-0.01
612.665	0.01
612.854	-0.01
613.043	0.06
613.232	0.01
613.421	-0.03
613.61	0.03
613.798	0
613.987	0.03
614.176	0.03
614.365	0.04
614.554	0.02
614.742	0.05
614.931	-0.02
615.12	0.05
615.309	0.01
615.497	0.03
615.686	-0
615.875	-0.01
616.063	0.04
616.252	-0.01
616.44	0
616.629	0.03
616.818	0.04
617.006	0.02
617.195	-0.03
617.383	0.05
617.572	0.03
617.76	-0
617.949	-0
618.137	0.02
618.326	0.03
618.514	-0.01
618.703	-0.01
618.891	0.06
619.079	-0
619.268	0.05
619.456	-0.01
619.644	0.08
619.833	-0
620.021	-0
620.209	-0.07
620.398	0.04
620.586	0.02
620.774	0.05
620.962	0
621.151	0.07
621.339	0.03
621.527	-0.03
621.715	-0.03
621.903	-0.01
622.092	-0.03
622.28	0.03
622.468	0.02
622.656	-0.03
622.844	0.03
623.032	-0
623.22	-0.05
623.408	0.07
623.596	0.03
623.784	0.06
623.972	0.01
624.16	-0.03
624.348	0.06
624.536	0.01
624.724	-0.01
624.912	0.04
625.1	0.05
625.288	-0.02
625.476	-0.02
625.664	0.04
625.851	-0.02
626.039	0.01
626.227	0.03
626.415	0.01
626.603	-0.06
626.79	0
626.978	0
627.166	0
627.354	-0.01
627.541	-0
627.729	-0.03
627.917	0.07
628.104	0.04
628.292	0.01
628.48	0.02
628.667	0.05
628.855	0.05
629.042	0.02
629.23	-0.01
629.418	-0.01
629.605	0.03
629.793	-0
629.98	-0
630.168	-0.02
630.355	-0.01
630.543	0.01
630.73	-0
630.917	0.03
631.105	0.08
631.292	-0
631.48	0.01
631.667	0.1
631.854	0.01
632.042	-0.01
632.229	-0.02
632.416	-0.01
632.604	0.02
632.791	-0.04
632.978	0.05
633.165	-0.01
633.353	0.09
633.54	0.07
633.727	-0.04
633.914	-0.01
634.101	-0.04
634.289	0.04
634.476	-0.02
634.663	-0.02
634.85	0.05
635.037	-0.04
635.224	-0.05
635.411	0.04
635.598	0.06
635.785	0.02
635.972	-0
636.159	0.04
636.346	-0.01
636.533	-0
636.72	-0.01
636.907	-0.01
637.094	0.04
637.281	0.01
637.468	0.03
637.655	-0.03
637.842	0.02
638.029	-0.02
638.215	0.04
638.402	0.02
638.589	0.01
638.776	0.01
638.963	-0
639.149	0.04
639.336	0.09
639.523	-0.03
639.709	-0.02
639.896	0
640.083	0.09
640.27	0.05
640.456	-0.01
640.643	0.03
640.829	-0.03
641.016	0
641.203	-0.03
641.389	0.03
641.576	0.05
641.762	0.04
641.949	-0.03
642.135	0.02
642.322	0.02
642.508	-0.04
642.695	0.03
642.881	-0.02
643.068	-0.01
643.254	0.02
643.441	0.04
643.627	0
643.813	-0.03
644	0.06
644.186	-0.02
644.372	0.05
644.559	0.05
644.745	0.01
644.931	-0.02
645.118	-0
645.304	0.01
645.49	-0.01
645.676	0.02
645.862	0.06
646.049	0.05
646.235	0.03
646.421	0.08
646.607	0.05
646.793	-0
646.979	-0.03
647.165	0.05
647.352	0.02
647.538	0.09
647.724	0.02
647.91	0.03
648.096	0.03
648.282	0.05
648.468	0.01
648.654	-0.01
648.84	0.02
649.026	0.02
649.212	-0.02
649.397	-0.02
649.583	0
649.769	0.03
649.955	-0
650.141	0.02
650.327	0.08
650.513	0.01
650.698	0.03
650.884	-0.06
651.07	-0
651.256	0.05
651.442	0.01
651.627	-0
651.813	0.05
651.999	0.03
652.184	0.04
652.37	0.01
652.556	0
652.741	0.07
652.927	-0.05
653.113	-0.01
653.298	0.02
653.484	0.02
653.669	-0.05
653.855	0.01
654.04	0.05
654.226	0.03
654.412	-0
654.597	-0.05
654.782	0.02
654.968	0.03
655.153	0.04
655.339	-0.01
655.524	-0.05
655.71	0.03
655.895	-0.05
656.08	0.01
656.266	0.04
656.451	0.02
656.636	-0.05
656.822	-0.02
657.007	-0.03
657.192	-0.05
657.378	-0.04
657.563	0.01
657.748	0.03
657.933	0.03
658.118	-0.03
658.304	-0.02
658.489	0.05
658.674	0.04
658.859	-0.02
659.044	0.01
659.229	0.04
659.414	0
659.599	-0
659.785	-0.03
659.97	-0.04
660.155	0
660.34	0.03
660.525	0.04
660.71	0.03
660.895	0.02
661.08	-0.03
661.264	-0.03
661.449	0.08
661.634	0.03
661.819	0
662.004	0.03
662.189	-0.02
662.374	-0.04
662.559	-0.03
662.743	-0.03
662.928	-0
663.113	-0.03
663.298	-0.05
663.483	-0.01
663.667	0.03
663.852	-0.02
664.037	0.07
664.221	-0.01
664.406	0.02
664.591	0.07
664.775	-0.01
664.96	0.01
665.145	-0.03
665.329	0.06
665.514	0
665.698	-0.01
665.883	-0.06
666.068	0.1
666.252	0.03
666.437	-0.05
666.621	0.03
666.806	0.06
666.99	0.01
667.174	-0.06
667.359	0.12
667.543	0.01
667.728	-0
667.912	-0.04
668.096	0.02
668.281	-0.01
668.465	-0
668.649	-0
668.834	-0
669.018	-0.01
669.202	-0.04
669.387	-0.07
669.571	0.08
669.755	-0.01
669.939	-0.03
670.124	0.01
670.308	0.09
670.492	0.06
670.676	0.02
670.86	0.02
671.044	-0.02
671.228	0.01
671.413	-0
671.597	-0.06
671.781	-0.01
671.965	0.01
672.149	-0.01
672.333	-0.02
672.517	-0.02
672.701	0.04
672.885	-0.02
673.069	-0.07
673.253	0.05
673.437	0.02
673.621	-0.04
673.804	-0.04
673.988	0.05
674.172	0
674.356	-0.08
674.54	0.02
674.724	0.12
674.908	0.03
675.091	0.05
675.275	0
675.459	0.08
675.643	-0.01
675.826	0.01
676.01	-0
676.194	-0
676.377	0.06
676.561	0.05
676.745	0.01
676.928	-0.02
677.112	0.07
677.296	-0
677.479	-0.01
677.663	-0.02
677.846	0.02
678.03	-0.01
678.213	-0.03
678.397	0.02
678.58	-0.03
678.764	-0.02
678.947	-0.01
679.131	-0.08
679.314	0.03
679.498	0.02
679.681	0.03
679.865	0.08
680.048	-0.03
680.231	0.03
680.415	-0
680.598	-0.01
680.781	0.01
680.965	-0.02
681.148	-0.01
681.331	-0.01
681.514	0.01
681.698	-0.01
681.881	0.02
682.064	0.01
682.247	0.03
682.43	-0.08
682.614	0.08
682.797	0.03
682.98	0.09
683.163	-0.03
683.346	0.06
683.529	0.01
683.712	-0.04
683.895	0.07
684.078	-0.03
684.261	-0.04
684.444	0.01
684.627	0.07
684.81	-0.03
684.993	0.03
685.176	0.06
685.359	-0.03
685.542	-0.01
685.725	0.04
685.908	-0.01
686.091	-0.02
686.274	0.04
686.457	0.06
686.639	0
686.822	0.05
687.005	0.01
687.188	0.06
687.371	0.11
687.553	-0
687.736	0.03
687.919	0.08
688.102	0.07
688.284	0.01
688.467	0.03
688.65	0.02
688.832	-0.01
689.015	0.01
689.197	-0.09
689.38	0.16
689.563	0.11
689.745	-0.04
689.928	-0.05
690.11	0.02
690.293	0.04
690.475	-0.08
690.658	0.05
690.84	-0.03
691.023	-0.01
691.205	-0.01
691.388	0.04
691.57	0.07
691.752	0.04
691.935	-0.09
692.117	0.03
692.3	0.05
692.482	0
692.664	0.03
692.847	0.06
693.029	0.1
693.211	0.01
693.393	0.05
693.576	-0.04
693.758	0
693.94	0.05
694.122	-0.01
694.304	-0.03
694.487	0
694.669	0.11
694.851	-0.09
695.033	0.01
695.215	-0
695.397	-0.03
695.579	0.02
695.761	-0.03
695.943	-0.06
696.125	0.03
696.308	0.03
696.49	-0.09
696.671	0.14
696.853	0
697.035	0.16
697.217	0.03
697.399	0.05
697.581	-0.02
697.763	-0.07
697.945	-0.04
698.127	-0.03
698.309	0.08
698.491	0.02
698.672	0.02
698.854	0.02
699.036	0.11
699.218	0.03
699.399	0.04
699.581	0.13
699.763	0.06
699.945	-0.04
700.126	-0.02
700.308	0.01
700.49	0.04
700.671	-0.09
700.853	-0.1
701.035	-0
701.216	0.04
701.398	-0.06
701.579	0.04
701.761	0.07
701.943	-0.04
702.124	-0.04
702.306	-0.01
702.487	0.12
702.669	-0
702.85	0.05
703.031	-0.05
703.213	0.13
703.394	0.11
703.576	-0.02
703.757	0.04
703.938	0.05
704.12	0.2
704.301	-0
704.483	-0.06
704.664	0.01
704.845	0.11
705.026	0.04
705.208	0.01
705.389	0.06
705.57	0.06
705.751	-0.04
705.933	0.02
706.114	0.12
706.295	0.04
706.476	-0.05
706.657	0.1
706.838	-0
707.02	0.09
707.201	-0.05
707.382	-0.08
707.563	0
707.744	0.01
707.925	-0.03
708.106	-0.05
708.287	0.01
708.468	0.1
708.649	0.03
708.83	0.02
709.011	0.02
709.192	0.03
709.373	-0.11
709.554	-0.01
709.734	0.14
709.915	0.04
710.096	0.02
710.277	-0.14
710.458	0.02
710.639	0.09
710.819	-0.06
711	-0
711.181	0.03
711.362	0.12
711.542	0.05
711.723	-0
711.904	0.05
712.085	0.08
712.265	-0
712.446	-0.02
712.627	-0.04
712.807	0.04
712.988	0.04
713.168	-0.06
713.349	0.07
713.53	-0.04
713.71	-0.07
713.891	-0
714.071	0.02
714.252	-0.02
714.432	0.03
714.613	-0.12
714.793	0.03
714.974	0.11
715.154	0.07
715.334	0.08
715.515	0.07
715.695	-0.07
715.876	-0.01
716.056	-0.03
716.236	0.06
716.417	-0.01
716.597	-0.04
716.777	0.14
716.957	0.02
717.138	-0.05
717.318	0.01
717.498	-0.09
717.678	0.05
717.859	-0
718.039	-0.08
718.219	0
718.399	0.05
718.579	0
718.759	-0.02
718.939	-0
719.12	0.04
719.3	0.05
719.48	-0.08
719.66	-0.14
719.84	0.07
720.02	0.03
720.2	-0.03
720.38	-0.01
720.56	0.08
720.74	-0.02
720.92	-0.01
721.1	0.15
721.279	0.09
721.459	0.04
721.639	-0.12
721.819	0
721.999	-0.09
722.179	0.11
722.359	-0.04
722.538	-0.04
722.718	-0.01
722.898	0.02
723.078	0.02
723.257	-0.05
723.437	0.02
723.617	0.04
723.797	0.05
723.976	-0.02
724.156	-0.01
724.336	0.12
724.515	0.14
724.695	-0.14
724.874	0.03
725.054	0.04
725.234	-0.04
725.413	0.03
725.593	-0.04
725.772	0.01
725.952	-0.09
726.131	-0.01
726.311	0.06
726.49	-0.01
726.67	-0.04
726.849	-0.06
727.028	0.04
727.208	0.03
727.387	0.01
727.567	-0.04
727.746	-0.01
727.925	-0.04
728.105	-0.08
728.284	-0.08
728.463	0.03
728.643	0.08
728.822	-0.08
729.001	-0.04
729.18	0.04
729.359	0.05
729.539	0.06
729.718	0.06
729.897	0.02
730.076	-0.07
730.255	-0.01
730.434	0.06
730.614	0.08
730.793	0.12
730.972	-0.04
731.151	0.04
731.33	0.11
731.509	0.05
731.688	0.06
731.867	0.02
732.046	-0.14
732.225	0.23
732.404	-0.05
732.583	-0.12
732.762	0.06
732.941	0.09
733.12	0.01
733.298	-0.08
733.477	0.07
733.656	0.02
733.835	-0.03
734.014	0.15
734.193	0.06
734.371	0.04
734.55	0.1
734.729	-0.12
734.908	0.01
735.086	0.01
735.265	0.03
735.444	-0.15
735.623	-0.05
735.801	-0.03
735.98	0.04
736.159	0
736.337	0.05
736.516	0.04
736.694	-0.03
736.873	0.04
737.052	0.14
737.23	0.14
737.409	-0.06
737.587	0.1
737.766	-0.16
737.944	-0.07
738.123	0.11
738.301	0.06
738.479	0.03
738.658	0.02
738.836	-0.2
739.015	0.12
739.193	0.14
739.371	-0.12
739.55	-0.06
739.728	-0.11
739.906	0.22
740.085	0.15
740.263	0.09
740.441	-0.19
740.62	0.23
740.798	0.11
740.976	-0.11
741.154	-0.08
741.332	0.16
741.511	-0.01
741.689	0.05
741.867	0.04
742.045	0.07
742.223	0.04
742.401	-0.14
742.579	-0.08
742.757	0.14
742.935	-0.13
743.114	0.01
743.292	0.03
743.47	-0.05
743.648	0.03
743.826	0.04
744.004	0.08
744.181	0.12
744.359	-0.08
744.537	0.03
744.715	0.01
744.893	0.03
745.071	0.05
745.249	-0.07
745.427	-0.08
745.605	0.05
745.782	0.04
745.96	0.04
746.138	-0.01
746.316	0.13
746.493	-0.03
746.671	0.08
746.849	-0.06
747.027	0.34
747.204	-0.04
747.382	0.12
747.56	-0.12
747.737	-0.17
747.915	-0.08
748.093	0.03
748.27	-0.01
748.448	0.04
748.625	-0.02
748.803	-0.05
748.98	0.01
749.158	0.02
749.335	0.18
749.513	0.01
749.69	-0.04
749.868	0.01
750.045	0.08
750.223	-0.02
750.4	-0.24
750.578	0.19
750.755	0
750.932	-0.21
751.11	0.23
751.287	-0.09
751.464	0.16
751.642	-0.04
751.819	0.05
751.996	0.11
752.173	0.02
752.351	-0.09
752.528	0.11
752.705	0.13
752.882	-0
753.06	0.12
753.237	0.07
753.414	0.15
753.591	0.21
753.768	-0.01
753.945	-0.02
754.122	-0.03
754.299	0.12
754.476	-0.08
754.654	0.04
754.831	0.13
755.008	0.02
755.185	-0.08
755.362	-0.08
755.539	-0.01
755.716	0.01
755.892	-0.07
756.069	-0.06
756.246	0
756.423	-0.05
756.6	0.02
756.777	0.02
756.954	0.22
757.131	0.02
757.307	-0.08
757.484	-0.1
757.661	0.06
757.838	0.08
758.015	-0.07
758.191	0.06
758.368	0.07
758.545	0.27
758.721	0.06
758.898	-0.11
759.075	-0.01
759.251	0.1
759.428	0.03
759.605	-0.11
759.781	-0.03
759.958	0.13
760.134	-0.01
760.311	-0.05
760.488	0.15
760.664	0.2
760.841	0.06
761.017	-0.15
761.194	0.08
761.37	0.19
761.547	0.03
761.723	0.08
761.899	0.14
762.076	0.05
762.252	-0.11
762.429	-0.04
762.605	0.16
762.781	-0.01
762.958	0.13
763.134	-0.05
763.31	-0.1
763.486	0.21
763.663	-0.16
763.839	0.1
764.015	-0.19
764.191	-0.03
764.368	-0
764.544	-0.2
764.72	-0.04
764.896	0.23
765.072	0.01
765.248	0.01
765.425	-0.01
765.601	-0.04
765.777	0.06
765.953	-0.12
766.129	-0.05
766.305	0.02
766.481	0.03
766.657	-0.02
766.833	0.06
767.009	-0.07
767.185	-0.07
767.361	-0.07
767.537	-0.1
767.713	0.16
767.889	-0.03
768.065	0.03
768.24	-0.15
768.416	0.1
768.592	-0.11
768.768	0.08
768.944	0.17
769.12	-0.06
769.295	-0.05
769.471	0
769.647	-0.07
769.823	0.1
769.998	-0.17
770.174	-0.13
770.35	0.45
770.525	0.13
770.701	-0.03
770.877	0.06
771.052	-0.08
771.228	0.07
771.403	0.03
771.579	0.11
771.755	0.47
771.93	-0.02
772.106	-0
772.281	-0.15
772.457	-0.05
772.632	-0.05
772.808	-0.11
772.983	0.09
773.159	-0.22
773.334	0.16
773.509	0.05
773.685	-0.05
773.86	0.44
774.036	0.35
774.211	-0.05
774.386	0.04
774.562	0.07
774.737	0.09
774.912	-0.13
775.087	0.13
775.263	0.07
775.438	0.15
775.613	-0.18
775.788	-0.01
775.964	0.1
776.139	0.39
776.314	-0.18
776.489	0.09
776.664	-0.04
776.839	-0.09
777.014	0.13
777.19	0.08
777.365	0.31
777.54	0.31
777.715	0.06
777.89	0.02
778.065	-0.14
778.24	-0.01
778.415	0.2
778.59	-0.17
778.765	-0.03
778.94	0.1
779.115	0.03
779.289	0.05
779.464	-0.07
779.639	0.03
779.814	-0.11
779.989	-0.21
780.164	0.28
780.339	0.16
780.513	-0.13
780.688	-0.08
780.863	-0.03
781.038	0.03
781.212	-0.01
781.387	-0.02
781.562	0.53
781.737	-0.01
781.911	0.07
782.086	-0.05
782.261	0.03
782.435	0.41
782.61	-0.12
782.784	0.13
782.959	0.4
783.134	-0.05
783.308	-0.05
783.483	-0.02
783.657	0.46
783.832	0.25
784.006	-0.36
784.181	0.03
784.355	0.28
784.53	-0
784.704	-0.27
784.878	0.34
785.053	0.06
785.227	0.26
785.402	0.36
785.576	-0.01
785.75	0.05
785.925	0.05
786.099	0.08
786.273	0.02
786.448	0.22
786.622	0.28
786.796	0.05
786.97	-0.14
787.145	0.4
787.319	-0.03
787.493	-0.1
787.667	-0.51
787.841	-0.04
788.015	0.27
788.19	-0.03
788.364	-0.05
788.538	0.45
788.712	0.16
788.886	-0.12
789.06	0.25
789.234	0.25
789.408	-0.03
789.582	0.19
789.756	-0.14
789.93	-0.07
790.104	-0.13
790.278	-0.03
790.452	-0.16
790.626	0.08
790.8	0.01
790.973	0.06
791.147	0.24
791.321	0.44
791.495	0.42
791.669	0.07
791.843	0.08
792.016	-0.07
792.19	0.51
792.364	0.03
792.538	0.48
792.711	0.28
792.885	0.02
793.059	-0.16
793.233	-0.5
793.406	0.14
793.58	-0.07
793.754	0.06
793.927	0.18
794.101	0.15
794.274	-0.08
794.448	0.21
794.622	-0.29
794.795	0.28
794.969	-0.17
795.142	0.39
795.316	0.12
795.489	-0.01
795.663	0.52
795.836	0.24
796.009	-0.3
796.183	0.43
796.356	0.45
796.53	0.11
796.703	-0.04
796.876	0.44
797.05	-0.08
797.223	-0.01
797.396	0.19
797.57	-0.01
797.743	0.23
797.916	0.27
798.09	-0.06
798.263	0.44
798.436	0.17
798.609	-0.38
798.782	-0.28
798.956	0.21
799.129	0.03
799.302	-0.28
799.475	-0.25
799.648	-0.02
799.821	-0.05
799.994	-0.07
800.167	-0.33
800.34	-0.11
800.514	-0.19
800.687	-0.1
800.86	-0.08
801.033	0.03
801.206	0.03
801.379	-0.31
801.551	0.33
801.724	0.39
801.897	0.38
802.07	-0.09
802.243	-0.65
802.416	-0.08
802.589	-0.33
802.762	0.14
802.935	0.08
803.107	0.29
803.28	0.8
803.453	0.37
803.626	0.08
803.798	-0.08
803.971	-0.14
804.144	0.03
804.317	0.35
804.489	0.55
804.662	0.31
804.835	0.19
805.007	-0.33
805.18	0.58
805.353	0.33
805.525	-0.28
805.698	-0.16
805.87	0.08
806.043	0.41
806.215	-0.4
806.388	-0.15
806.56	0.1
806.733	0.23
806.905	-0.02
807.078	-0.09
807.25	-0.41
807.423	0.29
807.595	0.18
807.768	0.22
807.94	0.05
808.112	0.2
808.285	0.02
808.457	-0.2
808.629	-0.28
808.802	0.49
808.974	-0.05
809.146	-0
809.318	-0.21
809.491	-0
809.663	0.41
809.835	-0.34
810.007	0.25
810.18	0.1
810.352	-0.42
810.524	-0.15
810.696	-0.03
810.868	0.39
811.04	-0.12
811.212	0.23
811.384	0.26
811.556	-0.05
811.728	-0
811.901	0.83
812.073	-0.17
812.245	0.15
812.417	0.07
812.589	-0.37
812.76	0.12
812.932	0.24
813.104	0.35
813.276	-0.11
813.448	0.37
813.62	0.11
813.792	0.27
813.964	-0.02
814.136	0.46
814.307	-0.21
814.479	-0.24
814.651	-0.45
814.823	0.73
814.995	0.06
815.166	0.17
815.338	0.05
815.51	-0.38
815.681	0.79
815.853	-0.26
816.025	-0.49
816.196	0.68
816.368	0.3
816.54	-0.42
816.711	-0.07
816.883	0.26
817.054	0.94
817.226	-0.4
817.398	0.12
817.569	-0.25
817.741	0.21
817.912	-0.05
818.084	0.06
818.255	0.17
818.426	0.06
818.598	-0.52
818.769	-0.35
818.941	0.67
819.112	0.89
819.283	0.42
819.455	-0.49
819.626	0.19
819.798	0.46
819.969	0.24
820.14	-0.11
820.311	-0.29
820.483	-0.01
820.654	0.21
820.825	-0.02
820.996	0.19
821.168	-0.39
821.339	-0.15
821.51	-0.29
821.681	-0.01
821.852	-0.02
822.023	-0.45
822.195	-0.51
822.366	0.43
822.537	0.12
822.708	-0.02
822.879	0.01
823.05	0.75
823.221	-0.03
823.392	0.28
823.563	-0.53
823.734	-0.06
823.905	0.19
824.076	0.28
824.247	-0.9
824.418	-0.24
824.589	0.48
824.759	-0.2
824.93	0.22
825.101	-0.58
825.272	0.25
825.443	0.41
825.614	0.34
825.784	-0.05
825.955	1.02
826.126	0.53
826.297	-0.1
826.467	0.7
826.638	0.93
826.809	-0.5
826.98	0.26
827.15	0.49
827.321	0.13
827.492	1.28
827.662	0.13
827.833	0.88
828.003	0.28
828.174	-1.08
828.345	-0.33
828.515	0.66
828.686	0.59
828.856	0.26
829.027	0.19
829.197	0.05
829.368	0.39
829.538	-0.56
829.709	-0.53
829.879	0.51
830.049	0.05
830.22	-0.61
830.39	0.26
830.56	0.62
830.731	-0.13
830.901	-0.31
831.072	-0.02
831.242	-0.02
831.412	0.47
831.582	-0.13
831.753	-0.78
831.923	-0.09
832.093	0.38
832.263	-0.22
832.434	-0.25
832.604	-0.3
832.774	0.71
832.944	-0.25
833.114	-0.62
833.284	0.37
833.454	-0.41
833.624	-0.46
833.795	0.43
833.965	0.49
834.135	0.91
834.305	-1.01
834.475	-0.61
834.645	0.31
834.815	0.08
834.985	-0.17
835.155	-0.99
835.325	1.39
835.494	-0.11
835.664	-0.32
835.834	-1.31
836.004	0.24
836.174	0.36
836.344	-0.5
836.514	-0.43
836.684	-0.17
836.853	0.04
837.023	0.61
837.193	-0.7
837.363	0.9
837.532	1.12
837.702	0.03
837.872	-0.62
838.041	0.96
838.211	1.99
838.381	-1.04
838.55	-0.22
838.72	2.46
838.89	0.78
839.059	-0.1
839.229	-0.5
839.398	1.58
839.568	0.51
839.738	-0.4
839.907	1.19
840.077	0.55
840.246	0.18
840.416	-1.12
840.585	-0.36
840.755	1.81
840.924	1.09
841.093	-0.86
841.263	-0.01
841.432	0.05
841.602	-0.78
841.771	-0.51
841.94	-0.33
842.11	1.7
842.279	1.85
842.448	-0.52
842.617	-0.95
842.787	1.7
842.956	-0.78
843.125	-0.26
843.294	0.12
843.464	1.33
843.633	1.16
843.802	-1.02
843.971	-0.42
844.14	0.54
844.309	0.23
844.479	-0.26
844.648	-0.53
844.817	-0.26
844.986	0.04
845.155	-0.18
845.324	-0.35
845.493	-0.04
845.662	-0.49
845.831	0.72
846	0.07
846.169	-0.43
846.338	1.63
846.507	-0.01
846.676	0.2
846.844	-0.52
847.013	0.34
847.182	-0.12
847.351	-0.78
847.52	-0.28
847.689	0.65
847.858	0.02
848.026	-0.65
848.195	1.05
848.364	0.08
848.533	-0.89
848.701	-0.23
848.87	0.23
849.039	0.52
849.207	0.82
849.376	1.36
849.545	0.89
849.713	-0.19
849.882	0.35
850.051	-0.6
850.219	0.36
850.388	0.47
850.556	-0.61
850.725	-0.71
850.893	0.54
851.062	-0.62
851.23	0.84
851.399	-1.72
851.567	-0.86
851.736	-0
851.904	-0.77
852.073	-0.05
852.241	1.41
852.41	-0.38
852.578	0.32
852.746	-1.87
852.915	0.73
853.083	-0.01
853.251	-0.44
853.42	0.07
853.588	0.38
853.756	1.36
853.924	0.34
854.093	0.14
854.261	-0.6
854.429	-0.5
854.597	-0.51
854.765	-1.96
854.934	0.97
855.102	0.41
855.27	-0.85
855.438	0.76
855.606	1.3
855.774	2.27
855.942	-2.17
856.11	-1.51
856.278	1.2
856.446	0.73
856.614	0.09
856.782	-0.54
856.95	1.3
857.118	0.25
857.286	0.37
857.454	-0.52
857.622	0.8
857.79	0.68
857.958	-1.18
858.126	-1.17
858.294	-1.94
858.462	0.35
858.629	-0.66
858.797	-0.9
858.965	0.28
859.133	0.23
859.301	-0.82
859.468	0.27
859.636	0.91
859.804	2.14
859.971	1.39
860.139	-0.31
860.307	0.71
860.474	0.45
860.642	-0.81
860.81	-1.89
860.977	0.91
861.145	0.91
861.313	-1.07
861.48	-0.28
861.648	0.81
861.815	0.59
861.983	-2.17
862.15	0.05
862.318	2.12
862.485	1.97
862.653	0.23
862.82	-0.24
862.988	1.42
863.155	0.35
863.322	-0.72
863.49	-1.88
863.657	-0.42
863.824	2.75
863.992	-0.31
864.159	1.06
864.326	2.02
864.494	-0.69
864.661	1.19
864.828	-1.45
864.996	0.56
865.163	2.44
865.33	-0.95
865.497	-1.63
865.664	0.08
865.832	-1.22
865.999	0.63
866.166	-1.16
866.333	-0.02
866.5	-0.09
866.667	0.06
866.834	-0.95
867.001	2.68
867.168	-2.93
867.335	-0.06
867.502	-2.02
867.669	1.18
867.836	2.15
868.003	-0.22
868.17	1.29
868.337	1.22
868.504	4.65
868.671	-1.59
868.838	-0.67
869.005	1.3
869.172	1.07
869.339	0.31
869.505	0.15
869.672	1.71
869.839	1.87
870.006	-0.41
870.173	-2.3
870.339	0.96
870.506	2.92
870.673	-1.09
870.84	0.69
871.006	0.44
871.173	0.62
871.34	0.19
871.506	-1.25
871.673	1.75
871.839	-2.16
872.006	0.55
872.173	-0.51
872.339	-0.22
872.506	2.63
872.672	0.7
872.839	-1.48
873.005	0.95
873.172	3.78
873.338	0.73
873.505	0.87
873.671	2.3
873.838	0.42
874.004	-2.57
874.171	-0.07
874.337	1.02
874.503	1.48
874.67	0.13
874.836	0.53
875.002	1.29
875.169	0.19
875.335	0.76
875.501	-1.74
875.668	1.25
875.834	1.06
876	-1.53
876.166	3
876.332	-0.69
876.499	2.51
876.665	-0.28
876.831	-0.84
876.997	3.11
877.163	1.14
877.329	-1.3
877.495	1.13
877.662	3
877.828	1.57
877.994	-0.04
878.16	-1.44
878.326	-1.09
878.492	0.66
878.658	-1.34
878.824	1.41
878.99	0.67
879.156	-0.84
879.322	2.82
879.487	1.92
879.653	0.3
879.819	-0.11
879.985	-0.06
880.151	-0
880.317	1.72
880.483	0.13
880.648	2.65
880.814	-3.44
880.98	0.48
881.146	-3.02
881.312	-0.28
881.477	-0.19
881.643	-0.77
881.809	0.84
881.974	1.35
882.14	-0.66
882.306	-0.21
882.471	3.58
882.637	-0.89
882.803	2.32
882.968	4.07
883.134	3.7
883.299	1.68
883.465	0.74
883.63	3.52
883.796	1.47
883.961	1.41
884.127	1.21
884.292	-2.66
884.458	-2.98
884.623	-2.97
