Data from Apollo_Calib_20240827__AbsoluteIrradiance__438__06-27-01-363.txt Node

Date: Wed Aug 28 06:27:01 BST 2024
User: biology
Spectrometer: FLMT08252
Trigger mode: 0
Integration Time (sec): 5.000000E-1
Scans to average: 5
Electric dark correction enabled: true
Nonlinearity correction enabled: false
Boxcar width: 0
XAxis mode: Wavelengths
Number of Pixels in Spectrum: 3648
>>>>>Begin Spectral Data<<<<<
179.588	-0
179.809	-0
180.03	-0
180.251	-0
180.473	-0
180.694	0
180.915	0
181.136	-0
181.357	-0
181.578	-0
181.799	0
182.02	-0
182.241	0
182.462	-0
182.683	0
182.904	-0
183.125	0
183.346	0
183.567	0
183.788	0
184.009	0
184.23	0
184.451	0
184.672	0
184.892	0
185.113	0
185.334	0
185.555	0
185.776	0
185.996	0
186.217	0
186.438	0
186.659	0
186.879	0
187.1	0
187.321	0
187.541	0
187.762	0
187.983	0
188.203	0
188.424	0
188.644	0
188.865	0
189.086	0
189.306	0
189.527	0
189.747	0
189.968	0
190.188	0
190.409	0
190.629	0
190.849	0
191.07	0
191.29	0
191.511	0
191.731	0
191.951	0
192.172	0
192.392	0
192.612	0
192.833	0
193.053	0
193.273	0
193.493	0
193.714	0
193.934	0
194.154	0
194.374	0
194.594	0
194.815	0
195.035	0
195.255	0
195.475	0
195.695	0
195.915	0
196.135	0
196.355	0
196.575	0
196.795	0
197.015	0
197.235	0
197.455	0
197.675	0
197.895	0
198.115	0
198.335	0
198.555	0
198.775	0
198.995	0
199.214	0
199.434	0
199.654	0
199.874	0
200.094	-0.5
200.313	0.53
200.533	0.18
200.753	0.66
200.973	2.15
201.192	1.67
201.412	0.2
201.632	0.63
201.851	2.22
202.071	1.06
202.291	0.42
202.51	0.65
202.73	1.14
202.95	0.33
203.169	0.58
203.389	0.74
203.608	0.93
203.828	0.49
204.047	0.65
204.267	1.07
204.486	0.93
204.706	0.59
204.925	0.58
205.145	0.6
205.364	1.21
205.583	1.11
205.803	0.55
206.022	-0.02
206.242	0.86
206.461	0.59
206.68	0.56
206.9	0.86
207.119	1.19
207.338	1.22
207.557	0.44
207.777	0.18
207.996	0.31
208.215	1.18
208.434	0.32
208.654	0.23
208.873	0.64
209.092	0.97
209.311	0.11
209.53	0.19
209.749	0.32
209.968	0.43
210.187	0.39
210.407	0.13
210.626	0.59
210.845	0.54
211.064	0.67
211.283	0.22
211.502	0.9
211.721	0.46
211.94	0.45
212.159	0.51
212.377	0.67
212.596	0.77
212.815	0.69
213.034	0.52
213.253	0.75
213.472	0.62
213.691	0.51
213.91	0.24
214.128	0.29
214.347	0.65
214.566	0.14
214.785	0.12
215.003	0.74
215.222	0.58
215.441	0.62
215.66	-0.04
215.878	0.32
216.097	0.75
216.316	0.28
216.534	0.47
216.753	0.4
216.972	0.35
217.19	0.22
217.409	0.39
217.627	0.22
217.846	0.18
218.064	0.33
218.283	0.32
218.501	0.73
218.72	0.62
218.938	0.18
219.157	0.31
219.375	0.56
219.594	0.44
219.812	0.14
220.031	0.19
220.249	0.56
220.467	0.68
220.686	0.19
220.904	0.03
221.122	0.2
221.341	0.6
221.559	0.25
221.777	0.21
221.995	0.19
222.214	0.32
222.432	0.13
222.65	0.49
222.868	0.41
223.086	0.42
223.305	0.42
223.523	0.25
223.741	0.49
223.959	0.25
224.177	0.1
224.395	0.1
224.613	0.42
224.831	0.38
225.049	0.18
225.267	0.14
225.485	0.36
225.703	0.21
225.921	0.27
226.139	0.18
226.357	0.42
226.575	0.35
226.793	0.18
227.011	0.99
227.229	0.23
227.447	0.37
227.665	0.07
227.883	0.08
228.1	0.29
228.318	0.27
228.536	0.01
228.754	0.07
228.972	0.43
229.189	0.3
229.407	0.16
229.625	0.09
229.843	0.49
230.06	0.31
230.278	0.15
230.496	0.28
230.713	0.23
230.931	0.43
231.149	0.18
231.366	0.05
231.584	0.21
231.801	0.6
232.019	0.26
232.236	0.15
232.454	0.19
232.671	0.26
232.889	0.31
233.106	0.14
233.324	0.23
233.541	0.24
233.759	0.17
233.976	0.04
234.194	0.2
234.411	0.17
234.628	0.27
234.846	0.24
235.063	0.2
235.28	0.22
235.498	0.2
235.715	0.16
235.932	0.35
236.149	0.25
236.367	0.13
236.584	0.25
236.801	0.18
237.018	0.27
237.236	0.23
237.453	0.04
237.67	0.36
237.887	0.08
238.104	0.15
238.321	0.2
238.538	0.15
238.755	0.29
238.973	0.04
239.19	0.18
239.407	0.26
239.624	0.26
239.841	0.02
240.058	0.08
240.275	0.21
240.492	0.19
240.709	0.18
240.925	0.14
241.142	0.31
241.359	0.13
241.576	0.14
241.793	0.2
242.01	0.18
242.227	0.29
242.444	0.2
242.66	0.26
242.877	0.22
243.094	0.08
243.311	0.23
243.527	0.13
243.744	0.19
243.961	0.24
244.178	0.09
244.394	0.21
244.611	0.34
244.828	0.39
245.044	0.06
245.261	0.17
245.477	0.19
245.694	0.19
245.911	0.15
246.127	0.2
246.344	0.32
246.56	0.32
246.777	0.15
246.993	0.23
247.21	0.2
247.426	0.2
247.643	0.12
247.859	0.04
248.076	0.15
248.292	0.42
248.508	0.1
248.725	0.18
248.941	0.16
249.157	0.26
249.374	0.16
249.59	0.14
249.806	0.18
250.023	0.25
250.239	0.13
250.455	0.11
250.671	0.17
250.888	0.2
251.104	0.23
251.32	0.09
251.536	0.11
251.752	0.1
251.969	0.15
252.185	0.08
252.401	0.37
252.617	0.24
252.833	0.09
253.049	0.13
253.265	0.16
253.481	0.23
253.697	0.13
253.913	0.06
254.129	0.21
254.345	0.18
254.561	0.11
254.777	0.15
254.993	0.17
255.209	0.2
255.425	0.1
255.641	0.1
255.857	0.26
256.073	0.2
256.288	0.03
256.504	0.05
256.72	0.12
256.936	0.32
257.152	0.13
257.367	0.1
257.583	0.23
257.799	0.21
258.015	0.17
258.23	0.14
258.446	0.23
258.662	0.2
258.877	0.06
259.093	0.05
259.309	0.17
259.524	0.2
259.74	0.12
259.955	0.05
260.171	0.2
260.387	0.14
260.602	0.24
260.818	0.19
261.033	0.08
261.249	0.09
261.464	0.12
261.68	0.05
261.895	0.19
262.11	0.24
262.326	0.13
262.541	0.07
262.757	0.21
262.972	0.16
263.187	0.18
263.403	0.13
263.618	0.2
263.833	0.19
264.049	0.05
264.264	0.16
264.479	0.21
264.694	0.21
264.91	0.07
265.125	0.14
265.34	0.16
265.555	0.36
265.77	0.18
265.986	0.08
266.201	0.24
266.416	0.3
266.631	0.11
266.846	0.15
267.061	0.22
267.276	0.18
267.491	0.06
267.706	0.2
267.921	0.19
268.136	0.15
268.351	0.15
268.566	0.11
268.781	0.21
268.996	0.22
269.211	0.2
269.426	0.04
269.641	0.11
269.856	0.23
270.071	0.04
270.285	0.02
270.5	0.23
270.715	0.19
270.93	0.18
271.145	0.14
271.359	0.21
271.574	0.09
271.789	0.16
272.004	0.09
272.218	0.1
272.433	0.13
272.648	0.18
272.862	0.2
273.077	0.11
273.292	0.13
273.506	0.12
273.721	0.09
273.936	0.17
274.15	0.21
274.365	0.14
274.579	0.12
274.794	0.19
275.008	0.19
275.223	0.11
275.437	0.12
275.652	0.16
275.866	0.13
276.081	0.19
276.295	0.19
276.509	0.11
276.724	0.17
276.938	0.13
277.153	0.19
277.367	0.13
277.581	0.06
277.796	0.1
278.01	0.07
278.224	0.12
278.438	0.26
278.653	0.02
278.867	0.07
279.081	0.2
279.295	0.13
279.51	0.15
279.724	0.07
279.938	0.13
280.152	0.16
280.366	0.09
280.58	0.14
280.794	0.23
281.008	0.15
281.222	0.2
281.437	0.28
281.651	0.09
281.865	0.2
282.079	0.06
282.293	0.06
282.507	0.07
282.721	0.12
282.935	0.17
283.148	0.07
283.362	0.1
283.576	0.01
283.79	0.12
284.004	0.11
284.218	0.18
284.432	0.09
284.646	0.14
284.859	0.09
285.073	0.06
285.287	0.12
285.501	0.13
285.714	0.11
285.928	0.13
286.142	0.09
286.356	0.09
286.569	0.09
286.783	0.25
286.997	0.16
287.21	0.16
287.424	0.08
287.637	0.15
287.851	0.09
288.065	0.17
288.278	0.1
288.492	0.14
288.705	0.11
288.919	0.2
289.132	0.09
289.346	0.15
289.559	0
289.773	0.08
289.986	0.12
290.2	0.1
290.413	0.16
290.626	0.07
290.84	0.15
291.053	0.14
291.267	0.15
291.48	0.13
291.693	0.1
291.906	0.11
292.12	0.11
292.333	0.11
292.546	0.11
292.76	0.18
292.973	0.11
293.186	0.15
293.399	0.07
293.612	0.12
293.826	0.07
294.039	0.09
294.252	0.09
294.465	0.13
294.678	0.12
294.891	0.11
295.104	0.09
295.317	0.06
295.53	0.15
295.743	0.1
295.956	0.1
296.169	0.19
296.382	0.17
296.595	0.08
296.808	0.05
297.021	0.16
297.234	0.2
297.447	0.13
297.66	0.07
297.873	0.17
298.086	0.13
298.299	0.07
298.511	0.02
298.724	0.12
298.937	0.04
299.15	0.05
299.363	0.1
299.575	0.13
299.788	0.13
300.001	0.08
300.213	0.03
300.426	0.05
300.639	0.08
300.852	0.09
301.064	0.12
301.277	0.17
301.489	0.16
301.702	0.16
301.915	0.12
302.127	0.09
302.34	0.13
302.552	0.18
302.765	0.12
302.977	0.15
303.19	0.12
303.402	0.1
303.615	0.1
303.827	0.07
304.04	0.08
304.252	0.14
304.464	0.07
304.677	0.21
304.889	0.15
305.102	0.1
305.314	0.1
305.526	0.1
305.739	0.16
305.951	0.08
306.163	0.09
306.375	0.18
306.588	0.08
306.8	0.07
307.012	0.08
307.224	0.13
307.436	0.17
307.649	0.03
307.861	0.1
308.073	0.17
308.285	0.07
308.497	0.06
308.709	0.09
308.921	0.14
309.133	0.14
309.346	0.1
309.558	0.11
309.77	0.17
309.982	0.15
310.194	0.14
310.406	0.1
310.617	0.21
310.829	0.15
311.041	0.08
311.253	0.08
311.465	0.09
311.677	0.12
311.889	0.13
312.101	0.05
312.313	0.17
312.524	0.1
312.736	0.06
312.948	0.06
313.16	0.21
313.372	0.17
313.583	0.11
313.795	0.1
314.007	0.09
314.218	0.14
314.43	0.07
314.642	0.06
314.853	0.04
315.065	0.16
315.277	0.1
315.488	0.11
315.7	0.15
315.912	0.12
316.123	0.12
316.335	0.08
316.546	0.15
316.758	0.17
316.969	0.09
317.181	0.09
317.392	0.1
317.604	0.14
317.815	0.04
318.026	0.07
318.238	0.12
318.449	0.13
318.661	0.06
318.872	0.03
319.083	0.08
319.295	0.13
319.506	0.1
319.717	0.13
319.929	0.1
320.14	0.15
320.351	0.14
320.562	0.09
320.774	0.11
320.985	0.1
321.196	0.06
321.407	0.05
321.618	0.16
321.829	0.16
322.041	0.09
322.252	0.07
322.463	0.12
322.674	0.13
322.885	0.1
323.096	0.07
323.307	0.13
323.518	0.1
323.729	0.06
323.94	0.08
324.151	0.13
324.362	0.11
324.573	0.13
324.784	0.08
324.995	0.16
325.206	0.12
325.417	0.07
325.628	0.06
325.838	0.11
326.049	0.12
326.26	0.11
326.471	0.07
326.682	0.12
326.892	0.09
327.103	0.06
327.314	0.04
327.525	0.14
327.735	0.08
327.946	0.08
328.157	0.11
328.368	0.15
328.578	0.1
328.789	0.13
328.999	0.09
329.21	0.05
329.421	0.16
329.631	0.09
329.842	0.06
330.052	0.11
330.263	0.12
330.473	0.15
330.684	0.11
330.894	0.08
331.105	0.12
331.315	0.06
331.526	0.01
331.736	0.15
331.947	0.11
332.157	0.15
332.367	0.06
332.578	0.13
332.788	0.21
332.999	0.13
333.209	0.11
333.419	0.02
333.629	0.12
333.84	0.13
334.05	0.09
334.26	0.17
334.47	0.12
334.681	0.16
334.891	0.08
335.101	0.14
335.311	0.16
335.521	0.06
335.732	0.02
335.942	0.18
336.152	0.14
336.362	0.11
336.572	0.11
336.782	0.14
336.992	0.07
337.202	0.08
337.412	0.03
337.622	0.12
337.832	0.12
338.042	0.11
338.252	0.05
338.462	0.05
338.672	0.09
338.882	0.1
339.092	0.08
339.302	0.18
339.511	0.13
339.721	0.1
339.931	0.06
340.141	0.13
340.351	0.17
340.561	0.09
340.77	0.13
340.98	0.13
341.19	0.1
341.4	0.07
341.609	0.04
341.819	0.11
342.029	0.02
342.238	0.1
342.448	0.1
342.658	0.14
342.867	0.09
343.077	0.11
343.286	0.1
343.496	0.11
343.706	0.19
343.915	0.06
344.125	0.11
344.334	0.12
344.544	0.07
344.753	0.08
344.963	0.09
345.172	0.1
345.381	0.09
345.591	0.07
345.8	0.09
346.01	0.16
346.219	0.16
346.428	-0.05
346.638	0.09
346.847	0.13
347.056	0.16
347.266	0.05
347.475	0.09
347.684	0.11
347.893	0.12
348.103	0.11
348.312	0.08
348.521	0.12
348.73	0.1
348.94	0.12
349.149	0.09
349.358	0.11
349.567	0.12
349.776	0.06
349.985	0.07
350.194	0.13
350.403	0.14
350.612	0.04
350.821	0.1
351.03	0.1
351.239	0.05
351.448	0.08
351.657	0.06
351.866	0.18
352.075	0.08
352.284	0.11
352.493	0.08
352.702	0.19
352.911	0.14
353.12	0.1
353.329	0.09
353.538	0.14
353.746	0.15
353.955	0.1
354.164	0.14
354.373	0.07
354.582	0.18
354.79	0.14
354.999	0.13
355.208	0.09
355.416	0.15
355.625	0.03
355.834	0.05
356.042	0.13
356.251	0.1
356.46	0.12
356.668	0.12
356.877	0.18
357.085	0.15
357.294	0.04
357.503	0.13
357.711	0.12
357.92	0.21
358.128	0.09
358.337	0.03
358.545	0.09
358.754	0.05
358.962	0.13
359.17	0.07
359.379	0.11
359.587	0.09
359.796	0.12
360.004	0.12
360.212	0.12
360.421	0.15
360.629	0.12
360.837	0.11
361.046	0.12
361.254	0.21
361.462	0.08
361.67	0.08
361.879	0.12
362.087	0.16
362.295	0.11
362.503	0.11
362.711	0.06
362.92	0.05
363.128	0.09
363.336	0.03
363.544	0.03
363.752	0.08
363.96	0.06
364.168	0.06
364.376	0.09
364.584	0.13
364.792	0.15
365	0.13
365.208	0.13
365.416	0.09
365.624	0.16
365.832	0.06
366.04	0.17
366.248	0.1
366.456	0.12
366.664	0.1
366.872	0.1
367.079	0.12
367.287	0.12
367.495	0.12
367.703	0.13
367.911	0.08
368.118	0.1
368.326	0.1
368.534	0.09
368.742	0.14
368.949	0.06
369.157	0.08
369.365	0.13
369.572	0.1
369.78	0.06
369.988	0.15
370.195	0.11
370.403	0.09
370.61	0.07
370.818	0.12
371.026	0.15
371.233	0.07
371.441	0.09
371.648	0.07
371.856	0.12
372.063	0.11
372.271	0.05
372.478	0.07
372.685	0.07
372.893	0.13
373.1	0.1
373.308	0.07
373.515	0.2
373.722	0.09
373.93	0.07
374.137	0.12
374.344	0.2
374.552	0.13
374.759	0.12
374.966	0.09
375.173	0.08
375.381	0.21
375.588	0.1
375.795	0.01
376.002	0.06
376.209	0.06
376.417	0.13
376.624	0.1
376.831	0.14
377.038	0.08
377.245	0.06
377.452	0.09
377.659	0.14
377.866	0.1
378.073	0.11
378.28	0.12
378.487	0.17
378.694	0.1
378.901	0.12
379.108	0.11
379.315	0.17
379.522	0.23
379.729	0.1
379.936	0.11
380.143	0.13
380.35	0.13
380.557	0.12
380.763	0.12
380.97	0.13
381.177	0.1
381.384	0.11
381.591	0.08
381.797	0.13
382.004	0.1
382.211	0.12
382.418	0.11
382.624	0.13
382.831	0.18
383.038	0.07
383.244	0.09
383.451	0.12
383.658	0.11
383.864	0.11
384.071	0.1
384.277	0.2
384.484	0.09
384.69	0.14
384.897	0.07
385.103	0.1
385.31	0.11
385.516	0.13
385.723	0.09
385.929	0.11
386.136	0.12
386.342	0.13
386.549	0.08
386.755	0.18
386.961	0.14
387.168	0.08
387.374	0.11
387.58	0.16
387.787	0.11
387.993	0.12
388.199	0.11
388.406	0.07
388.612	0.11
388.818	0.05
389.024	0.07
389.231	0.16
389.437	0.2
389.643	0.17
389.849	0.12
390.055	0.11
390.261	0.1
390.467	0.11
390.674	0.09
390.88	0.13
391.086	0.12
391.292	0.14
391.498	0.14
391.704	0.12
391.91	0.1
392.116	0.06
392.322	0.03
392.528	0.09
392.734	0.09
392.94	0.13
393.146	0.13
393.352	0.09
393.557	0.12
393.763	0.1
393.969	0.16
394.175	0.17
394.381	0.15
394.587	0.04
394.792	0.06
394.998	0.18
395.204	0.13
395.41	0.07
395.615	0.13
395.821	0.17
396.027	0.13
396.233	0.11
396.438	0.16
396.644	0.19
396.85	0.14
397.055	0.15
397.261	0.1
397.466	0.18
397.672	0.14
397.878	0.19
398.083	0.16
398.289	0.1
398.494	0.21
398.7	0.17
398.905	0.06
399.111	0.18
399.316	0.04
399.522	0.13
399.727	0.05
399.932	0.11
400.138	0.14
400.343	0.2
400.549	0.16
400.754	0.09
400.959	0.14
401.165	0.14
401.37	0.14
401.575	0.23
401.78	0.13
401.986	0.1
402.191	0.12
402.396	0.08
402.601	0.17
402.807	0.15
403.012	0.14
403.217	0.18
403.422	0.13
403.627	0.1
403.832	0.13
404.037	0.15
404.243	0.18
404.448	0.11
404.653	0.1
404.858	0.17
405.063	0.18
405.268	0.12
405.473	0.07
405.678	0.11
405.883	0.3
406.088	0.17
406.293	0.07
406.498	0.1
406.703	0.22
406.907	0.14
407.112	0.11
407.317	0.14
407.522	0.16
407.727	0.1
407.932	0.15
408.136	0.23
408.341	0.15
408.546	0.15
408.751	0.18
408.956	0.11
409.16	0.18
409.365	0.17
409.57	0.14
409.774	0.16
409.979	0.21
410.184	0.17
410.388	0.11
410.593	0.17
410.798	0.16
411.002	0.12
411.207	0.18
411.411	0.17
411.616	0.09
411.82	0.16
412.025	0.16
412.229	0.09
412.434	0.22
412.638	0.18
412.843	0.15
413.047	0.17
413.252	0.09
413.456	0.12
413.66	0.21
413.865	0.13
414.069	0.2
414.273	0.12
414.478	0.11
414.682	0.15
414.886	0.1
415.091	0.13
415.295	0.07
415.499	0.19
415.703	0.22
415.908	0.18
416.112	0.09
416.316	0.24
416.52	0.16
416.724	0.08
416.929	0.17
417.133	0.26
417.337	0.13
417.541	0.16
417.745	0.15
417.949	0.15
418.153	0.18
418.357	0.1
418.561	0.24
418.765	0.11
418.969	0.27
419.173	0.23
419.377	0.16
419.581	0.25
419.785	0.13
419.989	0.11
420.193	0.1
420.397	0.16
420.601	0.27
420.804	0.2
421.008	0.14
421.212	0.21
421.416	0.24
421.62	0.13
421.823	0.15
422.027	0.25
422.231	0.22
422.435	0.17
422.638	0.18
422.842	0.18
423.046	0.14
423.249	0.19
423.453	0.22
423.657	0.17
423.86	0.16
424.064	0.2
424.268	0.23
424.471	0.22
424.675	0.25
424.878	0.22
425.082	0.16
425.285	0.16
425.489	0.15
425.692	0.2
425.896	0.13
426.099	0.21
426.303	0.15
426.506	0.08
426.71	0.18
426.913	0.24
427.116	0.18
427.32	0.19
427.523	0.18
427.726	0.27
427.93	0.18
428.133	0.22
428.336	0.18
428.54	0.17
428.743	0.22
428.946	0.25
429.149	0.21
429.353	0.18
429.556	0.16
429.759	0.18
429.962	0.14
430.165	0.2
430.368	0.18
430.571	0.17
430.775	0.19
430.978	0.16
431.181	0.21
431.384	0.21
431.587	0.16
431.79	0.24
431.993	0.17
432.196	0.18
432.399	0.17
432.602	0.23
432.805	0.18
433.008	0.17
433.211	0.16
433.414	0.19
433.616	0.21
433.819	0.18
434.022	0.11
434.225	0.3
434.428	0.23
434.631	0.31
434.833	0.2
435.036	0.15
435.239	0.27
435.442	0.2
435.645	0.14
435.847	0.2
436.05	0.24
436.253	0.22
436.455	0.14
436.658	0.18
436.861	0.22
437.063	0.16
437.266	0.22
437.468	0.23
437.671	0.3
437.874	0.21
438.076	0.15
438.279	0.17
438.481	0.22
438.684	0.16
438.886	0.25
439.089	0.1
439.291	0.25
439.494	0.26
439.696	0.16
439.899	0.23
440.101	0.23
440.303	0.12
440.506	0.26
440.708	0.17
440.91	0.23
441.113	0.19
441.315	0.22
441.517	0.18
441.72	0.24
441.922	0.19
442.124	0.19
442.326	0.19
442.529	0.29
442.731	0.18
442.933	0.34
443.135	0.23
443.337	0.16
443.539	0.19
443.742	0.2
443.944	0.22
444.146	0.2
444.348	0.22
444.55	0.2
444.752	0.18
444.954	0.19
445.156	0.26
445.358	0.16
445.56	0.28
445.762	0.21
445.964	0.25
446.166	0.19
446.368	0.17
446.57	0.31
446.772	0.2
446.974	0.23
447.175	0.21
447.377	0.16
447.579	0.23
447.781	0.12
447.983	0.26
448.184	0.19
448.386	0.24
448.588	0.16
448.79	0.17
448.991	0.2
449.193	0.22
449.395	0.27
449.597	0.26
449.798	0.25
450	0.25
450.202	0.23
450.403	0.28
450.605	0.25
450.806	0.25
451.008	0.18
451.21	0.25
451.411	0.23
451.613	0.2
451.814	0.22
452.016	0.25
452.217	0.21
452.419	0.28
452.62	0.24
452.821	0.26
453.023	0.32
453.224	0.31
453.426	0.21
453.627	0.29
453.828	0.29
454.03	0.22
454.231	0.27
454.432	0.22
454.634	0.33
454.835	0.24
455.036	0.21
455.238	0.29
455.439	0.38
455.64	0.22
455.841	0.23
456.042	0.31
456.244	0.32
456.445	0.28
456.646	0.21
456.847	0.25
457.048	0.29
457.249	0.37
457.45	0.52
457.651	0.24
457.852	0.33
458.054	0.3
458.255	0.26
458.456	0.3
458.657	0.32
458.858	0.29
459.058	0.31
459.259	0.35
459.46	0.26
459.661	0.3
459.862	0.45
460.063	0.28
460.264	0.39
460.465	0.24
460.666	0.44
460.866	0.33
461.067	0.31
461.268	0.33
461.469	0.32
461.67	0.29
461.87	0.32
462.071	0.32
462.272	0.26
462.473	0.36
462.673	0.35
462.874	0.28
463.075	0.36
463.275	0.28
463.476	0.41
463.676	0.42
463.877	0.39
464.078	0.41
464.278	0.42
464.479	0.39
464.679	0.4
464.88	0.42
465.08	0.44
465.281	0.37
465.481	0.4
465.682	0.42
465.882	0.43
466.083	0.4
466.283	0.41
466.483	0.4
466.684	0.35
466.884	0.36
467.085	0.43
467.285	0.49
467.485	0.37
467.686	0.42
467.886	0.36
468.086	0.4
468.286	0.43
468.487	0.44
468.687	0.38
468.887	0.44
469.087	0.52
469.287	0.49
469.488	0.43
469.688	0.51
469.888	0.52
470.088	0.58
470.288	0.57
470.488	0.59
470.688	0.52
470.888	0.53
471.088	0.48
471.288	0.59
471.488	0.56
471.688	0.61
471.888	0.57
472.088	0.64
472.288	0.63
472.488	0.6
472.688	0.54
472.888	0.62
473.088	0.64
473.288	0.63
473.488	0.65
473.688	0.72
473.887	0.66
474.087	0.65
474.287	0.67
474.487	0.65
474.687	0.76
474.886	0.69
475.086	0.71
475.286	0.76
475.486	0.78
475.685	0.74
475.885	0.77
476.085	0.79
476.284	0.81
476.484	0.82
476.684	0.86
476.883	0.96
477.083	0.88
477.282	0.9
477.482	0.94
477.681	0.96
477.881	0.88
478.08	0.93
478.28	0.92
478.479	0.97
478.679	1.04
478.878	0.97
479.078	0.97
479.277	1.06
479.477	1.04
479.676	1.09
479.875	1.09
480.075	1.09
480.274	1.12
480.473	1.21
480.673	1.18
480.872	1.23
481.071	1.22
481.271	1.28
481.47	1.19
481.669	1.28
481.868	1.3
482.067	1.31
482.267	1.29
482.466	1.35
482.665	1.37
482.864	1.39
483.063	1.39
483.262	1.45
483.461	1.57
483.661	1.55
483.86	1.53
484.059	1.62
484.258	1.64
484.457	1.63
484.656	1.69
484.855	1.78
485.054	1.62
485.253	1.72
485.452	1.73
485.651	1.85
485.849	1.86
486.048	1.84
486.247	1.89
486.446	1.98
486.645	1.97
486.844	2.02
487.043	2.04
487.241	2.14
487.44	2.13
487.639	2.21
487.838	2.2
488.037	2.24
488.235	2.36
488.434	2.33
488.633	2.22
488.831	2.47
489.03	2.52
489.229	2.51
489.427	2.55
489.626	2.64
489.825	2.66
490.023	2.74
490.222	2.73
490.42	2.76
490.619	2.85
490.817	2.89
491.016	2.9
491.214	3.04
491.413	3.04
491.611	3.01
491.81	3.06
492.008	3.17
492.207	3.28
492.405	3.33
492.604	3.27
492.802	3.42
493	3.52
493.199	3.57
493.397	3.61
493.595	3.72
493.794	3.72
493.992	3.89
494.19	3.9
494.388	4.01
494.587	3.91
494.785	3.98
494.983	3.98
495.181	4.16
495.379	4.3
495.578	4.41
495.776	4.38
495.974	4.36
496.172	4.47
496.37	4.74
496.568	4.77
496.766	4.78
496.964	4.95
497.162	4.97
497.36	5.1
497.558	5.16
497.756	5.32
497.954	5.36
498.152	5.46
498.35	5.64
498.548	5.57
498.746	5.64
498.944	5.72
499.142	5.77
499.34	5.92
499.538	6.2
499.736	6.08
499.933	6.2
500.131	6.31
500.329	6.63
500.527	6.59
500.725	6.76
500.922	6.93
501.12	7.03
501.318	7.17
501.516	7.23
501.713	7.38
501.911	7.43
502.109	7.42
502.306	7.7
502.504	7.56
502.701	7.79
502.899	7.99
503.097	8.28
503.294	8.16
503.492	8.5
503.689	8.63
503.887	8.57
504.084	8.82
504.282	8.85
504.479	9.01
504.677	9.26
504.874	9.29
505.072	9.18
505.269	9.66
505.466	9.82
505.664	9.96
505.861	9.91
506.059	10.17
506.256	10.21
506.453	10.49
506.651	10.61
506.848	10.9
507.045	10.8
507.242	10.92
507.44	11.18
507.637	11.46
507.834	11.26
508.031	11.71
508.229	11.69
508.426	11.63
508.623	12.01
508.82	12.28
509.017	12.31
509.214	12.24
509.411	12.65
509.608	12.63
509.805	12.98
510.003	13.01
510.2	13.13
510.397	13.46
510.594	13.32
510.791	13.61
510.988	13.73
511.184	13.69
511.381	13.48
511.578	14
511.775	14.32
511.972	14.08
512.169	14.4
512.366	14.47
512.563	14.85
512.76	14.99
512.956	15.02
513.153	15.03
513.35	14.91
513.547	15.05
513.744	15.32
513.94	15.37
514.137	15.62
514.334	15.57
514.53	15.69
514.727	16.28
514.924	15.88
515.12	16.12
515.317	16.15
515.514	15.95
515.71	15.92
515.907	16.52
516.103	16.54
516.3	16.22
516.497	16.57
516.693	16.62
516.89	16.57
517.086	16.82
517.283	16.73
517.479	16.44
517.676	16.97
517.872	16.95
518.068	17.03
518.265	16.94
518.461	16.69
518.658	17.16
518.854	16.94
519.05	17.22
519.247	17.24
519.443	16.97
519.639	17.23
519.836	16.93
520.032	16.79
520.228	17.1
520.424	16.86
520.621	17.01
520.817	17
521.013	16.82
521.209	17.24
521.405	17.04
521.601	16.95
521.798	16.74
521.994	16.66
522.19	16.6
522.386	16.54
522.582	16.73
522.778	16.88
522.974	16.48
523.17	16.43
523.366	16.26
523.562	16.33
523.758	16.23
523.954	15.91
524.15	16.08
524.346	16.02
524.542	16.05
524.738	15.79
524.934	15.93
525.129	15.78
525.325	15.44
525.521	15.32
525.717	15.68
525.913	15.16
526.109	15.14
526.304	15.21
526.5	15.08
526.696	14.95
526.892	14.72
527.087	15.02
527.283	14.7
527.479	14.53
527.674	14.08
527.87	14.34
528.066	14.19
528.261	14.07
528.457	13.72
528.653	14.04
528.848	13.8
529.044	13.8
529.239	13.42
529.435	13.31
529.63	13.12
529.826	12.97
530.021	12.89
530.217	12.82
530.412	12.72
530.608	12.65
530.803	12.46
530.999	12.18
531.194	12.3
531.389	12.24
531.585	12.08
531.78	12.08
531.975	11.83
532.171	11.76
532.366	11.65
532.561	11.49
532.757	11.31
532.952	11.44
533.147	10.94
533.342	11.05
533.538	10.75
533.733	10.99
533.928	10.43
534.123	10.61
534.318	10.53
534.513	10.28
534.709	10.39
534.904	10.23
535.099	10.17
535.294	10.04
535.489	9.94
535.684	9.73
535.879	9.65
536.074	9.55
536.269	9.49
536.464	9.45
536.659	9.25
536.854	9.19
537.049	9.13
537.244	9
537.439	8.86
537.634	8.72
537.828	8.84
538.023	8.67
538.218	8.54
538.413	8.33
538.608	8.35
538.803	8.26
538.997	8.17
539.192	8.06
539.387	7.94
539.582	7.91
539.776	7.72
539.971	7.79
540.166	7.78
540.36	7.56
540.555	7.59
540.75	7.42
540.944	7.37
541.139	7.19
541.334	7.19
541.528	7.1
541.723	7.07
541.917	7
542.112	6.81
542.306	6.68
542.501	6.64
542.695	6.61
542.89	6.54
543.084	6.43
543.279	6.43
543.473	6.33
543.668	6.35
543.862	6.19
544.056	6.07
544.251	6.14
544.445	6.06
544.64	6.01
544.834	5.7
545.028	5.51
545.222	5.74
545.417	5.83
545.611	5.61
545.805	5.53
546	5.36
546.194	5.4
546.388	5.4
546.582	5.23
546.776	5.19
546.97	5.14
547.165	5.12
547.359	5.01
547.553	4.91
547.747	4.89
547.941	4.95
548.135	4.79
548.329	4.78
548.523	4.68
548.717	4.59
548.911	4.54
549.105	4.47
549.299	4.46
549.493	4.41
549.687	4.28
549.881	4.35
550.075	4.24
550.269	4.11
550.463	4.17
550.657	4.15
550.85	4.04
551.044	3.95
551.238	3.96
551.432	3.85
551.626	3.84
551.82	3.78
552.013	3.69
552.207	3.7
552.401	3.67
552.594	3.58
552.788	3.52
552.982	3.45
553.176	3.38
553.369	3.47
553.563	3.43
553.756	3.33
553.95	3.28
554.144	3.23
554.337	3.26
554.531	3.07
554.724	3.13
554.918	3.14
555.111	3.06
555.305	3.03
555.498	2.96
555.692	2.95
555.885	2.87
556.079	2.85
556.272	2.81
556.466	2.79
556.659	2.76
556.852	2.71
557.046	2.65
557.239	2.66
557.432	2.57
557.626	2.59
557.819	2.6
558.012	2.53
558.206	2.53
558.399	2.4
558.592	2.41
558.785	2.35
558.979	2.34
559.172	2.34
559.365	2.29
559.558	2.19
559.751	2.2
559.944	2.2
560.138	2.16
560.331	2.13
560.524	2.12
560.717	2.1
560.91	2.03
561.103	2.02
561.296	1.99
561.489	1.98
561.682	1.99
561.875	1.99
562.068	1.98
562.261	1.88
562.454	1.92
562.647	1.85
562.84	1.87
563.032	1.82
563.225	1.79
563.418	1.78
563.611	1.74
563.804	1.73
563.997	1.65
564.19	1.58
564.382	1.65
564.575	1.62
564.768	1.61
564.961	1.61
565.153	1.57
565.346	1.55
565.539	1.59
565.731	1.56
565.924	1.54
566.117	1.56
566.309	1.47
566.502	1.42
566.695	1.42
566.887	1.42
567.08	1.36
567.272	1.38
567.465	1.32
567.657	1.34
567.85	1.36
568.042	1.33
568.235	1.33
568.427	1.26
568.62	1.27
568.812	1.28
569.005	1.23
569.197	1.15
569.389	1.2
569.582	1.18
569.774	1.17
569.966	1.08
570.159	1.09
570.351	1.13
570.543	1.08
570.736	1.09
570.928	1.05
571.12	1.06
571.312	1.03
571.505	1
571.697	1.09
571.889	1
572.081	1.02
572.273	0.99
572.465	1.01
572.658	0.93
572.85	0.98
573.042	0.94
573.234	0.93
573.426	0.93
573.618	0.89
573.81	0.91
574.002	0.91
574.194	0.88
574.386	0.83
574.578	0.83
574.77	0.82
574.962	0.84
575.154	0.78
575.346	0.79
575.538	0.81
575.729	0.72
575.921	0.77
576.113	0.75
576.305	0.79
576.497	0.76
576.689	0.73
576.88	0.74
577.072	0.76
577.264	0.74
577.456	0.7
577.647	0.63
577.839	0.71
578.031	0.72
578.223	0.68
578.414	0.62
578.606	0.69
578.798	0.67
578.989	0.65
579.181	0.64
579.372	0.64
579.564	0.6
579.755	0.62
579.947	0.63
580.139	0.64
580.33	0.55
580.522	0.6
580.713	0.5
580.905	0.56
581.096	0.62
581.287	0.57
581.479	0.55
581.67	0.55
581.862	0.55
582.053	0.51
582.244	0.47
582.436	0.51
582.627	0.54
582.818	0.5
583.01	0.45
583.201	0.5
583.392	0.51
583.583	0.48
583.775	0.45
583.966	0.48
584.157	0.48
584.348	0.48
584.54	0.4
584.731	0.46
584.922	0.45
585.113	0.4
585.304	0.48
585.495	0.48
585.686	0.46
585.877	0.45
586.068	0.45
586.259	0.42
586.45	0.44
586.641	0.39
586.832	0.35
587.023	0.42
587.214	0.39
587.405	0.42
587.596	0.36
587.787	0.41
587.978	0.4
588.169	0.34
588.36	0.34
588.551	0.35
588.742	0.33
588.932	0.38
589.123	0.34
589.314	0.37
589.505	0.34
589.696	0.35
589.886	0.33
590.077	0.32
590.268	0.33
590.458	0.3
590.649	0.29
590.84	0.35
591.03	0.31
591.221	0.28
591.412	0.28
591.602	0.35
591.793	0.31
591.984	0.28
592.174	0.27
592.365	0.38
592.555	0.3
592.746	0.31
592.936	0.33
593.127	0.3
593.317	0.34
593.508	0.27
593.698	0.29
593.889	0.31
594.079	0.3
594.269	0.26
594.46	0.27
594.65	0.29
594.84	0.28
595.031	0.24
595.221	0.24
595.411	0.21
595.602	0.29
595.792	0.28
595.982	0.24
596.172	0.31
596.363	0.28
596.553	0.27
596.743	0.26
596.933	0.24
597.123	0.3
597.314	0.21
597.504	0.22
597.694	0.27
597.884	0.27
598.074	0.23
598.264	0.22
598.454	0.24
598.644	0.2
598.834	0.21
599.024	0.15
599.214	0.21
599.404	0.26
599.594	0.21
599.784	0.18
599.974	0.25
600.164	0.23
600.354	0.15
600.544	0.17
600.734	0.25
600.924	0.26
601.114	0.16
601.303	0.21
601.493	0.2
601.683	0.2
601.873	0.19
602.063	0.15
602.252	0.23
602.442	0.14
602.632	0.17
602.821	0.14
603.011	0.23
603.201	0.17
603.39	0.18
603.58	0.17
603.77	0.21
603.959	0.2
604.149	0.19
604.339	0.15
604.528	0.2
604.718	0.19
604.907	0.15
605.097	0.18
605.286	0.18
605.476	0.18
605.665	0.17
605.855	0.17
606.044	0.22
606.234	0.19
606.423	0.16
606.612	0.15
606.802	0.17
606.991	0.2
607.181	0.16
607.37	0.13
607.559	0.13
607.749	0.12
607.938	0.14
608.127	0.16
608.316	0.12
608.506	0.17
608.695	0.14
608.884	0.13
609.073	0.17
609.263	0.16
609.452	0.17
609.641	0.17
609.83	0.13
610.019	0.15
610.208	0.12
610.397	0.14
610.586	0.19
610.775	0.13
610.965	0.14
611.154	0.16
611.343	0.18
611.532	0.15
611.721	0.11
611.91	0.11
612.099	0.13
612.287	0.15
612.476	0.14
612.665	0.18
612.854	0.13
613.043	0.17
613.232	0.15
613.421	0.11
613.61	0.16
613.798	0.11
613.987	0.18
614.176	0.14
614.365	0.19
614.554	0.13
614.742	0.16
614.931	0.14
615.12	0.17
615.309	0.1
615.497	0.12
615.686	0.12
615.875	0.11
616.063	0.13
616.252	0.11
616.44	0.12
616.629	0.14
616.818	0.18
617.006	0.14
617.195	0.1
617.383	0.13
617.572	0.13
617.76	0.08
617.949	0.15
618.137	0.15
618.326	0.14
618.514	0.11
618.703	0.12
618.891	0.17
619.079	0.07
619.268	0.15
619.456	0.1
619.644	0.16
619.833	0.11
620.021	0.08
620.209	0.08
620.398	0.15
620.586	0.16
620.774	0.14
620.962	0.12
621.151	0.2
621.339	0.12
621.527	0.11
621.715	0.06
621.903	0.1
622.092	0.05
622.28	0.12
622.468	0.09
622.656	0.1
622.844	0.14
623.032	0.11
623.22	0.07
623.408	0.15
623.596	0.1
623.784	0.14
623.972	0.1
624.16	0.09
624.348	0.19
624.536	0.13
624.724	0.09
624.912	0.15
625.1	0.14
625.288	0.08
625.476	0.07
625.664	0.14
625.851	0.09
626.039	0.14
626.227	0.15
626.415	0.1
626.603	0.05
626.79	0.13
626.978	0.07
627.166	0.13
627.354	0.1
627.541	0.08
627.729	0.05
627.917	0.14
628.104	0.13
628.292	0.12
628.48	0.14
628.667	0.11
628.855	0.17
629.042	0.13
629.23	0.09
629.418	0.07
629.605	0.08
629.793	0.06
629.98	0.1
630.168	0.11
630.355	0.13
630.543	0.15
630.73	0.06
630.917	0.15
631.105	0.14
631.292	0.05
631.48	0.12
631.667	0.14
631.854	0.13
632.042	0.08
632.229	0.06
632.416	0.11
632.604	0.08
632.791	0.04
632.978	0.15
633.165	0.12
633.353	0.14
633.54	0.14
633.727	0.04
633.914	0.05
634.101	0.01
634.289	0.12
634.476	0.07
634.663	0.08
634.85	0.13
635.037	0.05
635.224	0.06
635.411	0.1
635.598	0.14
635.785	0.1
635.972	0.09
636.159	0.14
636.346	0.08
636.533	0.08
636.72	0.1
636.907	0.09
637.094	0.13
637.281	0.07
637.468	0.11
637.655	0.09
637.842	0.12
638.029	0.08
638.215	0.15
638.402	0.1
638.589	0.09
638.776	0.07
638.963	0.09
639.149	0.11
639.336	0.15
639.523	0.1
639.709	0.09
639.896	0.06
640.083	0.14
640.27	0.12
640.456	0.06
640.643	0.09
640.829	0.07
641.016	0.08
641.203	0.06
641.389	0.12
641.576	0.14
641.762	0.09
641.949	0.07
642.135	0.08
642.322	0.12
642.508	0.06
642.695	0.09
642.881	0.09
643.068	0.08
643.254	0.08
643.441	0.12
643.627	0.11
643.813	0.07
644	0.11
644.186	0.05
644.372	0.04
644.559	0.12
644.745	0.06
644.931	0.05
645.118	0.08
645.304	0.11
645.49	0.09
645.676	0.1
645.862	0.12
646.049	0.13
646.235	0.08
646.421	0.18
646.607	0.16
646.793	0.05
646.979	0.03
647.165	0.1
647.352	0.08
647.538	0.1
647.724	0.1
647.91	0.09
648.096	0.07
648.282	0.15
648.468	0.1
648.654	0.09
648.84	0.08
649.026	0.09
649.212	0.1
649.397	0.07
649.583	0.06
649.769	0.14
649.955	0.08
650.141	0.11
650.327	0.15
650.513	0.07
650.698	0.08
650.884	0
651.07	0.12
651.256	0.13
651.442	0.1
651.627	0.05
651.813	0.1
651.999	0.09
652.184	0.12
652.37	0.06
652.556	0.08
652.741	0.16
652.927	0
653.113	0.1
653.298	0.11
653.484	0.11
653.669	0.05
653.855	0.08
654.04	0.13
654.226	0.11
654.412	0.08
654.597	0.03
654.782	0.12
654.968	0.13
655.153	0.11
655.339	0.07
655.524	0.04
655.71	0.13
655.895	0.08
656.08	0.1
656.266	0.11
656.451	0.12
656.636	0.03
656.822	0.08
657.007	0.09
657.192	0.09
657.378	0.01
657.563	0.07
657.748	0.12
657.933	0.12
658.118	0.09
658.304	0.05
658.489	0.1
658.674	0.1
658.859	0.03
659.044	0.07
659.229	0.11
659.414	0.07
659.599	0.1
659.785	0.06
659.97	0.07
660.155	0.12
660.34	0.07
660.525	0.08
660.71	0.09
660.895	0.14
661.08	0.1
661.264	0.04
661.449	0.15
661.634	0.15
661.819	0.11
662.004	0.13
662.189	0.06
662.374	0.1
662.559	0.08
662.743	0.07
662.928	0.09
663.113	0.12
663.298	0.03
663.483	0.08
663.667	0.1
663.852	0.05
664.037	0.16
664.221	0.12
664.406	0.11
664.591	0.11
664.775	0.12
664.96	0.08
665.145	0.09
665.329	0.11
665.514	0.09
665.698	0.09
665.883	0
666.068	0.12
666.252	0.08
666.437	0.06
666.621	0.13
666.806	0.1
666.99	0.13
667.174	0.07
667.359	0.17
667.543	0.12
667.728	0.1
667.912	0.04
668.096	0.11
668.281	0.05
668.465	0.1
668.649	0.09
668.834	0.05
669.018	0.07
669.202	0.07
669.387	0.12
669.571	0.14
669.755	0.07
669.939	0.09
670.124	0.11
670.308	0.1
670.492	0.16
670.676	0.12
670.86	0.09
671.044	0.06
671.228	0.16
671.413	0.09
671.597	0.07
671.781	0.08
671.965	0.14
672.149	0.13
672.333	0.11
672.517	0.06
672.701	0.14
672.885	0.15
673.069	0.05
673.253	0.12
673.437	0.09
673.621	0.07
673.804	0.1
673.988	0.14
674.172	0.11
674.356	0.05
674.54	0.14
674.724	0.18
674.908	0.08
675.091	0.13
675.275	0.12
675.459	0.17
675.643	0.19
675.826	0.13
676.01	0.15
676.194	0.12
676.377	0.16
676.561	0.15
676.745	0.15
676.928	0.17
677.112	0.19
677.296	0.09
677.479	0.08
677.663	0.12
677.846	0.17
678.03	0.18
678.213	0.11
678.397	0.16
678.58	0.12
678.764	0.11
678.947	0.12
679.131	0.12
679.314	0.12
679.498	0.13
679.681	0.1
679.865	0.14
680.048	0.14
680.231	0.14
680.415	0.12
680.598	0.08
680.781	0.09
680.965	0.07
681.148	0.13
681.331	0.12
681.514	0.1
681.698	0.08
681.881	0.12
682.064	0.13
682.247	0.15
682.43	0.06
682.614	0.14
682.797	0.17
682.98	0.14
683.163	0.07
683.346	0.2
683.529	0.07
683.712	0.09
683.895	0.14
684.078	0.07
684.261	0.08
684.444	0.14
684.627	0.13
684.81	0.07
684.993	0.09
685.176	0.1
685.359	0.05
685.542	0.09
685.725	0.18
685.908	0.13
686.091	0.06
686.274	0.19
686.457	0.15
686.639	0.06
686.822	0.1
687.005	0.09
687.188	0.19
687.371	0.24
687.553	0.11
687.736	0.17
687.919	0.18
688.102	0.16
688.284	0.1
688.467	0.11
688.65	0.09
688.832	0.11
689.015	0.09
689.197	0.09
689.38	0.18
689.563	0.23
689.745	0.1
689.928	0.1
690.11	0.11
690.293	0.16
690.475	0.04
690.658	0.11
690.84	0.07
691.023	0.15
691.205	0.08
691.388	0.1
691.57	0.14
691.752	0.14
691.935	0.1
692.117	0.13
692.3	0.15
692.482	0.11
692.664	0.09
692.847	0.15
693.029	0.17
693.211	0.17
693.393	0.08
693.576	0.08
693.758	0.11
693.94	0.14
694.122	0.1
694.304	0.11
694.487	0.13
694.669	0.15
694.851	0.07
695.033	0.1
695.215	0.09
695.397	0.08
695.579	0.16
695.761	0.07
695.943	0.05
696.125	0.2
696.308	0.17
696.49	-0.04
696.671	0.22
696.853	0.11
697.035	0.26
697.217	0.13
697.399	0.11
697.581	0.06
697.763	0.07
697.945	0.1
698.127	0.13
698.309	0.16
698.491	0.1
698.672	0.2
698.854	0.19
699.036	0.18
699.218	0.07
699.399	0.18
699.581	0.15
699.763	0.15
699.945	0.01
700.126	0.1
700.308	0.15
700.49	0.17
700.671	0.01
700.853	0.08
701.035	0.12
701.216	0.1
701.398	0.09
701.579	0.11
701.761	0.2
701.943	0.04
702.124	0.1
702.306	0.1
702.487	0.24
702.669	0.1
702.85	0.09
703.031	0.08
703.213	0.2
703.394	0.22
703.576	0.12
703.757	0.19
703.938	0.2
704.12	0.32
704.301	0.11
704.483	0.04
704.664	0.11
704.845	0.26
705.026	0.17
705.208	0.11
705.389	0.13
705.57	0.14
705.751	0.08
705.933	0.09
706.114	0.24
706.295	0.11
706.476	0.09
706.657	0.16
706.838	0.17
707.02	0.14
707.201	0.06
707.382	0.08
707.563	0.14
707.744	0.13
707.925	0.13
708.106	0.06
708.287	0.11
708.468	0.21
708.649	0.08
708.83	0.18
709.011	0.1
709.192	0.18
709.373	0.04
709.554	0.1
709.734	0.15
709.915	0.16
710.096	0.07
710.277	0.01
710.458	0.12
710.639	0.13
710.819	0.02
711	0.09
711.181	0.17
711.362	0.18
711.542	0.13
711.723	0.07
711.904	0.17
712.085	0.13
712.265	0.13
712.446	0.1
712.627	0.1
712.807	0.13
712.988	0.09
713.168	0.03
713.349	0.12
713.53	0.02
713.71	0.03
713.891	0.04
714.071	0.17
714.252	0.11
714.432	0.14
714.613	0.05
714.793	0.13
714.974	0.24
715.154	0.16
715.334	0.15
715.515	0.17
715.695	0
715.876	0.15
716.056	0.09
716.236	0.1
716.417	0.14
716.597	0.09
716.777	0.18
716.957	0.12
717.138	0.09
717.318	0.08
717.498	0.03
717.678	0.23
717.859	0.09
718.039	0.09
718.219	0.12
718.399	0.17
718.579	0.03
718.759	0.07
718.939	0.2
719.12	0.13
719.3	0.1
719.48	-0.02
719.66	0.05
719.84	0.12
720.02	0.14
720.2	0.03
720.38	0.15
720.56	0.19
720.74	0.13
720.92	0.09
721.1	0.21
721.279	0.23
721.459	0.1
721.639	0.03
721.819	0.18
721.999	0.12
722.179	0.18
722.359	0.01
722.538	0.1
722.718	0.15
722.898	0.12
723.078	0.14
723.257	0.16
723.437	0.09
723.617	0.05
723.797	0.07
723.976	0.13
724.156	0.1
724.336	0.28
724.515	0.2
724.695	0.03
724.874	0.15
725.054	0.17
725.234	0.08
725.413	0.09
725.593	0.15
725.772	0.09
725.952	0.1
726.131	0.09
726.311	0.1
726.49	0.11
726.67	0.04
726.849	0.05
727.028	0.12
727.208	0.09
727.387	0.13
727.567	-0
727.746	0.13
727.925	0.09
728.105	0.09
728.284	0.03
728.463	0.07
728.643	0.16
728.822	0
729.001	0.09
729.18	0.19
729.359	0.18
729.539	0.09
729.718	0.14
729.897	0.17
730.076	0.06
730.255	0.02
730.434	0.19
730.614	0.17
730.793	0.24
730.972	0.12
731.151	0.03
731.33	0.21
731.509	0.15
731.688	0.09
731.867	0.12
732.046	-0.1
732.225	0.24
732.404	0.07
732.583	0.1
732.762	0.17
732.941	0.18
733.12	0.1
733.298	0.14
733.477	0.18
733.656	0.04
733.835	0.09
734.014	0.16
734.193	0.12
734.371	0.21
734.55	0.19
734.729	0.06
734.908	0.18
735.086	0.12
735.265	0.2
735.444	-0.02
735.623	-0
735.801	-0.05
735.98	0.14
736.159	0.05
736.337	0.15
736.516	0.24
736.694	0.04
736.873	0.06
737.052	0.31
737.23	0.22
737.409	0.12
737.587	0.36
737.766	0.01
737.944	0.06
738.123	0.14
738.301	0.15
738.479	0.07
738.658	0.26
738.836	0.01
739.015	0.19
739.193	0.19
739.371	-0
739.55	-0.01
739.728	-0.02
739.906	0.27
740.085	0.29
740.263	0.15
740.441	-0.08
740.62	0.29
740.798	0.14
740.976	0.02
741.154	0.03
741.332	0.26
741.511	0.11
741.689	0.14
741.867	0.26
742.045	0.09
742.223	0.09
742.401	0.1
742.579	0.11
742.757	0.14
742.935	-0
743.114	0.15
743.292	0.14
743.47	0.17
743.648	0.15
743.826	0.18
744.004	0.22
744.181	0.15
744.359	0.14
744.537	0.19
744.715	0.11
744.893	0.08
745.071	0.11
745.249	0.15
745.427	0.08
745.605	0.22
745.782	0.09
745.96	0.21
746.138	0.18
746.316	0.21
746.493	0.13
746.671	0.19
746.849	0.09
747.027	0.25
747.204	-0
747.382	0.22
747.56	0.03
747.737	0.18
747.915	0.09
748.093	0.1
748.27	-0.07
748.448	0.13
748.625	-0.02
748.803	-0.09
748.98	0.09
749.158	0.17
749.335	0.25
749.513	0.03
749.69	0.12
749.868	0.02
750.045	0.15
750.223	0.05
750.4	-0.12
750.578	0.24
750.755	0.02
750.932	-0.02
751.11	0.23
751.287	-0.01
751.464	0.25
751.642	0.07
751.819	0.22
751.996	0.08
752.173	0.11
752.351	-0.06
752.528	0.1
752.705	0.08
752.882	-0.07
753.06	0.06
753.237	0.22
753.414	0.31
753.591	0.3
753.768	0.13
753.945	0.07
754.122	0.08
754.299	0.17
754.476	0.06
754.654	0.18
754.831	0.22
755.008	0.12
755.185	0.07
755.362	0.02
755.539	0.07
755.716	0.02
755.892	0.06
756.069	0.1
756.246	0.09
756.423	0.12
756.6	0.26
756.777	0.1
756.954	0.28
757.131	0.08
757.307	0.06
757.484	0.04
757.661	0.16
757.838	0.22
758.015	-0.01
758.191	0.25
758.368	0.05
758.545	0.21
758.721	0.23
758.898	0.04
759.075	0.11
759.251	0.24
759.428	0.25
759.605	-0.05
759.781	0.07
759.958	0.17
760.134	0.04
760.311	0.02
760.488	0.26
760.664	0.21
760.841	0.2
761.017	-0.08
761.194	0.11
761.37	0.18
761.547	0.05
761.723	0.14
761.899	0.23
762.076	0.02
762.252	0.12
762.429	0.13
762.605	0.31
762.781	0.17
762.958	0.14
763.134	0.09
763.31	-0.04
763.486	0.25
763.663	-0.1
763.839	0.23
764.015	-0.03
764.191	0.04
764.368	0.02
764.544	-0.01
764.72	0.14
764.896	0.17
765.072	0.11
765.248	-0.04
765.425	-0.06
765.601	0.17
765.777	0.1
765.953	0
766.129	-0.01
766.305	-0.03
766.481	0.15
766.657	0.11
766.833	0.32
767.009	-0.08
767.185	0.07
767.361	0.19
767.537	-0.08
767.713	0.25
767.889	0.02
768.065	0.06
768.24	0.25
768.416	0.22
768.592	0.09
768.768	0.12
768.944	0.19
769.12	0.11
769.295	0.14
769.471	0.05
769.647	0.05
769.823	0.33
769.998	0.05
770.174	0.13
770.35	0.42
770.525	0.3
770.701	0.06
770.877	0.02
771.052	0.05
771.228	0.22
771.403	0.18
771.579	0.2
771.755	0.47
771.93	0.13
772.106	0.12
772.281	-0.22
772.457	0.09
772.632	0.14
772.808	-0.03
772.983	0.1
773.159	-0.04
773.334	0.23
773.509	0.1
773.685	0.02
773.86	0.44
774.036	0.32
774.211	0.05
774.386	0.01
774.562	0.15
774.737	0.35
774.912	-0.08
775.087	0.26
775.263	0.08
775.438	0.24
775.613	0.02
775.788	0.12
775.964	0.25
776.139	0.49
776.314	-0.22
776.489	0.29
776.664	0.17
776.839	-0.02
777.014	0.2
777.19	0.25
777.365	0.25
777.54	0.3
777.715	0.05
777.89	0.21
778.065	-0.07
778.24	0.22
778.415	0.23
778.59	-0.15
778.765	-0.04
778.94	0.07
779.115	0.09
779.289	0.02
779.464	0.08
779.639	0.08
779.814	0.06
779.989	0.03
780.164	0.18
780.339	0.13
780.513	0.06
780.688	-0.11
780.863	0.04
781.038	0.3
781.212	0.13
781.387	0.22
781.562	0.31
781.737	0.03
781.911	0.25
782.086	-0.02
782.261	0.01
782.435	0.33
782.61	-0.05
782.784	0.14
782.959	0.13
783.134	0.1
783.308	-0.02
783.483	-0.04
783.657	0.36
783.832	0.16
784.006	-0.21
784.181	0.02
784.355	0.47
784.53	-0.15
784.704	0.04
784.878	0.4
785.053	0.36
785.227	0.31
785.402	0.45
785.576	-0.17
785.75	0.08
785.925	0.09
786.099	0.04
786.273	0.2
786.448	0.18
786.622	0.35
786.796	0.07
786.97	0.05
787.145	0.6
787.319	-0.19
787.493	0.18
787.667	-0.16
787.841	0.15
788.015	0.4
788.19	0.02
788.364	0.14
788.538	0.09
788.712	0.29
788.886	0.01
789.06	0.28
789.234	0.36
789.408	-0.02
789.582	0.05
789.756	0.07
789.93	0.04
790.104	0.06
790.278	-0.04
790.452	-0.14
790.626	0.31
790.8	0.06
790.973	0.55
791.147	0.4
791.321	0.44
791.495	0.24
791.669	0.05
791.843	0.2
792.016	-0.01
792.19	0.56
792.364	0.15
792.538	0.63
792.711	0.56
792.885	0.05
793.059	0.06
793.233	-0.29
793.406	0.4
793.58	0.14
793.754	0.35
793.927	0.21
794.101	0.62
794.274	0.12
794.448	0.35
794.622	-0.03
794.795	0.4
794.969	0.05
795.142	0.41
795.316	0.05
795.489	0.02
795.663	0.54
795.836	0.04
796.009	0.02
796.183	0.37
796.356	0.23
796.53	0.27
796.703	-0.04
796.876	0.5
797.05	0.26
797.223	0.26
797.396	0.48
797.57	0.36
797.743	0.3
797.916	0.22
798.09	0.21
798.263	0.38
798.436	0.54
798.609	-0.01
798.782	0.25
798.956	0.26
799.129	0.18
799.302	0.24
799.475	-0.19
799.648	-0.02
799.821	0.13
799.994	0.24
800.167	-0.2
800.34	-0
800.514	-0.1
800.687	0.46
800.86	-0.09
801.033	0.54
801.206	0.25
801.379	-0.19
801.551	0.3
801.724	0.23
801.897	0.53
802.07	0.04
802.243	-0.38
802.416	0.09
802.589	-0.06
802.762	0.08
802.935	-0.14
803.107	0.19
803.28	0.26
803.453	0.32
803.626	-0.2
803.798	0.02
803.971	0.02
804.144	0.13
804.317	0.27
804.489	0.39
804.662	0.29
804.835	-0.18
805.007	-0.25
805.18	0.49
805.353	0.29
805.525	-0.1
805.698	-0.21
805.87	0.43
806.043	0.42
806.215	-0.24
806.388	0.2
806.56	0.43
806.733	0.84
806.905	0.32
807.078	-0.21
807.25	0.22
807.423	0.14
807.595	0.19
807.768	0.17
807.94	0.5
808.112	0.17
808.285	0.42
808.457	-0.38
808.629	-0.07
808.802	0.33
808.974	0
809.146	-0.01
809.318	-0.15
809.491	0.39
809.663	0.42
809.835	-0.01
810.007	0.31
810.18	0.31
810.352	0.01
810.524	0.07
810.696	0.5
810.868	0.77
811.04	0.42
811.212	0.27
811.384	0.4
811.556	0.21
811.728	0.27
811.901	0.95
812.073	0.13
812.245	0.52
812.417	0.44
812.589	-0.84
812.76	-0.17
812.932	0.24
813.104	0.54
813.276	0.34
813.448	0.93
813.62	0.04
813.792	0.37
813.964	0.35
814.136	0.31
814.307	0.07
814.479	-0.03
814.651	0.06
814.823	0.57
814.995	0.1
815.166	0.4
815.338	-0.21
815.51	-0.41
815.681	1.29
815.853	0.42
816.025	0.55
816.196	1.24
816.368	0.85
816.54	-0.14
816.711	-0.27
816.883	0.37
817.054	0.89
817.226	-0.18
817.398	0.14
817.569	-0.35
817.741	0.64
817.912	0.09
818.084	-0.09
818.255	0.54
818.426	0.11
818.598	0.13
818.769	-0.07
818.941	0.44
819.112	0.73
819.283	0.4
819.455	0.17
819.626	0.35
819.798	0.46
819.969	0.19
820.14	0.44
820.311	-0.36
820.483	0.7
820.654	0.57
820.825	0.31
820.996	0.05
821.168	0.06
821.339	-0.35
821.51	-0.35
821.681	0.07
821.852	0.38
822.023	-0.02
822.195	-0.64
822.366	0.47
822.537	0.08
822.708	0.48
822.879	-0.18
823.05	0.48
823.221	-0.25
823.392	0.25
823.563	0.26
823.734	0.54
823.905	-0.01
824.076	-0.69
824.247	-0.02
824.418	-0.03
824.589	0.6
824.759	0.24
824.93	-0.08
825.101	-0.43
825.272	0.59
825.443	1.08
825.614	0.94
825.784	-0.39
825.955	0.46
826.126	1.16
826.297	-0.04
826.467	0.81
826.638	0.68
826.809	-1
826.98	0.18
827.15	0.13
827.321	0.54
827.492	0.89
827.662	0.55
827.833	1.13
828.003	0.74
828.174	-0.31
828.345	-0.79
828.515	0.99
828.686	0.54
828.856	0.16
829.027	-0.18
829.197	0.86
829.368	0.22
829.538	-0.02
829.709	0.18
829.879	0.21
830.049	0.29
830.22	0.21
830.39	0.41
830.56	0.8
830.731	0.13
830.901	-0.33
831.072	0.2
831.242	-0.17
831.412	0.65
831.582	0.14
831.753	-0.34
831.923	0.56
832.093	0.17
832.263	0.45
832.434	-0.13
832.604	0.24
832.774	1.17
832.944	0.23
833.114	0.13
833.284	0.46
833.454	-0.81
833.624	0.02
833.795	-0.47
833.965	0.42
834.135	0.9
834.305	-0.19
834.475	-0.42
834.645	0.55
834.815	-0.62
834.985	-0.41
835.155	0.03
835.325	0.17
835.494	0.08
835.664	0.28
835.834	-0.08
836.004	0.78
836.174	0.52
836.344	-0.32
836.514	-0.45
836.684	-0.4
836.853	0.81
837.023	0.58
837.193	0.03
837.363	0.8
837.532	0.99
837.702	-0.1
837.872	0.13
838.041	0.86
838.211	1.89
838.381	-0.26
838.55	0.3
838.72	1.47
838.89	2.13
839.059	-0.42
839.229	-0.73
839.398	1.69
839.568	-0.16
839.738	0.19
839.907	1.57
840.077	0.81
840.246	-0.14
840.416	-0.02
840.585	-0.24
840.755	1.03
840.924	1.55
841.093	-0.05
841.263	0.3
841.432	0.66
841.602	-0.68
841.771	-0.64
841.94	-0.16
842.11	2.08
842.279	2.22
842.448	-0.73
842.617	-0.32
842.787	1.24
842.956	-0.26
843.125	-0.02
843.294	1.1
843.464	1.32
843.633	0.08
843.802	-0.6
843.971	-0.18
844.14	1.36
844.309	1.16
844.479	-0.53
844.648	-0.38
844.817	0.64
844.986	0.28
845.155	-0.35
845.324	-0.17
845.493	0.07
845.662	-0.89
845.831	-0.01
846	1.35
846.169	-0.06
846.338	2.21
846.507	0.97
846.676	0.56
846.844	-0.33
847.013	0.7
847.182	0.16
847.351	-0.26
847.52	0.2
847.689	1.15
847.858	0.74
848.026	0.1
848.195	-0.02
848.364	-0.14
848.533	-0.58
848.701	0.48
848.87	-0.04
849.039	0.87
849.207	0.96
849.376	1.44
849.545	0.95
849.713	0.68
849.882	-0.04
850.051	-0.3
850.219	1.06
850.388	0.48
850.556	-0.1
850.725	-0.73
850.893	0.71
851.062	-0.14
851.23	1.55
851.399	-1.09
851.567	-0.19
851.736	0.76
851.904	-0.57
852.073	0.49
852.241	2.32
852.41	0.58
852.578	0.86
852.746	-0.06
852.915	1.29
853.083	0.23
853.251	-0.66
853.42	-0.3
853.588	0.65
853.756	2.14
853.924	-0.36
854.093	0.92
854.261	-0.4
854.429	-1.43
854.597	-0.03
854.765	-0.97
854.934	0.12
855.102	1.04
855.27	0.23
855.438	1.14
855.606	0.29
855.774	1.67
855.942	-0.96
856.11	-2.06
856.278	1.58
856.446	0.89
856.614	-0.28
856.782	0.19
856.95	1.31
857.118	0.89
857.286	1.07
857.454	-0.16
857.622	0.44
857.79	0.93
857.958	-0.05
858.126	-0.43
858.294	-2.21
858.462	0.21
858.629	0.07
858.797	-1.07
858.965	1.04
859.133	0.93
859.301	0.29
859.468	0.42
859.636	-0.5
859.804	2.51
859.971	0.3
860.139	0.19
860.307	0.82
860.474	0.23
860.642	-0.33
860.81	1.34
860.977	0.61
861.145	1.69
861.313	0.04
861.48	0.47
861.648	0.76
861.815	1.01
861.983	-1.38
862.15	1.34
862.318	1.78
862.485	1.39
862.653	-0.08
862.82	-0.58
862.988	2.02
863.155	1.89
863.322	-0.08
863.49	-0.08
863.657	-0.56
863.824	2.84
863.992	1.3
864.159	0.4
864.326	1.66
864.494	0.79
864.661	3.47
864.828	-1.17
864.996	1.5
865.163	1.44
865.33	-0.51
865.497	-1.17
865.664	-0.58
865.832	-0.97
865.999	-0.76
866.166	-0.22
866.333	-1.43
866.5	-1.65
866.667	0.51
866.834	0.27
867.001	2.16
867.168	0.1
867.335	0.87
867.502	-1.01
867.669	0.9
867.836	3.01
868.003	0.62
868.17	2.08
868.337	-0.43
868.504	2.42
868.671	-1.77
868.838	0.67
869.005	1.1
869.172	0.68
869.339	1.27
869.505	-0.19
869.672	0.33
869.839	2.36
870.006	0.28
870.173	-3.36
870.339	1.45
870.506	2.51
870.673	0.16
870.84	1.92
871.006	0.41
871.173	0.44
871.34	1.07
871.506	-0.31
871.673	1.54
871.839	-0.69
872.006	1.95
872.173	0.79
872.339	1.71
872.506	2.25
872.672	0.15
872.839	-1
873.005	-0.1
873.172	2.3
873.338	2.2
873.505	1.71
873.671	0.96
873.838	0.29
874.004	-1.24
874.171	-0.27
874.337	0.31
874.503	1.42
874.67	-0.59
874.836	0.22
875.002	2.25
875.169	2.26
875.335	-0.11
875.501	0.35
875.668	0.37
875.834	0.28
876	0.48
876.166	1.29
876.332	2.04
876.499	3.01
876.665	-0.67
876.831	-0.44
876.997	4.01
877.163	0.9
877.329	-2.38
877.495	1.79
877.662	-0.07
877.828	0.58
877.994	0.96
878.16	-0.2
878.326	0.83
878.492	2.59
878.658	-0.96
878.824	0.95
878.99	3.46
879.156	0.5
879.322	2.13
879.487	0.65
879.653	0.52
879.819	-0.26
879.985	0.54
880.151	1.02
880.317	1.27
880.483	2.33
880.648	2.78
880.814	-2.97
880.98	0.95
881.146	-1.88
881.312	-0.71
881.477	-0.17
881.643	1.78
881.809	2.18
881.974	3.57
882.14	-0.96
882.306	1.01
882.471	5.44
882.637	0.62
882.803	1.08
882.968	3.4
883.134	4.19
883.299	-1.01
883.465	1.59
883.63	2.59
883.796	1.08
883.961	2.05
884.127	1.28
884.292	-2.92
884.458	-1.74
884.623	-1.73
