Data from Apollo_Calib_20240827__AbsoluteIrradiance__721__11-10-03-117.txt Node

Date: Wed Aug 28 11:10:03 BST 2024
User: biology
Spectrometer: FLMT08252
Trigger mode: 0
Integration Time (sec): 5.000000E-1
Scans to average: 5
Electric dark correction enabled: true
Nonlinearity correction enabled: false
Boxcar width: 0
XAxis mode: Wavelengths
Number of Pixels in Spectrum: 3648
>>>>>Begin Spectral Data<<<<<
179.588	-0
179.809	-0
180.03	-0
180.251	-0
180.473	-0
180.694	0
180.915	0
181.136	-0
181.357	0
181.578	-0
181.799	-0
182.02	-0
182.241	0
182.462	-0
182.683	0
182.904	-0
183.125	-0
183.346	0
183.567	0
183.788	-0
184.009	-0
184.23	0
184.451	0
184.672	-0
184.892	-0
185.113	0
185.334	0
185.555	-0
185.776	-0
185.996	0
186.217	0
186.438	0
186.659	-0
186.879	0
187.1	-0
187.321	-0
187.541	-0
187.762	0
187.983	-0
188.203	0
188.424	0
188.644	-0
188.865	-0
189.086	-0
189.306	0
189.527	-0
189.747	-0
189.968	-0
190.188	0
190.409	0
190.629	0
190.849	-0
191.07	-0
191.29	0
191.511	0
191.731	-0
191.951	-0
192.172	0
192.392	0
192.612	-0
192.833	0
193.053	0
193.273	0
193.493	0
193.714	0
193.934	0
194.154	0
194.374	0
194.594	-0
194.815	0
195.035	0
195.255	0
195.475	-0
195.695	0
195.915	0
196.135	-0
196.355	0
196.575	0
196.795	0
197.015	-0
197.235	-0
197.455	0
197.675	0
197.895	-0
198.115	-0
198.335	0
198.555	0
198.775	0
198.995	0
199.214	0
199.434	0
199.654	-0
199.874	-0
200.094	1.04
200.313	0.22
200.533	-0.13
200.753	-0.97
200.973	0.92
201.192	0.71
201.412	-1.04
201.632	-0.07
201.851	1.04
202.071	-0.09
202.291	0.1
202.51	-0.87
202.73	0.58
202.95	-0.29
203.169	-0.13
203.389	-0.19
203.608	0.36
203.828	-0.42
204.047	-0.29
204.267	0.07
204.486	0.02
204.706	0.26
204.925	-0.04
205.145	0.05
205.364	0.6
205.583	0.7
205.803	-0.22
206.022	-0.34
206.242	0.18
206.461	0.08
206.68	-0.3
206.9	-0.04
207.119	0.72
207.338	0.5
207.557	-0.15
207.777	-0.18
207.996	0.16
208.215	0.57
208.434	-0.03
208.654	-0.38
208.873	0.05
209.092	0.74
209.311	-0.11
209.53	-0.31
209.749	0.34
209.968	-0.01
210.187	-0.06
210.407	-0.68
210.626	-0.25
210.845	0.39
211.064	0.11
211.283	-0.23
211.502	0.36
211.721	-0.05
211.94	0.14
212.159	0.05
212.377	0.32
212.596	0.57
212.815	0.11
213.034	0.44
213.253	0.34
213.472	0.31
213.691	-0.14
213.91	-0.2
214.128	-0.04
214.347	0.6
214.566	-0.37
214.785	-0.25
215.003	0.17
215.222	0.19
215.441	0.07
215.66	-0.16
215.878	0.27
216.097	0.4
216.316	-0.25
216.534	-0.22
216.753	0.38
216.972	0.08
217.19	0.17
217.409	-0.13
217.627	-0.01
217.846	0.09
218.064	-0.06
218.283	-0.12
218.501	0.58
218.72	0.31
218.938	-0.05
219.157	-0.06
219.375	0.32
219.594	0.26
219.812	-0.03
220.031	-0.09
220.249	0.33
220.467	0.28
220.686	-0.09
220.904	-0.03
221.122	-0.12
221.341	0.47
221.559	-0.07
221.777	-0.07
221.995	0.11
222.214	0.24
222.432	0
222.65	0.18
222.868	-0.11
223.086	0.16
223.305	0.14
223.523	0
223.741	0.37
223.959	-0.14
224.177	-0.17
224.395	-0.07
224.613	0.04
224.831	0.31
225.049	-0.13
225.267	-0.02
225.485	0.12
225.703	0.04
225.921	-0.02
226.139	-0.06
226.357	0.2
226.575	0.19
226.793	-0.08
227.011	0.63
227.229	0.15
227.447	0.11
227.665	0.05
227.883	-0.15
228.1	0.07
228.318	0.1
228.536	-0.14
228.754	0.02
228.972	0.16
229.189	0.13
229.407	0.01
229.625	0.02
229.843	0.26
230.06	0.2
230.278	-0.08
230.496	0.06
230.713	0.06
230.931	0.34
231.149	-0.07
231.366	-0.26
231.584	-0.01
231.801	0.33
232.019	-0.03
232.236	-0.09
232.454	-0.04
232.671	0.18
232.889	0.15
233.106	-0.14
233.324	0.11
233.541	0
233.759	0.02
233.976	-0
234.194	0.04
234.411	0.08
234.628	-0.16
234.846	-0.02
235.063	0.05
235.28	-0.06
235.498	0.05
235.715	-0.04
235.932	0.12
236.149	0.04
236.367	0.03
236.584	0.05
236.801	0.07
237.018	0.08
237.236	-0.01
237.453	-0.09
237.67	0.12
237.887	-0.03
238.104	-0.02
238.321	-0.03
238.538	0.04
238.755	0.15
238.973	-0.13
239.19	-0.02
239.407	0.03
239.624	0
239.841	-0.09
240.058	0
240.275	0.18
240.492	0.01
240.709	0.03
240.925	-0.05
241.142	0.07
241.359	-0.1
241.576	-0.01
241.793	-0
242.01	-0
242.227	0.11
242.444	0.11
242.66	0.14
242.877	0.03
243.094	-0.01
243.311	0.08
243.527	-0.05
243.744	0.09
243.961	0.08
244.178	-0.05
244.394	0.13
244.611	0.17
244.828	0.13
245.044	-0.04
245.261	-0.01
245.477	0.1
245.694	0.13
245.911	-0.03
246.127	0.04
246.344	0.15
246.56	0.1
246.777	0.02
246.993	-0.01
247.21	0.1
247.426	0.1
247.643	-0.01
247.859	-0.1
248.076	-0.04
248.292	0.27
248.508	0.03
248.725	0.1
248.941	0.04
249.157	0.16
249.374	-0.04
249.59	0.05
249.806	-0.04
250.023	0.25
250.239	-0.12
250.455	-0.02
250.671	0.1
250.888	0.09
251.104	0.06
251.32	0.05
251.536	0.08
251.752	0.02
251.969	0.03
252.185	0.06
252.401	0.19
252.617	0.04
252.833	0.02
253.049	0.07
253.265	0.03
253.481	0.07
253.697	0.02
253.913	-0.1
254.129	-0.02
254.345	0.09
254.561	0.02
254.777	0.02
254.993	0.12
255.209	0.07
255.425	0.04
255.641	-0
255.857	0.17
256.073	0.02
256.288	-0.1
256.504	0.02
256.72	0.09
256.936	0.18
257.152	0.02
257.367	-0
257.583	-0.03
257.799	0.07
258.015	-0.06
258.23	-0.01
258.446	0.19
258.662	0.06
258.877	-0.05
259.093	-0.04
259.309	0.06
259.524	0.04
259.74	0.02
259.955	-0.06
260.171	0.08
260.387	0
260.602	0.12
260.818	0.03
261.033	-0.13
261.249	-0.04
261.464	-0
261.68	-0.02
261.895	0.09
262.11	0.05
262.326	-0.02
262.541	-0.07
262.757	0.06
262.972	0.07
263.187	0.07
263.403	0.01
263.618	0.15
263.833	0.07
264.049	-0.04
264.264	-0.01
264.479	0
264.694	0.1
264.91	-0.05
265.125	-0
265.34	0.11
265.555	0.2
265.77	0.05
265.986	-0.02
266.201	0.08
266.416	0.16
266.631	-0.06
266.846	0.01
267.061	0.07
267.276	0.08
267.491	-0.08
267.706	0.1
267.921	0.17
268.136	0.02
268.351	-0
268.566	-0.03
268.781	0.15
268.996	0.09
269.211	0
269.426	-0.08
269.641	0.02
269.856	0.09
270.071	-0.04
270.285	-0.07
270.5	0.09
270.715	0.12
270.93	0.05
271.145	0.04
271.359	0.14
271.574	0.01
271.789	0.03
272.004	-0.03
272.218	0.04
272.433	0.13
272.648	0.04
272.862	0.12
273.077	-0.02
273.292	0.05
273.506	-0.04
273.721	-0.04
273.936	0.2
274.15	0.09
274.365	-0.01
274.579	0.08
274.794	0.08
275.008	0.1
275.223	-0.08
275.437	0.01
275.652	0.05
275.866	0.07
276.081	-0.03
276.295	0.12
276.509	0.02
276.724	0.04
276.938	0.08
277.153	0.06
277.367	0.05
277.581	-0.01
277.796	-0.03
278.01	0.04
278.224	0.07
278.438	0.16
278.653	-0.05
278.867	0
279.081	-0.09
279.295	0.03
279.51	0.07
279.724	-0.06
279.938	0.03
280.152	0.07
280.366	0.01
280.58	0.08
280.794	0.11
281.008	0.03
281.222	0.11
281.437	0.16
281.651	0.09
281.865	0.08
282.079	0.01
282.293	-0.09
282.507	-0.06
282.721	0.03
282.935	0.02
283.148	-0.05
283.362	0.01
283.576	-0.05
283.79	-0.03
284.004	0.03
284.218	0.08
284.432	-0.01
284.646	0.01
284.859	-0
285.073	-0
285.287	0.05
285.501	-0.01
285.714	0.01
285.928	0.05
286.142	0.04
286.356	-0.01
286.569	-0.02
286.783	0.08
286.997	0.05
287.21	0.06
287.424	0.02
287.637	0.03
287.851	0.02
288.065	0.05
288.278	-0.02
288.492	0.03
288.705	0.02
288.919	0.01
289.132	0.01
289.346	0.09
289.559	-0.02
289.773	-0.07
289.986	0.02
290.2	0.03
290.413	0.08
290.626	-0.03
290.84	0.03
291.053	0.03
291.267	0.06
291.48	0.03
291.693	0.01
291.906	-0.03
292.12	-0.01
292.333	-0.02
292.546	0.05
292.76	0.09
292.973	0.03
293.186	0.07
293.399	0
293.612	0.09
293.826	0.04
294.039	0.05
294.252	0.01
294.465	0.05
294.678	0.07
294.891	0.05
295.104	-0.01
295.317	0.05
295.53	0.04
295.743	-0.01
295.956	0.01
296.169	0.04
296.382	0.06
296.595	0.06
296.808	0
297.021	0.05
297.234	0.07
297.447	-0
297.66	0.06
297.873	0.09
298.086	0.11
298.299	0.03
298.511	-0.03
298.724	0.02
298.937	-0.07
299.15	-0.03
299.363	0.04
299.575	0.09
299.788	0.07
300.001	-0.03
300.213	0.04
300.426	0.04
300.639	0.02
300.852	0.02
301.064	0.08
301.277	0.09
301.489	0.06
301.702	0.04
301.915	0.04
302.127	0.06
302.34	0.08
302.552	0.05
302.765	0.02
302.977	0.12
303.19	0.02
303.402	0.02
303.615	0.03
303.827	0
304.04	0.04
304.252	0.07
304.464	0.04
304.677	0.14
304.889	0.11
305.102	-0.06
305.314	-0.01
305.526	0.08
305.739	0.02
305.951	-0.02
306.163	0.01
306.375	0.13
306.588	-0.02
306.8	-0.03
307.012	-0.05
307.224	0.02
307.436	0.13
307.649	-0.06
307.861	0.05
308.073	0.04
308.285	0.04
308.497	-0.03
308.709	0.03
308.921	0.08
309.133	0.04
309.346	0.02
309.558	-0.01
309.77	0.06
309.982	0.13
310.194	0.06
310.406	0.02
310.617	0.08
310.829	0.06
311.041	0.07
311.253	0
311.465	-0
311.677	0.01
311.889	0.02
312.101	0.01
312.313	0.05
312.524	0.08
312.736	-0.06
312.948	0.02
313.16	0.1
313.372	0.06
313.583	0.07
313.795	0.04
314.007	-0.03
314.218	0.07
314.43	0.04
314.642	-0.01
314.853	-0.04
315.065	0.07
315.277	0.04
315.488	0.03
315.7	0.11
315.912	0.03
316.123	0.01
316.335	0.06
316.546	0.07
316.758	0
316.969	-0
317.181	0.03
317.392	0.05
317.604	0.1
317.815	-0.01
318.026	-0.02
318.238	0
318.449	0.02
318.661	-0.04
318.872	0.01
319.083	-0.04
319.295	0.03
319.506	-0.01
319.717	0.05
319.929	0.06
320.14	0.03
320.351	0.05
320.562	-0.02
320.774	0.08
320.985	0.02
321.196	-0.04
321.407	-0.07
321.618	0.05
321.829	0.02
322.041	0.07
322.252	-0.01
322.463	0.07
322.674	0.03
322.885	0.01
323.096	0.03
323.307	-0
323.518	0.06
323.729	0.01
323.94	-0.02
324.151	-0.02
324.362	0.06
324.573	0.02
324.784	-0.01
324.995	0.09
325.206	0.05
325.417	-0.01
325.628	0.03
325.838	0.01
326.049	0.03
326.26	0.07
326.471	0.02
326.682	0.08
326.892	0.04
327.103	-0.02
327.314	-0.01
327.525	0.09
327.735	0.02
327.946	-0
328.157	0.02
328.368	0.02
328.578	-0
328.789	0.05
328.999	0.02
329.21	-0.03
329.421	0.03
329.631	0.06
329.842	0.02
330.052	0.04
330.263	0.08
330.473	0.05
330.684	0.01
330.894	-0.03
331.105	0.03
331.315	0.03
331.526	-0.01
331.736	0.07
331.947	0.06
332.157	0.02
332.367	0.01
332.578	0.05
332.788	0.08
332.999	0.04
333.209	0.06
333.419	-0.03
333.629	0.02
333.84	0.06
334.05	0.03
334.26	0.11
334.47	-0
334.681	0.07
334.891	0.02
335.101	0.08
335.311	0.1
335.521	0.03
335.732	-0.03
335.942	0.11
336.152	0.06
336.362	0.04
336.572	0.04
336.782	0.08
336.992	-0.02
337.202	0.01
337.412	0.02
337.622	0.01
337.832	0.02
338.042	0.03
338.252	-0
338.462	0.02
338.672	0.07
338.882	-0.04
339.092	0.02
339.302	0.09
339.511	0.06
339.721	-0.04
339.931	-0.06
340.141	0.06
340.351	0.06
340.561	0.01
340.77	0.05
340.98	0.02
341.19	0.05
341.4	0
341.609	-0.01
341.819	0.01
342.029	-0.02
342.238	0.03
342.448	-0.05
342.658	0.05
342.867	0.02
343.077	0.04
343.286	0.02
343.496	0.07
343.706	0.1
343.915	-0.02
344.125	0.07
344.334	0.05
344.544	-0.02
344.753	-0
344.963	0
345.172	0.02
345.381	0.01
345.591	-0
345.8	0.06
346.01	0.07
346.219	0.09
346.428	-0.1
346.638	-0.01
346.847	0.02
347.056	0.08
347.266	-0.02
347.475	0.02
347.684	0.04
347.893	0
348.103	0.04
348.312	0.03
348.521	0
348.73	0.06
348.94	0.06
349.149	0.06
349.358	-0.02
349.567	-0.01
349.776	-0.05
349.985	-0.02
350.194	0.07
350.403	0.11
350.612	-0.05
350.821	0.01
351.03	0.01
351.239	-0.03
351.448	0.06
351.657	-0.02
351.866	0.1
352.075	0.02
352.284	0.08
352.493	-0.02
352.702	0.05
352.911	0.04
353.12	0.01
353.329	0.01
353.538	0.07
353.746	0.03
353.955	0.05
354.164	0.06
354.373	0
354.582	0.05
354.79	0.07
354.999	0.08
355.208	-0
355.416	0.1
355.625	-0.03
355.834	-0.02
356.042	0.02
356.251	0.04
356.46	-0.02
356.668	0.06
356.877	0.09
357.085	0.1
357.294	-0.02
357.503	0.05
357.711	0.04
357.92	0.15
358.128	0.03
358.337	0.04
358.545	0.07
358.754	0.03
358.962	0.05
359.17	-0.01
359.379	0.05
359.587	0.03
359.796	0.02
360.004	0.1
360.212	0.06
360.421	0.09
360.629	-0.01
360.837	0.02
361.046	0.05
361.254	0.11
361.462	0.04
361.67	-0
361.879	0.03
362.087	0.1
362.295	0.01
362.503	0.03
362.711	0
362.92	0.01
363.128	0
363.336	-0.01
363.544	-0.01
363.752	0.03
363.96	-0.02
364.168	0.04
364.376	0.05
364.584	0.03
364.792	0.07
365	0.05
365.208	0.02
365.416	0.06
365.624	0.07
365.832	-0.02
366.04	0.07
366.248	0.01
366.456	0.03
366.664	0.03
366.872	0.06
367.079	-0
367.287	0.02
367.495	0.02
367.703	0.05
367.911	0.05
368.118	0.01
368.326	0.02
368.534	0.02
368.742	0.06
368.949	0.02
369.157	-0.01
369.365	0.06
369.572	-0
369.78	-0.01
369.988	0.07
370.195	0.05
370.403	0.06
370.61	-0.02
370.818	0.04
371.026	0.1
371.233	-0.02
371.441	0.05
371.648	-0.04
371.856	0.01
372.063	0
372.271	-0.01
372.478	-0.01
372.685	0.04
372.893	0.07
373.1	-0.01
373.308	0.02
373.515	0.1
373.722	0.01
373.93	0.04
374.137	0.08
374.344	0.12
374.552	0.07
374.759	0.06
374.966	0
375.173	0.01
375.381	0.1
375.588	0.05
375.795	-0.06
376.002	0
376.209	0.05
376.417	0
376.624	0.05
376.831	0.08
377.038	0.04
377.245	-0.05
377.452	0.01
377.659	0.03
377.866	0.01
378.073	0
378.28	0.04
378.487	0.07
378.694	0.07
378.901	0.02
379.108	0.02
379.315	0.07
379.522	0.11
379.729	0.01
379.936	-0
380.143	0.01
380.35	0.05
380.557	0.03
380.763	0.04
380.97	0.01
381.177	0.09
381.384	0.04
381.591	-0.01
381.797	0.05
382.004	0.06
382.211	0.04
382.418	-0.01
382.624	0.05
382.831	0.04
383.038	-0.02
383.244	0.05
383.451	0.02
383.658	0.05
383.864	0.03
384.071	-0.03
384.277	0.06
384.484	0.01
384.69	0.08
384.897	0.02
385.103	0.03
385.31	-0.04
385.516	-0.01
385.723	-0.04
385.929	-0.02
386.136	0.04
386.342	0.03
386.549	0.02
386.755	0.11
386.961	0.07
387.168	0
387.374	0.04
387.58	0.08
387.787	0.01
387.993	0.02
388.199	0.01
388.406	-0.03
388.612	0.05
388.818	0.03
389.024	0.03
389.231	0.04
389.437	0.1
389.643	0.07
389.849	0.02
390.055	0.08
390.261	0.03
390.467	0.09
390.674	0.01
390.88	-0.01
391.086	0.01
391.292	0.01
391.498	0.09
391.704	0.04
391.91	0.01
392.116	0.05
392.322	-0.08
392.528	0.03
392.734	0.05
392.94	0.04
393.146	0.03
393.352	0.04
393.557	-0.01
393.763	0.02
393.969	0.08
394.175	0.04
394.381	0.04
394.587	-0.02
394.792	0.04
394.998	0.07
395.204	0.08
395.41	0.01
395.615	0.05
395.821	0.04
396.027	0.04
396.233	0.02
396.438	0
396.644	0.08
396.85	0.06
397.055	0.03
397.261	0.07
397.466	0.15
397.672	0.06
397.878	0.06
398.083	0.03
398.289	0.01
398.494	0.05
398.7	0.07
398.905	-0.05
399.111	0.11
399.316	0
399.522	0.01
399.727	0.03
399.932	0.02
400.138	-0.01
400.343	0.09
400.549	0.04
400.754	0.04
400.959	0.08
401.165	0.05
401.37	0.04
401.575	-0.01
401.78	0.05
401.986	0.04
402.191	0
402.396	0.06
402.601	0.09
402.807	0.07
403.012	0.03
403.217	0.07
403.422	0.06
403.627	0.07
403.832	0.02
404.037	0.13
404.243	0.09
404.448	0.03
404.653	0.04
404.858	0.02
405.063	0.06
405.268	0.03
405.473	-0.01
405.678	-0.02
405.883	0.22
406.088	0.09
406.293	-0.02
406.498	0.02
406.703	0.14
406.907	0.07
407.112	-0.01
407.317	0.09
407.522	0.1
407.727	0.01
407.932	0.09
408.136	0.16
408.341	0.04
408.546	0.04
408.751	0.06
408.956	0.08
409.16	0.06
409.365	0.07
409.57	0.03
409.774	0.05
409.979	0.1
410.184	0.09
410.388	0.04
410.593	0.15
410.798	0.09
411.002	0.06
411.207	0.08
411.411	0.13
411.616	0.01
411.82	0.06
412.025	0.11
412.229	0.1
412.434	0.17
412.638	0.13
412.843	0.07
413.047	0.14
413.252	0.06
413.456	0.1
413.66	0.12
413.865	0.09
414.069	0.17
414.273	0.13
414.478	0.1
414.682	0.11
414.886	0.11
415.091	0.07
415.295	0.08
415.499	0.17
415.703	0.18
415.908	0.21
416.112	0.1
416.316	0.2
416.52	0.16
416.724	0.12
416.929	0.12
417.133	0.3
417.337	0.19
417.541	0.19
417.745	0.18
417.949	0.3
418.153	0.2
418.357	0.22
418.561	0.35
418.765	0.26
418.969	0.39
419.173	0.31
419.377	0.23
419.581	0.39
419.785	0.31
419.989	0.24
420.193	0.34
420.397	0.43
420.601	0.4
420.804	0.38
421.008	0.41
421.212	0.41
421.416	0.39
421.62	0.37
421.823	0.46
422.027	0.48
422.231	0.45
422.435	0.4
422.638	0.49
422.842	0.46
423.046	0.42
423.249	0.52
423.453	0.5
423.657	0.51
423.86	0.57
424.064	0.55
424.268	0.63
424.471	0.53
424.675	0.68
424.878	0.67
425.082	0.63
425.285	0.69
425.489	0.65
425.692	0.65
425.896	0.61
426.099	0.74
426.303	0.68
426.506	0.67
426.71	0.77
426.913	0.83
427.116	0.84
427.32	0.77
427.523	0.75
427.726	0.91
427.93	0.8
428.133	0.9
428.336	0.94
428.54	0.95
428.743	0.99
428.946	1.08
429.149	0.94
429.353	1.06
429.556	1.05
429.759	1.04
429.962	0.9
430.165	1.13
430.368	0.94
430.571	0.98
430.775	0.98
430.978	1.03
431.181	1.03
431.384	1.06
431.587	1.03
431.79	1.06
431.993	1.1
432.196	1.05
432.399	1.13
432.602	1.24
432.805	1.12
433.008	1.28
433.211	1.14
433.414	1.32
433.616	1.31
433.819	1.27
434.022	1.17
434.225	1.39
434.428	1.35
434.631	1.49
434.833	1.29
435.036	1.4
435.239	1.48
435.442	1.43
435.645	1.44
435.847	1.46
436.05	1.52
436.253	1.61
436.455	1.5
436.658	1.52
436.861	1.67
437.063	1.55
437.266	1.59
437.468	1.62
437.671	1.78
437.874	1.68
438.076	1.68
438.279	1.7
438.481	1.73
438.684	1.86
438.886	1.82
439.089	1.77
439.291	1.82
439.494	1.98
439.696	1.9
439.899	2.06
440.101	2.12
440.303	2.1
440.506	2.25
440.708	2.22
440.91	2.39
441.113	2.26
441.315	2.34
441.517	2.32
441.72	2.42
441.922	2.37
442.124	2.3
442.326	2.46
442.529	2.51
442.731	2.49
442.933	2.66
443.135	2.54
443.337	2.52
443.539	2.58
443.742	2.57
443.944	2.7
444.146	2.71
444.348	2.66
444.55	2.63
444.752	2.75
444.954	2.68
445.156	2.75
445.358	2.78
445.56	2.92
445.762	2.81
445.964	2.89
446.166	2.76
446.368	2.92
446.57	2.96
446.772	2.84
446.974	2.82
447.175	2.89
447.377	2.79
447.579	2.88
447.781	2.78
447.983	2.83
448.184	2.78
448.386	2.86
448.588	2.67
448.79	2.72
448.991	2.74
449.193	2.8
449.395	2.67
449.597	2.64
449.798	2.69
450	2.61
450.202	2.51
450.403	2.56
450.605	2.57
450.806	2.48
451.008	2.34
451.21	2.46
451.411	2.3
451.613	2.16
451.814	2.19
452.016	2.27
452.217	2.12
452.419	2.18
452.62	2.08
452.821	2.03
453.023	2.1
453.224	2
453.426	1.89
453.627	1.71
453.828	1.78
454.03	1.71
454.231	1.71
454.432	1.59
454.634	1.73
454.835	1.56
455.036	1.51
455.238	1.58
455.439	1.57
455.64	1.42
455.841	1.41
456.042	1.52
456.244	1.35
456.445	1.36
456.646	1.24
456.847	1.24
457.048	1.24
457.249	1.34
457.45	1.47
457.651	1.04
457.852	1.07
458.054	1.06
458.255	1.03
458.456	1.12
458.657	0.98
458.858	0.95
459.058	0.96
459.259	1
459.46	0.87
459.661	0.91
459.862	1.04
460.063	0.88
460.264	0.93
460.465	0.76
460.666	0.98
460.866	0.74
461.067	0.78
461.268	0.76
461.469	0.74
461.67	0.74
461.87	0.72
462.071	0.75
462.272	0.66
462.473	0.69
462.673	0.74
462.874	0.66
463.075	0.7
463.275	0.64
463.476	0.75
463.676	0.73
463.877	0.73
464.078	0.72
464.278	0.76
464.479	0.67
464.679	0.67
464.88	0.68
465.08	0.69
465.281	0.62
465.481	0.57
465.682	0.55
465.882	0.6
466.083	0.6
466.283	0.56
466.483	0.57
466.684	0.48
466.884	0.49
467.085	0.51
467.285	0.58
467.485	0.47
467.686	0.52
467.886	0.46
468.086	0.5
468.286	0.46
468.487	0.48
468.687	0.44
468.887	0.43
469.087	0.48
469.287	0.44
469.488	0.38
469.688	0.45
469.888	0.44
470.088	0.49
470.288	0.48
470.488	0.45
470.688	0.36
470.888	0.36
471.088	0.32
471.288	0.4
471.488	0.44
471.688	0.47
471.888	0.32
472.088	0.45
472.288	0.41
472.488	0.31
472.688	0.33
472.888	0.39
473.088	0.34
473.288	0.41
473.488	0.36
473.688	0.4
473.887	0.36
474.087	0.28
474.287	0.34
474.487	0.28
474.687	0.33
474.886	0.27
475.086	0.32
475.286	0.32
475.486	0.31
475.685	0.32
475.885	0.29
476.085	0.28
476.284	0.31
476.484	0.26
476.684	0.3
476.883	0.35
477.083	0.3
477.282	0.26
477.482	0.3
477.681	0.32
477.881	0.29
478.08	0.24
478.28	0.24
478.479	0.32
478.679	0.33
478.878	0.25
479.078	0.24
479.277	0.29
479.477	0.29
479.676	0.28
479.875	0.26
480.075	0.23
480.274	0.25
480.473	0.3
480.673	0.21
480.872	0.3
481.071	0.27
481.271	0.28
481.47	0.26
481.669	0.28
481.868	0.26
482.067	0.21
482.267	0.23
482.466	0.23
482.665	0.23
482.864	0.23
483.063	0.24
483.262	0.3
483.461	0.31
483.661	0.31
483.86	0.31
484.059	0.32
484.258	0.26
484.457	0.25
484.656	0.27
484.855	0.32
485.054	0.22
485.253	0.23
485.452	0.22
485.651	0.27
485.849	0.25
486.048	0.23
486.247	0.25
486.446	0.29
486.645	0.24
486.844	0.24
487.043	0.26
487.241	0.29
487.44	0.24
487.639	0.26
487.838	0.31
488.037	0.28
488.235	0.35
488.434	0.33
488.633	0.26
488.831	0.33
489.03	0.33
489.229	0.3
489.427	0.29
489.626	0.33
489.825	0.37
490.023	0.32
490.222	0.29
490.42	0.32
490.619	0.34
490.817	0.32
491.016	0.28
491.214	0.35
491.413	0.33
491.611	0.3
491.81	0.34
492.008	0.36
492.207	0.37
492.405	0.36
492.604	0.32
492.802	0.35
493	0.36
493.199	0.37
493.397	0.36
493.595	0.37
493.794	0.34
493.992	0.44
494.19	0.37
494.388	0.39
494.587	0.37
494.785	0.4
494.983	0.35
495.181	0.44
495.379	0.44
495.578	0.41
495.776	0.45
495.974	0.44
496.172	0.41
496.37	0.41
496.568	0.42
496.766	0.42
496.964	0.48
497.162	0.46
497.36	0.43
497.558	0.48
497.756	0.47
497.954	0.43
498.152	0.48
498.35	0.51
498.548	0.47
498.746	0.49
498.944	0.47
499.142	0.47
499.34	0.48
499.538	0.54
499.736	0.49
499.933	0.57
500.131	0.55
500.329	0.54
500.527	0.59
500.725	0.58
500.922	0.6
501.12	0.56
501.318	0.56
501.516	0.57
501.713	0.62
501.911	0.55
502.109	0.56
502.306	0.64
502.504	0.59
502.701	0.6
502.899	0.62
503.097	0.7
503.294	0.65
503.492	0.66
503.689	0.7
503.887	0.67
504.084	0.74
504.282	0.68
504.479	0.63
504.677	0.7
504.874	0.69
505.072	0.69
505.269	0.72
505.466	0.73
505.664	0.74
505.861	0.68
506.059	0.68
506.256	0.75
506.453	0.72
506.651	0.81
506.848	0.78
507.045	0.77
507.242	0.76
507.44	0.73
507.637	0.76
507.834	0.79
508.031	0.79
508.229	0.75
508.426	0.78
508.623	0.82
508.82	0.8
509.017	0.78
509.214	0.8
509.411	0.83
509.608	0.82
509.805	0.84
510.003	0.84
510.2	0.84
510.397	0.9
510.594	0.87
510.791	0.84
510.988	0.86
511.184	0.88
511.381	0.86
511.578	0.88
511.775	0.93
511.972	0.88
512.169	0.91
512.366	0.89
512.563	0.93
512.76	0.93
512.956	0.99
513.153	0.89
513.35	0.93
513.547	0.9
513.744	0.93
513.94	0.89
514.137	0.97
514.334	0.95
514.53	0.96
514.727	1.02
514.924	1.03
515.12	0.97
515.317	0.99
515.514	0.97
515.71	0.93
515.907	1.02
516.103	1.03
516.3	0.99
516.497	1.03
516.693	1.06
516.89	1.02
517.086	0.98
517.283	1.03
517.479	0.99
517.676	1.03
517.872	1.02
518.068	1.05
518.265	1.02
518.461	1.04
518.658	1.05
518.854	1.06
519.05	1.06
519.247	1.05
519.443	1.1
519.639	1.09
519.836	1.05
520.032	1.07
520.228	1.12
520.424	1.14
520.621	1.13
520.817	1.09
521.013	1.05
521.209	1.13
521.405	1.15
521.601	1.09
521.798	1.1
521.994	1.13
522.19	1.06
522.386	1.08
522.582	1.08
522.778	1.13
522.974	1.11
523.17	1.13
523.366	1.11
523.562	1.14
523.758	1.11
523.954	1.11
524.15	1.14
524.346	1.17
524.542	1.12
524.738	1.15
524.934	1.18
525.129	1.14
525.325	1.14
525.521	1.11
525.717	1.2
525.913	1.16
526.109	1.16
526.304	1.14
526.5	1.17
526.696	1.23
526.892	1.12
527.087	1.21
527.283	1.16
527.479	1.22
527.674	1.14
527.87	1.16
528.066	1.17
528.261	1.2
528.457	1.17
528.653	1.2
528.848	1.18
529.044	1.21
529.239	1.15
529.435	1.21
529.63	1.18
529.826	1.25
530.021	1.17
530.217	1.23
530.412	1.16
530.608	1.19
530.803	1.2
530.999	1.19
531.194	1.16
531.389	1.21
531.585	1.16
531.78	1.2
531.975	1.22
532.171	1.25
532.366	1.23
532.561	1.22
532.757	1.2
532.952	1.24
533.147	1.2
533.342	1.21
533.538	1.19
533.733	1.29
533.928	1.17
534.123	1.23
534.318	1.17
534.513	1.21
534.709	1.25
534.904	1.19
535.099	1.22
535.294	1.26
535.489	1.24
535.684	1.22
535.879	1.22
536.074	1.24
536.269	1.22
536.464	1.26
536.659	1.25
536.854	1.25
537.049	1.28
537.244	1.24
537.439	1.21
537.634	1.27
537.828	1.27
538.023	1.23
538.218	1.23
538.413	1.2
538.608	1.23
538.803	1.23
538.997	1.19
539.192	1.29
539.387	1.24
539.582	1.24
539.776	1.21
539.971	1.25
540.166	1.24
540.36	1.21
540.555	1.26
540.75	1.23
540.944	1.26
541.139	1.23
541.334	1.24
541.528	1.27
541.723	1.3
541.917	1.24
542.112	1.21
542.306	1.25
542.501	1.24
542.695	1.23
542.89	1.24
543.084	1.25
543.279	1.27
543.473	1.28
543.668	1.25
543.862	1.22
544.056	1.23
544.251	1.28
544.445	1.27
544.64	1.26
544.834	1.18
545.028	1.19
545.222	1.26
545.417	1.28
545.611	1.28
545.805	1.27
546	1.23
546.194	1.25
546.388	1.24
546.582	1.27
546.776	1.24
546.97	1.27
547.165	1.26
547.359	1.29
547.553	1.23
547.747	1.27
547.941	1.27
548.135	1.27
548.329	1.29
548.523	1.26
548.717	1.23
548.911	1.28
549.105	1.24
549.299	1.26
549.493	1.3
549.687	1.23
549.881	1.28
550.075	1.25
550.269	1.21
550.463	1.28
550.657	1.24
550.85	1.27
551.044	1.24
551.238	1.3
551.432	1.23
551.626	1.23
551.82	1.25
552.013	1.21
552.207	1.27
552.401	1.28
552.594	1.28
552.788	1.25
552.982	1.27
553.176	1.21
553.369	1.34
553.563	1.25
553.756	1.21
553.95	1.25
554.144	1.27
554.337	1.3
554.531	1.25
554.724	1.27
554.918	1.27
555.111	1.3
555.305	1.26
555.498	1.29
555.692	1.32
555.885	1.26
556.079	1.26
556.272	1.21
556.466	1.25
556.659	1.25
556.852	1.25
557.046	1.25
557.239	1.26
557.432	1.22
557.626	1.23
557.819	1.26
558.012	1.29
558.206	1.31
558.399	1.26
558.592	1.26
558.785	1.22
558.979	1.28
559.172	1.26
559.365	1.26
559.558	1.26
559.751	1.24
559.944	1.31
560.138	1.24
560.331	1.24
560.524	1.27
560.717	1.26
560.91	1.24
561.103	1.24
561.296	1.25
561.489	1.29
561.682	1.27
561.875	1.27
562.068	1.3
562.261	1.24
562.454	1.31
562.647	1.25
562.84	1.3
563.032	1.25
563.225	1.28
563.418	1.24
563.611	1.26
563.804	1.29
563.997	1.22
564.19	1.19
564.382	1.27
564.575	1.24
564.768	1.23
564.961	1.28
565.153	1.25
565.346	1.24
565.539	1.29
565.731	1.28
565.924	1.3
566.117	1.29
566.309	1.26
566.502	1.23
566.695	1.22
566.887	1.26
567.08	1.24
567.272	1.24
567.465	1.21
567.657	1.25
567.85	1.27
568.042	1.28
568.235	1.3
568.427	1.23
568.62	1.28
568.812	1.26
569.005	1.29
569.197	1.22
569.389	1.26
569.582	1.24
569.774	1.24
569.966	1.18
570.159	1.25
570.351	1.23
570.543	1.26
570.736	1.24
570.928	1.2
571.12	1.26
571.312	1.24
571.505	1.18
571.697	1.26
571.889	1.21
572.081	1.23
572.273	1.23
572.465	1.27
572.658	1.24
572.85	1.28
573.042	1.19
573.234	1.24
573.426	1.28
573.618	1.21
573.81	1.24
574.002	1.27
574.194	1.26
574.386	1.21
574.578	1.15
574.77	1.21
574.962	1.25
575.154	1.16
575.346	1.21
575.538	1.23
575.729	1.18
575.921	1.23
576.113	1.24
576.305	1.25
576.497	1.23
576.689	1.19
576.88	1.16
577.072	1.26
577.264	1.22
577.456	1.22
577.647	1.17
577.839	1.27
578.031	1.22
578.223	1.21
578.414	1.16
578.606	1.24
578.798	1.24
578.989	1.22
579.181	1.21
579.372	1.23
579.564	1.19
579.755	1.22
579.947	1.17
580.139	1.21
580.33	1.14
580.522	1.18
580.713	1.13
580.905	1.18
581.096	1.24
581.287	1.22
581.479	1.2
581.67	1.25
581.862	1.19
582.053	1.17
582.244	1.13
582.436	1.2
582.627	1.19
582.818	1.19
583.01	1.16
583.201	1.24
583.392	1.18
583.583	1.2
583.775	1.16
583.966	1.2
584.157	1.19
584.348	1.18
584.54	1.11
584.731	1.2
584.922	1.15
585.113	1.16
585.304	1.17
585.495	1.2
585.686	1.19
585.877	1.18
586.068	1.2
586.259	1.17
586.45	1.14
586.641	1.15
586.832	1.11
587.023	1.17
587.214	1.12
587.405	1.16
587.596	1.11
587.787	1.21
587.978	1.15
588.169	1.12
588.36	1.12
588.551	1.15
588.742	1.14
588.932	1.13
589.123	1.1
589.314	1.19
589.505	1.15
589.696	1.16
589.886	1.11
590.077	1.1
590.268	1.13
590.458	1.05
590.649	1.1
590.84	1.15
591.03	1.13
591.221	1.08
591.412	1.07
591.602	1.16
591.793	1.15
591.984	1.1
592.174	1.06
592.365	1.19
592.555	1.06
592.746	1.11
592.936	1.16
593.127	1.18
593.317	1.13
593.508	1.12
593.698	1.07
593.889	1.12
594.079	1.12
594.269	1.07
594.46	1.07
594.65	1.08
594.84	1.08
595.031	1.03
595.221	1.07
595.411	1.04
595.602	1.06
595.792	1.07
595.982	1.04
596.172	1.14
596.363	1.07
596.553	1.1
596.743	1.07
596.933	1.06
597.123	1.05
597.314	1.03
597.504	1.03
597.694	1.09
597.884	1.07
598.074	1.04
598.264	1.03
598.454	1.03
598.644	1.03
598.834	1.06
599.024	0.99
599.214	1
599.404	1.06
599.594	1.01
599.784	1.04
599.974	1.04
600.164	1.06
600.354	0.99
600.544	0.98
600.734	1
600.924	1.03
601.114	0.98
601.303	1
601.493	1.03
601.683	0.97
601.873	0.99
602.063	0.96
602.252	1.02
602.442	0.93
602.632	0.95
602.821	0.97
603.011	1.01
603.201	0.99
603.39	0.93
603.58	0.95
603.77	0.99
603.959	1.02
604.149	0.98
604.339	1
604.528	1.02
604.718	0.98
604.907	1
605.097	0.93
605.286	0.93
605.476	0.97
605.665	0.98
605.855	0.94
606.044	0.97
606.234	1
606.423	0.97
606.612	0.93
606.802	0.93
606.991	0.95
607.181	0.99
607.37	0.94
607.559	0.88
607.749	0.9
607.938	0.93
608.127	0.9
608.316	0.92
608.506	0.9
608.695	0.93
608.884	0.88
609.073	0.92
609.263	0.92
609.452	0.96
609.641	0.91
609.83	0.88
610.019	0.94
610.208	0.86
610.397	0.88
610.586	0.9
610.775	0.87
610.965	0.94
611.154	0.87
611.343	0.91
611.532	0.83
611.721	0.89
611.91	0.85
612.099	0.9
612.287	0.84
612.476	0.82
612.665	0.91
612.854	0.84
613.043	0.88
613.232	0.86
613.421	0.78
613.61	0.87
613.798	0.81
613.987	0.85
614.176	0.86
614.365	0.87
614.554	0.84
614.742	0.85
614.931	0.79
615.12	0.84
615.309	0.83
615.497	0.83
615.686	0.77
615.875	0.82
616.063	0.8
616.252	0.82
616.44	0.8
616.629	0.78
616.818	0.8
617.006	0.79
617.195	0.76
617.383	0.82
617.572	0.73
617.76	0.77
617.949	0.75
618.137	0.8
618.326	0.8
618.514	0.74
618.703	0.75
618.891	0.84
619.079	0.68
619.268	0.78
619.456	0.7
619.644	0.8
619.833	0.73
620.021	0.72
620.209	0.67
620.398	0.76
620.586	0.73
620.774	0.76
620.962	0.76
621.151	0.79
621.339	0.75
621.527	0.67
621.715	0.68
621.903	0.74
622.092	0.67
622.28	0.73
622.468	0.68
622.656	0.72
622.844	0.72
623.032	0.71
623.22	0.65
623.408	0.75
623.596	0.71
623.784	0.74
623.972	0.6
624.16	0.69
624.348	0.75
624.536	0.67
624.724	0.67
624.912	0.7
625.1	0.71
625.288	0.62
625.476	0.6
625.664	0.69
625.851	0.64
626.039	0.72
626.227	0.69
626.415	0.69
626.603	0.57
626.79	0.65
626.978	0.67
627.166	0.69
627.354	0.64
627.541	0.59
627.729	0.58
627.917	0.68
628.104	0.67
628.292	0.61
628.48	0.62
628.667	0.61
628.855	0.65
629.042	0.68
629.23	0.61
629.418	0.61
629.605	0.61
629.793	0.62
629.98	0.55
630.168	0.59
630.355	0.61
630.543	0.62
630.73	0.59
630.917	0.65
631.105	0.68
631.292	0.63
631.48	0.59
631.667	0.65
631.854	0.6
632.042	0.56
632.229	0.55
632.416	0.6
632.604	0.6
632.791	0.5
632.978	0.64
633.165	0.59
633.353	0.61
633.54	0.62
633.727	0.5
633.914	0.56
634.101	0.61
634.289	0.63
634.476	0.53
634.663	0.54
634.85	0.59
635.037	0.55
635.224	0.49
635.411	0.6
635.598	0.54
635.785	0.52
635.972	0.52
636.159	0.6
636.346	0.48
636.533	0.53
636.72	0.51
636.907	0.54
637.094	0.57
637.281	0.49
637.468	0.53
637.655	0.52
637.842	0.51
638.029	0.49
638.215	0.53
638.402	0.51
638.589	0.48
638.776	0.49
638.963	0.49
639.149	0.53
639.336	0.6
639.523	0.5
639.709	0.51
639.896	0.49
640.083	0.54
640.27	0.51
640.456	0.47
640.643	0.52
640.829	0.44
641.016	0.46
641.203	0.42
641.389	0.49
641.576	0.47
641.762	0.49
641.949	0.45
642.135	0.49
642.322	0.53
642.508	0.39
642.695	0.47
642.881	0.44
643.068	0.39
643.254	0.46
643.441	0.48
643.627	0.45
643.813	0.39
644	0.48
644.186	0.4
644.372	0.38
644.559	0.5
644.745	0.45
644.931	0.41
645.118	0.41
645.304	0.41
645.49	0.42
645.676	0.41
645.862	0.43
646.049	0.46
646.235	0.4
646.421	0.5
646.607	0.47
646.793	0.44
646.979	0.38
647.165	0.43
647.352	0.42
647.538	0.41
647.724	0.41
647.91	0.38
648.096	0.45
648.282	0.41
648.468	0.4
648.654	0.43
648.84	0.42
649.026	0.41
649.212	0.36
649.397	0.35
649.583	0.35
649.769	0.4
649.955	0.4
650.141	0.4
650.327	0.43
650.513	0.34
650.698	0.4
650.884	0.3
651.07	0.38
651.256	0.4
651.442	0.38
651.627	0.32
651.813	0.4
651.999	0.36
652.184	0.37
652.37	0.35
652.556	0.33
652.741	0.4
652.927	0.25
653.113	0.35
653.298	0.3
653.484	0.31
653.669	0.3
653.855	0.31
654.04	0.39
654.226	0.37
654.412	0.31
654.597	0.25
654.782	0.35
654.968	0.36
655.153	0.35
655.339	0.31
655.524	0.28
655.71	0.36
655.895	0.29
656.08	0.34
656.266	0.36
656.451	0.34
656.636	0.26
656.822	0.33
657.007	0.29
657.192	0.3
657.378	0.24
657.563	0.32
657.748	0.34
657.933	0.32
658.118	0.28
658.304	0.27
658.489	0.36
658.674	0.32
658.859	0.27
659.044	0.31
659.229	0.3
659.414	0.28
659.599	0.31
659.785	0.25
659.97	0.29
660.155	0.33
660.34	0.3
660.525	0.32
660.71	0.3
660.895	0.35
661.08	0.27
661.264	0.26
661.449	0.33
661.634	0.31
661.819	0.3
662.004	0.3
662.189	0.19
662.374	0.24
662.559	0.22
662.743	0.22
662.928	0.28
663.113	0.23
663.298	0.23
663.483	0.25
663.667	0.27
663.852	0.22
664.037	0.31
664.221	0.23
664.406	0.3
664.591	0.3
664.775	0.29
664.96	0.25
665.145	0.23
665.329	0.27
665.514	0.22
665.698	0.25
665.883	0.19
666.068	0.31
666.252	0.25
666.437	0.19
666.621	0.21
666.806	0.26
666.99	0.24
667.174	0.23
667.359	0.29
667.543	0.2
667.728	0.18
667.912	0.16
668.096	0.26
668.281	0.23
668.465	0.23
668.649	0.22
668.834	0.21
669.018	0.26
669.202	0.21
669.387	0.18
669.571	0.28
669.755	0.18
669.939	0.22
670.124	0.24
670.308	0.27
670.492	0.28
670.676	0.23
670.86	0.23
671.044	0.19
671.228	0.25
671.413	0.18
671.597	0.18
671.781	0.17
671.965	0.2
672.149	0.2
672.333	0.22
672.517	0.2
672.701	0.21
672.885	0.2
673.069	0.14
673.253	0.23
673.437	0.2
673.621	0.18
673.804	0.17
673.988	0.2
674.172	0.2
674.356	0.14
674.54	0.19
674.724	0.26
674.908	0.18
675.091	0.24
675.275	0.17
675.459	0.23
675.643	0.28
675.826	0.2
676.01	0.19
676.194	0.18
676.377	0.24
676.561	0.2
676.745	0.19
676.928	0.24
677.112	0.25
677.296	0.15
677.479	0.13
677.663	0.17
677.846	0.17
678.03	0.18
678.213	0.17
678.397	0.2
678.58	0.14
678.764	0.13
678.947	0.14
679.131	0.12
679.314	0.23
679.498	0.15
679.681	0.17
679.865	0.23
680.048	0.17
680.231	0.14
680.415	0.16
680.598	0.16
680.781	0.12
680.965	0.15
681.148	0.19
681.331	0.14
681.514	0.22
681.698	0.14
681.881	0.16
682.064	0.19
682.247	0.15
682.43	0.1
682.614	0.21
682.797	0.18
682.98	0.18
683.163	0.09
683.346	0.18
683.529	0.15
683.712	0.09
683.895	0.17
684.078	0.1
684.261	0.14
684.444	0.19
684.627	0.16
684.81	0.13
684.993	0.13
685.176	0.18
685.359	0.11
685.542	0.12
685.725	0.25
685.908	0.15
686.091	0.12
686.274	0.19
686.457	0.21
686.639	0.16
686.822	0.15
687.005	0.1
687.188	0.17
687.371	0.25
687.553	0.14
687.736	0.15
687.919	0.22
688.102	0.25
688.284	0.14
688.467	0.16
688.65	0.09
688.832	0.11
689.015	0.13
689.197	0.04
689.38	0.2
689.563	0.21
689.745	0.09
689.928	0.08
690.11	0.14
690.293	0.13
690.475	0.04
690.658	0.19
690.84	0.09
691.023	0.06
691.205	0.1
691.388	0.13
691.57	0.14
691.752	0.19
691.935	0.02
692.117	0.11
692.3	0.16
692.482	0.13
692.664	0.09
692.847	0.13
693.029	0.17
693.211	0.14
693.393	0.12
693.576	0.14
693.758	0.15
693.94	0.05
694.122	0.11
694.304	0.05
694.487	0.14
694.669	0.21
694.851	0.06
695.033	0.13
695.215	0.03
695.397	0.1
695.579	0.09
695.761	0.07
695.943	0.03
696.125	0.17
696.308	0.11
696.49	0.05
696.671	0.15
696.853	0.07
697.035	0.23
697.217	0.12
697.399	0.14
697.581	0.07
697.763	0.06
697.945	0.09
698.127	0.13
698.309	0.12
698.491	0.13
698.672	0.17
698.854	0.13
699.036	0.14
699.218	0.05
699.399	0.14
699.581	0.17
699.763	0.13
699.945	0.08
700.126	0.07
700.308	0.13
700.49	0.11
700.671	-0.03
700.853	0.05
701.035	0.1
701.216	0.08
701.398	0.08
701.579	0.1
701.761	0.12
701.943	0.06
702.124	0.07
702.306	0.03
702.487	0.23
702.669	0.1
702.85	0.06
703.031	0.02
703.213	0.18
703.394	0.15
703.576	0.04
703.757	0.15
703.938	0.17
704.12	0.23
704.301	0.07
704.483	0.03
704.664	0.09
704.845	0.18
705.026	0.12
705.208	0.09
705.389	0.1
705.57	0.1
705.751	0.08
705.933	0.08
706.114	0.16
706.295	0.12
706.476	0.02
706.657	0.2
706.838	0.15
707.02	0.14
707.201	0.11
707.382	0.06
707.563	0.15
707.744	0.06
707.925	0.06
708.106	0.08
708.287	0.14
708.468	0.21
708.649	0.12
708.83	0.14
709.011	0.07
709.192	0.12
709.373	-0.02
709.554	0.02
709.734	0.15
709.915	0.14
710.096	0.06
710.277	-0.02
710.458	0.08
710.639	0.12
710.819	-0.03
711	0.03
711.181	0.15
711.362	0.14
711.542	0.1
711.723	0.08
711.904	0.08
712.085	0.14
712.265	0.09
712.446	-0.01
712.627	0.1
712.807	0.07
712.988	0.08
713.168	-0.01
713.349	0.11
713.53	-0.03
713.71	-0.02
713.891	0.02
714.071	0.07
714.252	-0.02
714.432	0.07
714.613	-0.06
714.793	0.06
714.974	0.19
715.154	0.12
715.334	0.1
715.515	0.22
715.695	-0.03
715.876	0.02
716.056	-0
716.236	0.06
716.417	0.04
716.597	0.1
716.777	0.25
716.957	0.02
717.138	0.04
717.318	0.01
717.498	-0.05
717.678	0.09
717.859	0.14
718.039	0.01
718.219	0.04
718.399	0.1
718.579	0.02
718.759	0.01
718.939	0.07
719.12	0.07
719.3	0.09
719.48	-0.13
719.66	-0.07
719.84	0.21
720.02	0.01
720.2	0.01
720.38	0.04
720.56	0.16
720.74	-0
720.92	0.09
721.1	0.16
721.279	0.09
721.459	0.05
721.639	0
721.819	0.05
721.999	-0.02
722.179	0.19
722.359	-0.05
722.538	0.08
722.718	0.09
722.898	0.1
723.078	0.09
723.257	0.01
723.437	0.07
723.617	0.06
723.797	0.05
723.976	0.06
724.156	0.07
724.336	0.13
724.515	0.13
724.695	-0.1
724.874	0.03
725.054	0.14
725.234	-0.05
725.413	0.15
725.593	0.07
725.772	0.02
725.952	0.09
726.131	0.01
726.311	0.09
726.49	0.08
726.67	-0.08
726.849	0.01
727.028	0.1
727.208	0.07
727.387	0.01
727.567	-0.08
727.746	0.03
727.925	-0.04
728.105	-0.02
728.284	0.08
728.463	-0.02
728.643	0.1
728.822	-0.02
729.001	0.04
729.18	0.07
729.359	0.1
729.539	0.05
729.718	0.07
729.897	0.11
730.076	-0.05
730.255	-0.01
730.434	0.14
730.614	0.03
730.793	0.06
730.972	0.04
731.151	0.07
731.33	0.14
731.509	0.13
731.688	0.06
731.867	0.05
732.046	-0.06
732.225	0.21
732.404	-0.09
732.583	-0.03
732.762	0.01
732.941	0.16
733.12	-0.01
733.298	0.06
733.477	0.18
733.656	0.01
733.835	-0.07
734.014	0.15
734.193	0.01
734.371	0.08
734.55	0.12
734.729	-0.05
734.908	0.04
735.086	0.07
735.265	0.1
735.444	-0.01
735.623	-0.01
735.801	-0.08
735.98	0.02
736.159	0.03
736.337	0.07
736.516	0.09
736.694	0.1
736.873	0.05
737.052	0.24
737.23	0.24
737.409	0.02
737.587	0.27
737.766	-0.05
737.944	-0.06
738.123	0.13
738.301	0.08
738.479	0.08
738.658	-0
738.836	-0.15
739.015	-0.05
739.193	0.17
739.371	0
739.55	0.04
739.728	-0.04
739.906	0.12
740.085	0.22
740.263	0.12
740.441	-0.12
740.62	0.21
740.798	0.14
740.976	0.02
741.154	-0.06
741.332	0.24
741.511	-0.01
741.689	0.12
741.867	0.2
742.045	0.14
742.223	-0.01
742.401	-0.05
742.579	-0.03
742.757	0.02
742.935	0.01
743.114	-0.01
743.292	-0.01
743.47	0.05
743.648	0.05
743.826	0.1
744.004	0.13
744.181	0.09
744.359	-0.03
744.537	0.08
744.715	0
744.893	0.11
745.071	0.07
745.249	-0.09
745.427	0.05
745.605	0.05
745.782	0.02
745.96	0.12
746.138	0.05
746.316	0.17
746.493	-0.08
746.671	0.04
746.849	0.03
747.027	0.24
747.204	-0.02
747.382	0.11
747.56	0.02
747.737	0.16
747.915	-0.05
748.093	0.07
748.27	0.01
748.448	-0.08
748.625	-0.08
748.803	0.05
748.98	-0.07
749.158	0.11
749.335	0.01
749.513	0.01
749.69	-0
749.868	0.1
750.045	0.1
750.223	0.04
750.4	-0.19
750.578	0.2
750.755	0.05
750.932	-0.16
751.11	0.1
751.287	-0.1
751.464	0.16
751.642	-0.12
751.819	0.08
751.996	0.06
752.173	-0.02
752.351	-0.1
752.528	-0.02
752.705	0.01
752.882	-0.06
753.06	0.1
753.237	0.1
753.414	0.16
753.591	0.23
753.768	0.06
753.945	-0.06
754.122	-0.06
754.299	0.12
754.476	-0.1
754.654	0.05
754.831	0.03
755.008	-0.03
755.185	-0.07
755.362	-0.1
755.539	-0.01
755.716	0.01
755.892	0.03
756.069	0.06
756.246	-0
756.423	-0.07
756.6	0.2
756.777	-0.01
756.954	0.08
757.131	-0.04
757.307	-0.17
757.484	-0.09
757.661	0.11
757.838	0.02
758.015	-0.09
758.191	0.19
758.368	0.12
758.545	0.3
758.721	0.07
758.898	-0.13
759.075	0.05
759.251	0.16
759.428	-0.04
759.605	-0.06
759.781	-0
759.958	0.09
760.134	0.09
760.311	-0.06
760.488	0.14
760.664	0.14
760.841	0.06
761.017	-0.2
761.194	0.07
761.37	0.14
761.547	0.08
761.723	-0.04
761.899	0.09
762.076	-0.05
762.252	-0.14
762.429	-0.09
762.605	0.09
762.781	0.06
762.958	0.18
763.134	0.07
763.31	-0.04
763.486	0.11
763.663	-0.24
763.839	0.02
764.015	-0.16
764.191	-0.07
764.368	0.04
764.544	-0.17
764.72	0.12
764.896	0.2
765.072	0.06
765.248	0.04
765.425	0.01
765.601	0.01
765.777	0.2
765.953	-0.24
766.129	-0.06
766.305	-0.09
766.481	0.05
766.657	0.04
766.833	0.26
767.009	-0.07
767.185	0.07
767.361	0.02
767.537	-0.03
767.713	0.23
767.889	-0.11
768.065	0
768.24	-0
768.416	0.07
768.592	-0.02
768.768	-0.07
768.944	0.13
769.12	-0.15
769.295	-0.14
769.471	0.02
769.647	0.08
769.823	0.12
769.998	-0.06
770.174	-0
770.35	0.29
770.525	0.36
770.701	0.06
770.877	0.03
771.052	-0.08
771.228	0.13
771.403	0.08
771.579	0.09
771.755	0.29
771.93	-0.03
772.106	-0.14
772.281	-0.38
772.457	0.05
772.632	0.07
772.808	-0.15
772.983	0.03
773.159	-0.04
773.334	0.11
773.509	-0.06
773.685	-0.16
773.86	0.37
774.036	0.1
774.211	-0.06
774.386	-0.06
774.562	0.06
774.737	0.16
774.912	-0.15
775.087	0
775.263	0.06
775.438	-0.04
775.613	-0.16
775.788	-0.16
775.964	0.19
776.139	0.31
776.314	-0.15
776.489	0.06
776.664	0.11
776.839	-0.03
777.014	0.15
777.19	0.03
777.365	0.23
777.54	0.22
777.715	-0.13
777.89	0.12
778.065	-0.15
778.24	0
778.415	0.04
778.59	-0.14
778.765	-0.08
778.94	-0
779.115	0.08
779.289	-0.02
779.464	0.12
779.639	-0.09
779.814	-0.23
779.989	-0.18
780.164	0.17
780.339	0.02
780.513	-0.05
780.688	-0.13
780.863	0.07
781.038	0.26
781.212	-0.06
781.387	0.12
781.562	0.34
781.737	-0.12
781.911	0.18
782.086	-0.04
782.261	-0.05
782.435	0.28
782.61	-0.06
782.784	0.07
782.959	0.3
783.134	-0.13
783.308	-0.05
783.483	0.02
783.657	0.28
783.832	0.25
784.006	-0.39
784.181	0.08
784.355	0.19
784.53	-0.41
784.704	-0.03
784.878	0.21
785.053	0.03
785.227	0.31
785.402	0.43
785.576	-0.13
785.75	-0.08
785.925	-0.1
786.099	0.07
786.273	0.26
786.448	0.23
786.622	0.12
786.796	-0.1
786.97	-0.03
787.145	0.42
787.319	-0.18
787.493	-0.11
787.667	-0.18
787.841	0.09
788.015	0.45
788.19	-0.03
788.364	-0.01
788.538	0.13
788.712	0.14
788.886	0.01
789.06	0.27
789.234	0.27
789.408	-0.26
789.582	-0.01
789.756	0.07
789.93	-0.04
790.104	0.06
790.278	-0.12
790.452	-0.38
790.626	0.01
790.8	-0.08
790.973	0.23
791.147	0.01
791.321	0.23
791.495	0.17
791.669	-0.03
791.843	-0.02
792.016	0.2
792.19	0.61
792.364	-0.34
792.538	0.28
792.711	0.02
792.885	0
793.059	-0.32
793.233	-0.3
793.406	0.33
793.58	0.04
793.754	0.2
793.927	0.05
794.101	0.17
794.274	0.13
794.448	0.2
794.622	-0.13
794.795	0.2
794.969	-0.19
795.142	0.22
795.316	-0.32
795.489	0.03
795.663	0.37
795.836	0.07
796.009	0.04
796.183	0.21
796.356	0.16
796.53	-0.04
796.703	0.29
796.876	0.64
797.05	-0.11
797.223	0.06
797.396	0.14
797.57	-0.06
797.743	0.49
797.916	0.24
798.09	-0.08
798.263	0.18
798.436	0.2
798.609	-0.04
798.782	0.02
798.956	0.15
799.129	0.09
799.302	-0.1
799.475	-0.14
799.648	-0.11
799.821	-0.29
799.994	-0.18
800.167	-0.32
800.34	0.01
800.514	0.23
800.687	-0.03
800.86	-0.11
801.033	0.01
801.206	0.19
801.379	-0.49
801.551	0.14
801.724	0.27
801.897	0.36
802.07	-0.3
802.243	-0.69
802.416	-0.06
802.589	-0.4
802.762	0.21
802.935	-0.13
803.107	0.19
803.28	0.46
803.453	0.34
803.626	-0.05
803.798	0.11
803.971	-0.36
804.144	0.13
804.317	0.26
804.489	0.17
804.662	-0.04
804.835	0.13
805.007	0.05
805.18	0.33
805.353	0.17
805.525	-0.21
805.698	-0.28
805.87	0.35
806.043	0.23
806.215	-0.33
806.388	-0.26
806.56	-0.19
806.733	0.26
806.905	0.28
807.078	-0.14
807.25	-0.19
807.423	0.21
807.595	-0.07
807.768	0.04
807.94	0.12
808.112	-0.32
808.285	-0.05
808.457	-0.01
808.629	-0.12
808.802	0.18
808.974	-0.12
809.146	-0.49
809.318	-0.35
809.491	0.02
809.663	0.1
809.835	-0.21
810.007	-0.14
810.18	-0.15
810.352	-0.46
810.524	-0.1
810.696	-0
810.868	0.1
811.04	-0.16
811.212	0.05
811.384	0.41
811.556	-0.02
811.728	-0
811.901	0.69
812.073	-0
812.245	0.45
812.417	0.23
812.589	-0.85
812.76	0.03
812.932	0.15
813.104	0.47
813.276	-0.26
813.448	0.56
813.62	-0.36
813.792	0.21
813.964	0.01
814.136	0.1
814.307	-0.04
814.479	-0.15
814.651	0.14
814.823	1.06
814.995	0.06
815.166	0.31
815.338	-0.43
815.51	-0.34
815.681	0.6
815.853	0.28
816.025	-0.08
816.196	0.69
816.368	0.4
816.54	-0.69
816.711	-0.24
816.883	0.48
817.054	1
817.226	-1.04
817.398	0.16
817.569	-0.43
817.741	0.32
817.912	0.09
818.084	-0.26
818.255	0.18
818.426	-0.51
818.598	0.14
818.769	-0.53
818.941	-0
819.112	0.98
819.283	0.53
819.455	-0.36
819.626	0.17
819.798	0.26
819.969	-0.15
820.14	-0.14
820.311	-0.14
820.483	0.31
820.654	0.4
820.825	-0.4
820.996	0.06
821.168	-0.36
821.339	0.1
821.51	-0.59
821.681	-0.56
821.852	0.11
822.023	-0.63
822.195	-0.9
822.366	0.23
822.537	-0.13
822.708	-0.25
822.879	-0.7
823.05	0.44
823.221	-0.32
823.392	0.03
823.563	-0.25
823.734	0.15
823.905	0.19
824.076	0.03
824.247	-0.5
824.418	-0.18
824.589	0.23
824.759	-0.25
824.93	-0.15
825.101	-0.4
825.272	0.38
825.443	0.35
825.614	0.46
825.784	-0.78
825.955	1.2
826.126	0.69
826.297	0.44
826.467	0.8
826.638	0.69
826.809	-0.61
826.98	-0.51
827.15	0.44
827.321	0.14
827.492	0.46
827.662	0.06
827.833	1.22
828.003	0.2
828.174	-0.53
828.345	-0.88
828.515	0.67
828.686	0.04
828.856	-0.18
829.027	0.2
829.197	0.1
829.368	-0.14
829.538	-0.16
829.709	-0.41
829.879	-0.11
830.049	0.02
830.22	-0.23
830.39	-0.02
830.56	0.32
830.731	-0.41
830.901	-1.2
831.072	0.37
831.242	0.13
831.412	0.04
831.582	0.53
831.753	-0.78
831.923	0.73
832.093	0.24
832.263	0.62
832.434	-0.39
832.604	0.12
832.774	0.5
832.944	-0.47
833.114	-0.06
833.284	0.05
833.454	-0.48
833.624	-0.31
833.795	0.23
833.965	0.71
834.135	0.83
834.305	-0.6
834.475	-0.04
834.645	-0.05
834.815	-0.22
834.985	-0.73
835.155	-0.16
835.325	0.36
835.494	0.4
835.664	-0.28
835.834	-0.73
836.004	0.01
836.174	-0.7
836.344	0.09
836.514	-0.83
836.684	-0.06
836.853	0.39
837.023	0.03
837.193	-0.09
837.363	0.31
837.532	-0.03
837.702	-0.42
837.872	-0.33
838.041	0.86
838.211	1.68
838.381	-0.38
838.55	0.37
838.72	1.87
838.89	1.15
839.059	-0.63
839.229	-0.02
839.398	0.94
839.568	-0.18
839.738	-0.16
839.907	0.55
840.077	0.15
840.246	-0.41
840.416	-1.03
840.585	-0.7
840.755	0.88
840.924	0.47
841.093	-1.05
841.263	-0.65
841.432	0.94
841.602	-1
841.771	-0.7
841.94	0.37
842.11	1.82
842.279	1.53
842.448	-0.25
842.617	-0.52
842.787	1.1
842.956	-1.44
843.125	-0.05
843.294	0.39
843.464	1.26
843.633	-0.22
843.802	-1.12
843.971	-0.12
844.14	0.72
844.309	0.59
844.479	-0.75
844.648	-1.15
844.817	-0.95
844.986	0.02
845.155	-0.77
845.324	-0.13
845.493	0.28
845.662	-0.66
845.831	0.19
846	0.8
846.169	-0.25
846.338	1.28
846.507	-0.54
846.676	0.35
846.844	-0.32
847.013	1.12
847.182	0.47
847.351	-1.38
847.52	-0.27
847.689	0.16
847.858	-0.18
848.026	-0.31
848.195	-0.18
848.364	0.49
848.533	-0.89
848.701	-0.9
848.87	0.14
849.039	0.84
849.207	1
849.376	0.68
849.545	1.19
849.713	-0.32
849.882	-0.45
850.051	-0.01
850.219	-0.08
850.388	1.78
850.556	-0.98
850.725	-0.87
850.893	-0.09
851.062	-0.34
851.23	0.3
851.399	-1.01
851.567	-1.51
851.736	-0.65
851.904	-0.74
852.073	0.12
852.241	-0.18
852.41	-0.34
852.578	-0.34
852.746	0.16
852.915	0.74
853.083	0.65
853.251	-1.29
853.42	-1.23
853.588	0.28
853.756	1.8
853.924	0.04
854.093	0.36
854.261	-0.8
854.429	-1.97
854.597	0.8
854.765	-0.5
854.934	0.64
855.102	0.64
855.27	-0.07
855.438	0.79
855.606	1.35
855.774	0.8
855.942	-2.51
856.11	-0.88
856.278	0.23
856.446	0.33
856.614	0.09
856.782	-0.9
856.95	0.75
857.118	-0.39
857.286	0.11
857.454	-1.03
857.622	1.19
857.79	0.53
857.958	-0.74
858.126	-0.75
858.294	-2.61
858.462	-0.29
858.629	0.25
858.797	-0.58
858.965	0.15
859.133	0.83
859.301	0.07
859.468	0.76
859.636	-0.86
859.804	2.55
859.971	1.26
860.139	-0.23
860.307	1.1
860.474	-0.01
860.642	-0.31
860.81	-1.14
860.977	-0.73
861.145	0.48
861.313	-0
861.48	-1.22
861.648	1.14
861.815	-0.47
861.983	-1.36
862.15	-1.03
862.318	1.19
862.485	0.36
862.653	-0.7
862.82	-0.95
862.988	2.8
863.155	0.48
863.322	-1.78
863.49	-2.49
863.657	-0.83
863.824	3
863.992	0.3
864.159	0.61
864.326	2.23
864.494	-0.73
864.661	2.17
864.828	-1.07
864.996	1.19
865.163	1.58
865.33	-1.83
865.497	-2.17
865.664	-0.52
865.832	-1
865.999	-0.63
866.166	-1.42
866.333	-0.31
866.5	-0.42
866.667	-0.18
866.834	-0.45
867.001	1.36
867.168	-2.26
867.335	0.06
867.502	-1.08
867.669	-0.05
867.836	2.52
868.003	-0.83
868.17	1.52
868.337	1.31
868.504	1.46
868.671	-0.29
868.838	-2.08
869.005	0.79
869.172	0.34
869.339	0.23
869.505	-0.17
869.672	-1.3
869.839	1.74
870.006	1.24
870.173	-1.8
870.339	0.68
870.506	3.35
870.673	1.1
870.84	1.43
871.006	0.65
871.173	0.01
871.34	1.44
871.506	-0.88
871.673	1.79
871.839	-1.05
872.006	0.6
872.173	-0.59
872.339	-0.33
872.506	0.78
872.672	-0.25
872.839	-2.53
873.005	0.43
873.172	1.95
873.338	1.65
873.505	0.65
873.671	-0.99
873.838	-0.26
874.004	-1.65
874.171	-1.37
874.337	0.84
874.503	0.5
874.67	-0.79
874.836	0.62
875.002	3.01
875.169	1.16
875.335	0.45
875.501	0.65
875.668	1.53
875.834	-0.16
876	-0.34
876.166	2.7
876.332	1.76
876.499	3.7
876.665	-1.09
876.831	-1.15
876.997	3.81
877.163	0.04
877.329	-0.39
877.495	0.89
877.662	1.12
877.828	0.51
877.994	0.83
878.16	-2.87
878.326	-0.72
878.492	0.85
878.658	-1.45
878.824	0.18
878.99	1.62
879.156	-0.82
879.322	2.44
879.487	-0.9
879.653	0.69
879.819	1.25
879.985	-1.79
880.151	0.84
880.317	1.83
880.483	-1.16
880.648	2.46
880.814	-2.67
880.98	1.03
881.146	-1.69
881.312	0.52
881.477	-0.9
881.643	0.36
881.809	1.26
881.974	0.71
882.14	-2.56
882.306	-0.3
882.471	4.07
882.637	-1.88
882.803	1.74
882.968	3.21
883.134	4.56
883.299	0.22
883.465	0.61
883.63	0.65
883.796	0.87
883.961	-0.57
884.127	2.17
884.292	-4.23
884.458	-3.1
884.623	-3.1
