Data from Apollo_Calib_20240827__AbsoluteIrradiance__368__05-17-03-123.txt Node

Date: Wed Aug 28 05:17:03 BST 2024
User: biology
Spectrometer: FLMT08252
Trigger mode: 0
Integration Time (sec): 5.000000E-1
Scans to average: 5
Electric dark correction enabled: true
Nonlinearity correction enabled: false
Boxcar width: 0
XAxis mode: Wavelengths
Number of Pixels in Spectrum: 3648
>>>>>Begin Spectral Data<<<<<
179.588	-0
179.809	-0
180.03	-0
180.251	-0
180.473	-0
180.694	0
180.915	0
181.136	-0
181.357	0
181.578	-0
181.799	-0
182.02	-0
182.241	0
182.462	-0
182.683	0
182.904	-0
183.125	-0
183.346	0
183.567	0
183.788	0
184.009	-0
184.23	0
184.451	0
184.672	-0
184.892	-0
185.113	0
185.334	0
185.555	0
185.776	0
185.996	0
186.217	0
186.438	0
186.659	-0
186.879	0
187.1	0
187.321	0
187.541	0
187.762	-0
187.983	0
188.203	0
188.424	0
188.644	0
188.865	0
189.086	0
189.306	0
189.527	0
189.747	0
189.968	-0
190.188	0
190.409	0
190.629	0
190.849	0
191.07	0
191.29	0
191.511	0
191.731	-0
191.951	-0
192.172	0
192.392	0
192.612	0
192.833	0
193.053	0
193.273	0
193.493	0
193.714	0
193.934	0
194.154	0
194.374	0
194.594	0
194.815	0
195.035	0
195.255	0
195.475	-0
195.695	0
195.915	0
196.135	0
196.355	0
196.575	0
196.795	0
197.015	-0
197.235	-0
197.455	0
197.675	0
197.895	-0
198.115	0
198.335	0
198.555	0
198.775	0
198.995	0
199.214	0
199.434	0
199.654	0
199.874	0
200.094	1.94
200.313	0.18
200.533	-0.15
200.753	0.07
200.973	1.56
201.192	0.84
201.412	-0.33
201.632	-0.36
201.851	1.85
202.071	0.53
202.291	0.18
202.51	-0.24
202.73	0.77
202.95	0.03
203.169	-0.83
203.389	0.27
203.608	0.2
203.828	-0.07
204.047	0.45
204.267	0.78
204.486	0.33
204.706	0.39
204.925	-0.01
205.145	-0.24
205.364	0.87
205.583	1.09
205.803	-0.14
206.022	-0.1
206.242	0.24
206.461	0.7
206.68	-0.16
206.9	0.14
207.119	0.94
207.338	1.12
207.557	0.03
207.777	0.37
207.996	0.25
208.215	1
208.434	0.23
208.654	-0.09
208.873	0.39
209.092	0.59
209.311	0.23
209.53	0.14
209.749	0.31
209.968	0.25
210.187	-0.04
210.407	-0.28
210.626	0.24
210.845	0.48
211.064	0.45
211.283	-0.15
211.502	0.73
211.721	0.06
211.94	0
212.159	0.33
212.377	0.37
212.596	0.66
212.815	0.24
213.034	0.21
213.253	0.74
213.472	0.51
213.691	0.18
213.91	0.14
214.128	0.1
214.347	0.75
214.566	-0.23
214.785	-0.2
215.003	0.43
215.222	0.37
215.441	0.13
215.66	-0.03
215.878	0.14
216.097	0.4
216.316	-0.04
216.534	0.02
216.753	0.23
216.972	0.2
217.19	0.02
217.409	-0.1
217.627	0.08
217.846	0.13
218.064	0.21
218.283	-0.09
218.501	0.58
218.72	0.3
218.938	-0.1
219.157	0.05
219.375	0.43
219.594	0.39
219.812	-0.12
220.031	0.01
220.249	0.44
220.467	0.37
220.686	0.1
220.904	-0.1
221.122	0.04
221.341	0.46
221.559	0.26
221.777	-0.02
221.995	0.1
222.214	0.33
222.432	0.08
222.65	0.39
222.868	0.09
223.086	0.17
223.305	0.43
223.523	0.16
223.741	0.46
223.959	-0.07
224.177	-0.13
224.395	0.11
224.613	0.42
224.831	0.28
225.049	0.04
225.267	0.12
225.485	0.13
225.703	0.12
225.921	0.12
226.139	0.02
226.357	0.29
226.575	0.2
226.793	0.11
227.011	0.79
227.229	0.22
227.447	0.44
227.665	0.08
227.883	0.03
228.1	0.15
228.318	0.28
228.536	-0.1
228.754	-0.04
228.972	0.24
229.189	0.3
229.407	0.09
229.625	0.06
229.843	0.19
230.06	0.25
230.278	0.1
230.496	0.11
230.713	0.11
230.931	0.3
231.149	0.11
231.366	-0.07
231.584	0.16
231.801	0.49
232.019	0.08
232.236	-0.05
232.454	0.03
232.671	0.23
232.889	0.05
233.106	-0.01
233.324	0.18
233.541	0.12
233.759	0.15
233.976	-0.03
234.194	0.08
234.411	0.04
234.628	0.09
234.846	-0.01
235.063	0.15
235.28	0.08
235.498	0.11
235.715	-0.05
235.932	0.26
236.149	0.11
236.367	0.03
236.584	0.12
236.801	0.01
237.018	0.35
237.236	0.11
237.453	-0.04
237.67	0.26
237.887	0.07
238.104	0.07
238.321	0.04
238.538	0.04
238.755	0.17
238.973	-0.03
239.19	0.09
239.407	0.12
239.624	0.27
239.841	-0.05
240.058	-0.08
240.275	0.17
240.492	0.17
240.709	0.08
240.925	0.01
241.142	0.08
241.359	0.06
241.576	0.06
241.793	0.07
242.01	0.13
242.227	0.24
242.444	0.09
242.66	0.28
242.877	0.2
243.094	0.03
243.311	0.08
243.527	0.07
243.744	0.14
243.961	0.25
244.178	0
244.394	0.13
244.611	0.2
244.828	0.29
245.044	0
245.261	0.05
245.477	0.12
245.694	0.17
245.911	-0.01
246.127	0.09
246.344	0.08
246.56	0.23
246.777	0.09
246.993	0.08
247.21	0.22
247.426	0.18
247.643	0.02
247.859	0.09
248.076	0.02
248.292	0.37
248.508	0
248.725	0.14
248.941	0.19
249.157	0.19
249.374	0.03
249.59	0.1
249.806	0.09
250.023	0.09
250.239	-0.04
250.455	0.1
250.671	0.14
250.888	0.14
251.104	0.13
251.32	0
251.536	0.04
251.752	0.09
251.969	0.14
252.185	0.15
252.401	0.3
252.617	0.12
252.833	0.08
253.049	0.12
253.265	0.12
253.481	0.18
253.697	0.09
253.913	0
254.129	0.1
254.345	0.16
254.561	0.13
254.777	0.11
254.993	0.23
255.209	0.16
255.425	0.05
255.641	0.04
255.857	0.17
256.073	0.18
256.288	-0.04
256.504	0.05
256.72	0.13
256.936	0.25
257.152	0.07
257.367	0.02
257.583	0.15
257.799	0.14
258.015	0.01
258.23	0.03
258.446	0.3
258.662	0.08
258.877	0.03
259.093	0.03
259.309	0.14
259.524	0.11
259.74	0.1
259.955	0.02
260.171	0.13
260.387	0.14
260.602	0.17
260.818	0.15
261.033	0.03
261.249	0.09
261.464	0.1
261.68	0.04
261.895	0.1
262.11	0.18
262.326	0.08
262.541	0.01
262.757	0.17
262.972	0.15
263.187	0.09
263.403	0.12
263.618	0.19
263.833	0.1
264.049	-0
264.264	0.07
264.479	0.13
264.694	0.17
264.91	-0.07
265.125	0.05
265.34	0.14
265.555	0.31
265.77	0.16
265.986	0.06
266.201	0.17
266.416	0.19
266.631	0.09
266.846	0.04
267.061	0.15
267.276	0.14
267.491	-0.03
267.706	0.15
267.921	0.13
268.136	0.19
268.351	0.12
268.566	0.04
268.781	0.18
268.996	0.2
269.211	0.14
269.426	0.01
269.641	0.05
269.856	0.14
270.071	0.02
270.285	0.01
270.5	0.18
270.715	0.21
270.93	0.09
271.145	0.08
271.359	0.21
271.574	0.07
271.789	0.12
272.004	0.05
272.218	0.06
272.433	0.16
272.648	-0.03
272.862	0.12
273.077	0.2
273.292	0.12
273.506	0.07
273.721	0.11
273.936	0.22
274.15	0.18
274.365	0.08
274.579	0.15
274.794	0.17
275.008	0.2
275.223	0.07
275.437	0.11
275.652	0.19
275.866	0.1
276.081	0.1
276.295	0.11
276.509	0.09
276.724	0.09
276.938	0.08
277.153	0.15
277.367	0.14
277.581	0.15
277.796	0.01
278.01	-0.02
278.224	0.16
278.438	0.23
278.653	0
278.867	0.04
279.081	-0.07
279.295	0.05
279.51	0.09
279.724	0
279.938	0.14
280.152	0.17
280.366	0.03
280.58	0.12
280.794	0.22
281.008	0.15
281.222	0.18
281.437	0.26
281.651	0.13
281.865	0.16
282.079	0.05
282.293	0.01
282.507	0.08
282.721	0.07
282.935	0.1
283.148	0.02
283.362	0.04
283.576	0.04
283.79	0.08
284.004	0.05
284.218	0.18
284.432	0.08
284.646	0.13
284.859	0.05
285.073	0.12
285.287	0.09
285.501	0.1
285.714	0.11
285.928	0.1
286.142	0.08
286.356	0.1
286.569	0.1
286.783	0.2
286.997	0.16
287.21	0.13
287.424	0.09
287.637	0.09
287.851	0.08
288.065	0.14
288.278	0.09
288.492	0.11
288.705	0.09
288.919	0.12
289.132	0.03
289.346	0.17
289.559	0.04
289.773	0
289.986	0.09
290.2	0.09
290.413	0.22
290.626	0.06
290.84	0.04
291.053	0.11
291.267	0.12
291.48	0.1
291.693	0.12
291.906	0.06
292.12	0.12
292.333	0.06
292.546	0.08
292.76	0.22
292.973	0.11
293.186	0.14
293.399	0.07
293.612	0.16
293.826	0.08
294.039	0.09
294.252	0.13
294.465	0.11
294.678	0.13
294.891	0.11
295.104	0.06
295.317	0.05
295.53	0.05
295.743	0.08
295.956	0.07
296.169	0.16
296.382	0.16
296.595	0.07
296.808	0.07
297.021	0.17
297.234	0.16
297.447	0.12
297.66	0.11
297.873	0.19
298.086	0.15
298.299	0.07
298.511	0.02
298.724	0.1
298.937	0.05
299.15	0.1
299.363	0.09
299.575	0.13
299.788	0.12
300.001	0.05
300.213	0.08
300.426	0.13
300.639	0.08
300.852	0.08
301.064	0.19
301.277	0.16
301.489	0.09
301.702	0.12
301.915	0.12
302.127	0.13
302.34	0.13
302.552	0.13
302.765	0.09
302.977	0.14
303.19	0.05
303.402	0.11
303.615	0.08
303.827	0.07
304.04	0.1
304.252	0.14
304.464	0.08
304.677	0.21
304.889	0.16
305.102	0.1
305.314	0.07
305.526	0.16
305.739	0.16
305.951	0.07
306.163	0.11
306.375	0.18
306.588	0.13
306.8	0.1
307.012	0.05
307.224	0.11
307.436	0.16
307.649	0.02
307.861	0.13
308.073	0.19
308.285	0.07
308.497	0.02
308.709	0.1
308.921	0.09
309.133	0.17
309.346	0.1
309.558	0.1
309.77	0.15
309.982	0.19
310.194	0.18
310.406	0.05
310.617	0.23
310.829	0.1
311.041	0.13
311.253	0.09
311.465	0.09
311.677	0.08
311.889	0.06
312.101	0.06
312.313	0.19
312.524	0.18
312.736	0.05
312.948	0.06
313.16	0.23
313.372	0.12
313.583	0.14
313.795	0.12
314.007	0.12
314.218	0.15
314.43	0.1
314.642	0.05
314.853	0
315.065	0.15
315.277	0.11
315.488	0.1
315.7	0.16
315.912	0.13
316.123	0.08
316.335	0.08
316.546	0.18
316.758	0.14
316.969	0.07
317.181	0.12
317.392	0.05
317.604	0.13
317.815	0.07
318.026	0.05
318.238	0.07
318.449	0.16
318.661	0.01
318.872	0.07
319.083	0.06
319.295	0.11
319.506	0.07
319.717	0.12
319.929	0.16
320.14	0.1
320.351	0.13
320.562	0.07
320.774	0.13
320.985	0.12
321.196	0.07
321.407	0.04
321.618	0.13
321.829	0.15
322.041	0.14
322.252	0.1
322.463	0.1
322.674	0.15
322.885	0.06
323.096	0.09
323.307	0.07
323.518	0.1
323.729	0.07
323.94	0.07
324.151	0.12
324.362	0.14
324.573	0.16
324.784	0.06
324.995	0.16
325.206	0.09
325.417	0.05
325.628	0.12
325.838	0.1
326.049	0.12
326.26	0.14
326.471	0.09
326.682	0.1
326.892	0.09
327.103	0.04
327.314	0.07
327.525	0.2
327.735	0.14
327.946	0.08
328.157	0.06
328.368	0.12
328.578	0.09
328.789	0.1
328.999	0.08
329.21	0.07
329.421	0.09
329.631	0.04
329.842	0.08
330.052	0.12
330.263	0.15
330.473	0.14
330.684	0.06
330.894	0.1
331.105	0.14
331.315	0.11
331.526	0.11
331.736	0.22
331.947	0.1
332.157	0.14
332.367	0.05
332.578	0.16
332.788	0.17
332.999	0.16
333.209	0.1
333.419	0.07
333.629	0.12
333.84	0.14
334.05	0.11
334.26	0.19
334.47	0.11
334.681	0.16
334.891	0.09
335.101	0.16
335.311	0.18
335.521	0.12
335.732	0.04
335.942	0.18
336.152	0.16
336.362	0.12
336.572	0.12
336.782	0.11
336.992	0.07
337.202	0.12
337.412	0.07
337.622	0.13
337.832	0.14
338.042	0.08
338.252	0.08
338.462	0.03
338.672	0.13
338.882	0.03
339.092	0.09
339.302	0.15
339.511	0.15
339.721	0.09
339.931	0.08
340.141	0.16
340.351	0.14
340.561	0.13
340.77	0.14
340.98	0.12
341.19	0.16
341.4	0.11
341.609	0.08
341.819	0.08
342.029	0.08
342.238	0.1
342.448	0.06
342.658	0.15
342.867	0.08
343.077	0.12
343.286	0.11
343.496	0.11
343.706	0.15
343.915	0.07
344.125	0.12
344.334	0.13
344.544	0.04
344.753	0.09
344.963	0.08
345.172	0.08
345.381	0.06
345.591	0.07
345.8	0.12
346.01	0.18
346.219	0.11
346.428	-0.02
346.638	0.13
346.847	0.09
347.056	0.18
347.266	0.08
347.475	0.07
347.684	0.14
347.893	0.14
348.103	0.11
348.312	0.11
348.521	0.1
348.73	0.1
348.94	0.14
349.149	0.07
349.358	0.12
349.567	0.1
349.776	0.07
349.985	0.1
350.194	0.17
350.403	0.18
350.612	0.06
350.821	0.06
351.03	0.09
351.239	0.08
351.448	0.1
351.657	0.06
351.866	0.17
352.075	0.15
352.284	0.15
352.493	0.09
352.702	0.18
352.911	0.13
353.12	0.1
353.329	0.09
353.538	0.13
353.746	0.1
353.955	0.08
354.164	0.13
354.373	0.11
354.582	0.17
354.79	0.11
354.999	0.12
355.208	0.09
355.416	0.16
355.625	0.05
355.834	0.1
356.042	0.09
356.251	0.08
356.46	0.04
356.668	0.13
356.877	0.2
357.085	0.15
357.294	0.02
357.503	0.12
357.711	0.12
357.92	0.26
358.128	0.11
358.337	0.08
358.545	0.11
358.754	0.06
358.962	0.14
359.17	0.05
359.379	0.12
359.587	0.12
359.796	0.14
360.004	0.14
360.212	0.16
360.421	0.14
360.629	0.1
360.837	0.1
361.046	0.15
361.254	0.26
361.462	0.07
361.67	0.07
361.879	0.12
362.087	0.19
362.295	0.12
362.503	0.11
362.711	0.04
362.92	0.13
363.128	0.09
363.336	0.08
363.544	0.01
363.752	0.08
363.96	0.1
364.168	0.06
364.376	0.09
364.584	0.12
364.792	0.18
365	0.16
365.208	0.11
365.416	0.14
365.624	0.17
365.832	0.05
366.04	0.14
366.248	0.12
366.456	0.13
366.664	0.14
366.872	0.13
367.079	0.09
367.287	0.14
367.495	0.14
367.703	0.16
367.911	0.11
368.118	0.07
368.326	0.1
368.534	0.08
368.742	0.16
368.949	0.05
369.157	0.06
369.365	0.14
369.572	0.08
369.78	0.05
369.988	0.18
370.195	0.14
370.403	0.18
370.61	0.08
370.818	0.13
371.026	0.18
371.233	0.07
371.441	0.14
371.648	0.1
371.856	0.13
372.063	0.12
372.271	0.12
372.478	0.07
372.685	0.08
372.893	0.13
373.1	0.11
373.308	0.09
373.515	0.18
373.722	0.16
373.93	0.09
374.137	0.14
374.344	0.18
374.552	0.16
374.759	0.13
374.966	0.16
375.173	0.1
375.381	0.18
375.588	0.11
375.795	0.06
376.002	0.1
376.209	0.11
376.417	0.1
376.624	0.08
376.831	0.15
377.038	0.12
377.245	0.03
377.452	0.08
377.659	0.07
377.866	0.07
378.073	0.13
378.28	0.11
378.487	0.19
378.694	0.17
378.901	0.08
379.108	0.11
379.315	0.17
379.522	0.22
379.729	0.13
379.936	0.09
380.143	0.12
380.35	0.1
380.557	0.12
380.763	0.13
380.97	0.14
381.177	0.13
381.384	0.12
381.591	0.11
381.797	0.14
382.004	0.12
382.211	0.17
382.418	0.13
382.624	0.15
382.831	0.19
383.038	0.09
383.244	0.17
383.451	0.11
383.658	0.18
383.864	0.13
384.071	0.09
384.277	0.21
384.484	0.08
384.69	0.16
384.897	0.09
385.103	0.09
385.31	0.11
385.516	0.1
385.723	0.1
385.929	0.16
386.136	0.14
386.342	0.16
386.549	0.1
386.755	0.16
386.961	0.17
387.168	0.11
387.374	0.12
387.58	0.22
387.787	0.15
387.993	0.16
388.199	0.12
388.406	0.12
388.612	0.16
388.818	0.09
389.024	0.13
389.231	0.14
389.437	0.23
389.643	0.16
389.849	0.13
390.055	0.15
390.261	0.19
390.467	0.15
390.674	0.13
390.88	0.14
391.086	0.16
391.292	0.08
391.498	0.19
391.704	0.16
391.91	0.14
392.116	0.1
392.322	0.05
392.528	0.15
392.734	0.13
392.94	0.14
393.146	0.18
393.352	0.17
393.557	0.14
393.763	0.14
393.969	0.17
394.175	0.15
394.381	0.13
394.587	0.07
394.792	0.17
394.998	0.14
395.204	0.17
395.41	0.15
395.615	0.17
395.821	0.21
396.027	0.16
396.233	0.14
396.438	0.17
396.644	0.25
396.85	0.18
397.055	0.16
397.261	0.23
397.466	0.22
397.672	0.16
397.878	0.25
398.083	0.2
398.289	0.15
398.494	0.2
398.7	0.16
398.905	0.07
399.111	0.25
399.316	0.15
399.522	0.14
399.727	0.2
399.932	0.17
400.138	0.17
400.343	0.22
400.549	0.19
400.754	0.17
400.959	0.19
401.165	0.18
401.37	0.2
401.575	0.28
401.78	0.2
401.986	0.15
402.191	0.17
402.396	0.21
402.601	0.22
402.807	0.22
403.012	0.21
403.217	0.2
403.422	0.22
403.627	0.25
403.832	0.2
404.037	0.24
404.243	0.23
404.448	0.24
404.653	0.24
404.858	0.23
405.063	0.29
405.268	0.2
405.473	0.25
405.678	0.19
405.883	0.44
406.088	0.29
406.293	0.19
406.498	0.21
406.703	0.28
406.907	0.28
407.112	0.2
407.317	0.3
407.522	0.3
407.727	0.21
407.932	0.32
408.136	0.43
408.341	0.27
408.546	0.33
408.751	0.31
408.956	0.32
409.16	0.37
409.365	0.36
409.57	0.32
409.774	0.37
409.979	0.39
410.184	0.43
410.388	0.33
410.593	0.46
410.798	0.46
411.002	0.4
411.207	0.52
411.411	0.45
411.616	0.41
411.82	0.46
412.025	0.52
412.229	0.5
412.434	0.62
412.638	0.56
412.843	0.54
413.047	0.58
413.252	0.57
413.456	0.6
413.66	0.67
413.865	0.65
414.069	0.75
414.273	0.7
414.478	0.7
414.682	0.74
414.886	0.75
415.091	0.7
415.295	0.8
415.499	0.92
415.703	0.84
415.908	0.93
416.112	0.85
416.316	1.06
416.52	1
416.724	1.05
416.929	1.06
417.133	1.28
417.337	1.16
417.541	1.2
417.745	1.28
417.949	1.39
418.153	1.43
418.357	1.38
418.561	1.57
418.765	1.53
418.969	1.72
419.173	1.73
419.377	1.72
419.581	1.88
419.785	1.85
419.989	1.96
420.193	2.05
420.397	2.08
420.601	2.29
420.804	2.41
421.008	2.39
421.212	2.5
421.416	2.56
421.62	2.56
421.823	2.57
422.027	2.75
422.231	2.79
422.435	2.79
422.638	2.86
422.842	2.94
423.046	3.11
423.249	3.26
423.453	3.29
423.657	3.43
423.86	3.51
424.064	3.66
424.268	3.9
424.471	3.84
424.675	4.05
424.878	4.15
425.082	4.35
425.285	4.65
425.489	4.62
425.692	4.76
425.896	4.87
426.099	5.1
426.303	5.23
426.506	5.37
426.71	5.67
426.913	5.79
427.116	6.1
427.32	6.16
427.523	6.25
427.726	6.71
427.93	6.82
428.133	7.28
428.336	7.4
428.54	7.57
428.743	7.87
428.946	8.23
429.149	8.34
429.353	8.3
429.556	8.58
429.759	8.62
429.962	8.81
430.165	8.95
430.368	8.8
430.571	8.65
430.775	8.94
430.978	8.93
431.181	9.01
431.384	9.28
431.587	9.33
431.79	9.87
431.993	9.88
432.196	10.25
432.399	10.76
432.602	10.8
432.805	11.01
433.008	11.8
433.211	11.62
433.414	12.03
433.616	12.21
433.819	12.23
434.022	12.61
434.225	12.69
434.428	12.75
434.631	13.36
434.833	13.29
435.036	13.56
435.239	13.83
435.442	13.98
435.645	14.34
435.847	14.47
436.05	15
436.253	15.36
436.455	15.48
436.658	15.43
436.861	15.81
437.063	16.06
437.266	16.24
437.468	16.7
437.671	17.12
437.874	17.31
438.076	17.38
438.279	18.14
438.481	18.2
438.684	19.42
438.886	18.97
439.089	19.45
439.291	19.63
439.494	20.28
439.696	20.62
439.899	21.59
440.101	22.4
440.303	22.9
440.506	24.11
440.708	23.77
440.91	24.21
441.113	24.85
441.315	25.29
441.517	25.32
441.72	26.27
441.922	25.9
442.124	25.96
442.326	26.65
442.529	27.12
442.731	27.55
442.933	28.22
443.135	28.01
443.337	28.26
443.539	29.44
443.742	29.08
443.944	30.47
444.146	30.25
444.348	30.3
444.55	30.33
444.752	30.77
444.954	31.27
445.156	31.13
445.358	32.18
445.56	32.61
445.762	32.47
445.964	33.33
446.166	33.08
446.368	33.23
446.57	33.56
446.772	32.94
446.974	32.78
447.175	33.36
447.377	32.98
447.579	34.06
447.781	33.67
447.983	33.12
448.184	32.46
448.386	33.47
448.588	32.63
448.79	32.7
448.991	33.27
449.193	33.65
449.395	32.16
449.597	31.5
449.798	31.36
450	30.61
450.202	30.49
450.403	30.67
450.605	30.51
450.806	29.89
451.008	29.66
451.21	29.26
451.411	28.2
451.613	26.87
451.814	27.34
452.016	27.18
452.217	25.84
452.419	25.8
452.62	25.21
452.821	24.72
453.023	24.33
453.224	23.68
453.426	22.87
453.627	21.4
453.828	21.69
454.03	21.78
454.231	21.53
454.432	21.34
454.634	20.7
454.835	20.23
455.036	20.06
455.238	19.11
455.439	18.63
455.64	18.3
455.841	17.79
456.042	17.92
456.244	17.28
456.445	16.84
456.646	16.27
456.847	16.04
457.048	15.92
457.249	15.94
457.45	15.07
457.651	14.53
457.852	14.03
458.054	13.47
458.255	13.43
458.456	13.47
458.657	13.25
458.858	12.39
459.058	12.22
459.259	12.28
459.46	11.76
459.661	11.72
459.862	11.5
460.063	11.47
460.264	11.24
460.465	10.89
460.666	10.83
460.866	10.41
461.067	9.83
461.268	9.82
461.469	9.73
461.67	9.51
461.87	9.21
462.071	9.12
462.272	9.07
462.473	8.86
462.673	9.1
462.874	8.9
463.075	8.87
463.275	8.73
463.476	8.69
463.676	8.52
463.877	8.28
464.078	8.24
464.278	8.21
464.479	8.03
464.679	7.76
464.88	7.63
465.08	7.48
465.281	7.31
465.481	6.83
465.682	6.55
465.882	6.52
466.083	6.4
466.283	6.17
466.483	6.01
466.684	5.74
466.884	5.43
467.085	5.56
467.285	5.48
467.485	5.27
467.686	5.15
467.886	4.97
468.086	4.79
468.286	4.72
468.487	4.81
468.687	4.6
468.887	4.46
469.087	4.57
469.287	4.43
469.488	4.09
469.688	4.24
469.888	4.12
470.088	4.07
470.288	3.91
470.488	3.84
470.688	3.54
470.888	3.49
471.088	3.28
471.288	3.34
471.488	3.3
471.688	3.19
471.888	3.12
472.088	3.2
472.288	3.08
472.488	2.93
472.688	2.86
472.888	2.86
473.088	2.8
473.288	2.69
473.488	2.61
473.688	2.69
473.887	2.56
474.087	2.47
474.287	2.47
474.487	2.35
474.687	2.38
474.886	2.29
475.086	2.18
475.286	2.23
475.486	2.17
475.685	2.05
475.885	1.97
476.085	2.03
476.284	1.96
476.484	2
476.684	1.94
476.883	1.96
477.083	1.81
477.282	1.78
477.482	1.74
477.681	1.75
477.881	1.62
478.08	1.62
478.28	1.59
478.479	1.54
478.679	1.62
478.878	1.46
479.078	1.43
479.277	1.46
479.477	1.45
479.676	1.4
479.875	1.35
480.075	1.24
480.274	1.33
480.473	1.3
480.673	1.2
480.872	1.28
481.071	1.21
481.271	1.18
481.47	1.11
481.669	1.15
481.868	1.06
482.067	1.08
482.267	0.98
482.466	1
482.665	0.97
482.864	0.95
483.063	0.9
483.262	0.98
483.461	0.99
483.661	0.94
483.86	0.9
484.059	0.89
484.258	0.84
484.457	0.84
484.656	0.79
484.855	0.83
485.054	0.72
485.253	0.72
485.452	0.68
485.651	0.73
485.849	0.69
486.048	0.7
486.247	0.63
486.446	0.68
486.645	0.59
486.844	0.6
487.043	0.61
487.241	0.61
487.44	0.59
487.639	0.59
487.838	0.58
488.037	0.55
488.235	0.59
488.434	0.53
488.633	0.44
488.831	0.53
489.03	0.54
489.229	0.48
489.427	0.46
489.626	0.49
489.825	0.48
490.023	0.46
490.222	0.43
490.42	0.45
490.619	0.47
490.817	0.43
491.016	0.38
491.214	0.4
491.413	0.39
491.611	0.37
491.81	0.37
492.008	0.38
492.207	0.39
492.405	0.36
492.604	0.31
492.802	0.34
493	0.35
493.199	0.34
493.397	0.32
493.595	0.31
493.794	0.3
493.992	0.35
494.19	0.3
494.388	0.31
494.587	0.28
494.785	0.29
494.983	0.25
495.181	0.29
495.379	0.29
495.578	0.26
495.776	0.29
495.974	0.26
496.172	0.26
496.37	0.23
496.568	0.23
496.766	0.23
496.964	0.27
497.162	0.23
497.36	0.2
497.558	0.26
497.756	0.26
497.954	0.22
498.152	0.2
498.35	0.24
498.548	0.23
498.746	0.19
498.944	0.16
499.142	0.18
499.34	0.17
499.538	0.2
499.736	0.18
499.933	0.22
500.131	0.2
500.329	0.2
500.527	0.21
500.725	0.21
500.922	0.2
501.12	0.19
501.318	0.19
501.516	0.16
501.713	0.17
501.911	0.16
502.109	0.14
502.306	0.17
502.504	0.13
502.701	0.13
502.899	0.16
503.097	0.2
503.294	0.16
503.492	0.15
503.689	0.17
503.887	0.15
504.084	0.22
504.282	0.18
504.479	0.12
504.677	0.14
504.874	0.12
505.072	0.13
505.269	0.12
505.466	0.15
505.664	0.14
505.861	0.09
506.059	0.1
506.256	0.15
506.453	0.1
506.651	0.18
506.848	0.14
507.045	0.15
507.242	0.15
507.44	0.1
507.637	0.11
507.834	0.12
508.031	0.16
508.229	0.09
508.426	0.12
508.623	0.12
508.82	0.08
509.017	0.1
509.214	0.12
509.411	0.12
509.608	0.1
509.805	0.11
510.003	0.09
510.2	0.09
510.397	0.12
510.594	0.09
510.791	0.09
510.988	0.09
511.184	0.13
511.381	0.1
511.578	0.06
511.775	0.14
511.972	0.07
512.169	0.13
512.366	0.08
512.563	0.11
512.76	0.08
512.956	0.1
513.153	0.09
513.35	0.08
513.547	0.06
513.744	0.08
513.94	0.06
514.137	0.1
514.334	0.08
514.53	0.1
514.727	0.1
514.924	0.14
515.12	0.07
515.317	0.04
515.514	0.08
515.71	0.05
515.907	0.07
516.103	0.09
516.3	0.09
516.497	0.11
516.693	0.13
516.89	0.07
517.086	0.05
517.283	0.09
517.479	0.1
517.676	0.09
517.872	0.08
518.068	0.05
518.265	0.06
518.461	0.06
518.658	0.05
518.854	0.08
519.05	0.05
519.247	0.05
519.443	0.07
519.639	0.08
519.836	0.08
520.032	0.05
520.228	0.07
520.424	0.14
520.621	0.1
520.817	0.05
521.013	0.08
521.209	0.09
521.405	0.11
521.601	0.1
521.798	0.08
521.994	0.12
522.19	0.05
522.386	0.01
522.582	0.07
522.778	0.07
522.974	0.05
523.17	0.05
523.366	0.07
523.562	0.09
523.758	0.07
523.954	0.03
524.15	0.06
524.346	0.08
524.542	0.05
524.738	0.05
524.934	0.06
525.129	0.04
525.325	0.07
525.521	0.05
525.717	0.1
525.913	0.06
526.109	0.06
526.304	0.05
526.5	0.06
526.696	0.08
526.892	0.05
527.087	0.05
527.283	0.04
527.479	0.07
527.674	0.05
527.87	0.04
528.066	0.02
528.261	0.11
528.457	0.08
528.653	0.06
528.848	0.04
529.044	0.05
529.239	0.05
529.435	0.1
529.63	0.07
529.826	0.11
530.021	0.06
530.217	0.06
530.412	0.05
530.608	0.03
530.803	0.04
530.999	0.05
531.194	0.02
531.389	0.07
531.585	-0
531.78	0.03
531.975	0.06
532.171	0.08
532.366	0.05
532.561	0.04
532.757	0.03
532.952	0.05
533.147	0.07
533.342	0.04
533.538	0.03
533.733	0.08
533.928	0.05
534.123	0.04
534.318	0.02
534.513	0.05
534.709	0.04
534.904	0.04
535.099	0.05
535.294	0.05
535.489	0.05
535.684	0.02
535.879	0.03
536.074	0.04
536.269	0.03
536.464	0.07
536.659	0.06
536.854	0.06
537.049	0.06
537.244	0.07
537.439	0.03
537.634	0.08
537.828	0.04
538.023	0.05
538.218	0
538.413	0.05
538.608	0.02
538.803	0.06
538.997	-0
539.192	0.07
539.387	0.05
539.582	0.08
539.776	0.05
539.971	0.03
540.166	0.04
540.36	0.02
540.555	0.05
540.75	0.03
540.944	0.06
541.139	0
541.334	0.02
541.528	0.07
541.723	0.08
541.917	0.04
542.112	-0.01
542.306	0.04
542.501	0.04
542.695	0.07
542.89	0.03
543.084	0.06
543.279	0.03
543.473	0.06
543.668	0.03
543.862	0.05
544.056	0.07
544.251	0.03
544.445	0.04
544.64	0.02
544.834	0.03
545.028	0.04
545.222	0.06
545.417	0.07
545.611	0.06
545.805	0.06
546	0.03
546.194	0.03
546.388	0.02
546.582	0.04
546.776	0.04
546.97	0.06
547.165	0.05
547.359	0.07
547.553	0.03
547.747	0.06
547.941	0.05
548.135	0.02
548.329	0.05
548.523	0.07
548.717	0.04
548.911	0.02
549.105	0.02
549.299	0.03
549.493	0.06
549.687	0.06
549.881	0.05
550.075	0.05
550.269	0.01
550.463	0.05
550.657	0.02
550.85	0.03
551.044	0.02
551.238	0.05
551.432	0.03
551.626	0.01
551.82	0.05
552.013	0.02
552.207	0.04
552.401	0.04
552.594	0.04
552.788	0.02
552.982	0.02
553.176	0.01
553.369	0.05
553.563	0.05
553.756	0
553.95	0.01
554.144	0.04
554.337	0.07
554.531	0.05
554.724	0.06
554.918	0.04
555.111	0.05
555.305	0.04
555.498	0.09
555.692	0.05
555.885	0.03
556.079	0.06
556.272	0.04
556.466	0.06
556.659	0.04
556.852	0.05
557.046	0.02
557.239	0.05
557.432	0.02
557.626	0
557.819	0.05
558.012	0.04
558.206	0.06
558.399	0.04
558.592	0.07
558.785	0.05
558.979	0.05
559.172	0.04
559.365	0.07
559.558	0.05
559.751	0.02
559.944	0.04
560.138	0.01
560.331	0.04
560.524	0.02
560.717	0.03
560.91	0.04
561.103	0.08
561.296	0.04
561.489	0.04
561.682	0.05
561.875	0.08
562.068	0.05
562.261	0.05
562.454	0.1
562.647	0.05
562.84	0.07
563.032	0.04
563.225	0.05
563.418	0.02
563.611	0.03
563.804	0.03
563.997	0
564.19	-0.01
564.382	0.04
564.575	0.04
564.768	0.03
564.961	-0
565.153	0.02
565.346	0.06
565.539	0.05
565.731	0.04
565.924	0.06
566.117	0.05
566.309	0.02
566.502	-0.01
566.695	0.03
566.887	0.04
567.08	0.03
567.272	0.04
567.465	0.04
567.657	0.06
567.85	0.08
568.042	0.07
568.235	0.08
568.427	0.02
568.62	0.04
568.812	0.05
569.005	0
569.197	-0.01
569.389	0.04
569.582	0.06
569.774	0.05
569.966	-0.01
570.159	0.02
570.351	0.05
570.543	0.03
570.736	0.04
570.928	-0.02
571.12	0.04
571.312	0.03
571.505	-0
571.697	0.06
571.889	0
572.081	0.05
572.273	0.01
572.465	0.07
572.658	0.01
572.85	0.04
573.042	0.01
573.234	0.03
573.426	0.06
573.618	0.02
573.81	0.04
574.002	0.09
574.194	0.06
574.386	0
574.578	-0.05
574.77	0
574.962	0.03
575.154	-0.02
575.346	0.02
575.538	0.04
575.729	-0.01
575.921	0.03
576.113	-0
576.305	0.06
576.497	0.01
576.689	0.05
576.88	0.02
577.072	0.06
577.264	0.03
577.456	0.04
577.647	-0.04
577.839	0.02
578.031	0.07
578.223	-0.01
578.414	-0.01
578.606	0.05
578.798	0.04
578.989	0.01
579.181	0.02
579.372	0.01
579.564	0.01
579.755	0.05
579.947	0.03
580.139	0.07
580.33	-0.02
580.522	0.02
580.713	-0.06
580.905	0.02
581.096	0.07
581.287	0.03
581.479	0.03
581.67	0.06
581.862	0.02
582.053	0
582.244	-0.02
582.436	0.02
582.627	0.02
582.818	0.01
583.01	-0.01
583.201	0.05
583.392	0.07
583.583	0.02
583.775	0
583.966	0.03
584.157	0
584.348	0.02
584.54	-0.02
584.731	0.05
584.922	0.03
585.113	-0.01
585.304	0.04
585.495	0.05
585.686	0.02
585.877	0.03
586.068	0.02
586.259	0.06
586.45	0.06
586.641	0.01
586.832	-0.02
587.023	0.03
587.214	-0
587.405	0.01
587.596	0.01
587.787	0.09
587.978	0.04
588.169	0
588.36	-0.01
588.551	0.04
588.742	0.01
588.932	0.05
589.123	0.02
589.314	0.06
589.505	0.04
589.696	0.02
589.886	-0.03
590.077	-0.02
590.268	0.02
590.458	0
590.649	-0.03
590.84	0.06
591.03	0.01
591.221	-0.02
591.412	-0.04
591.602	0.03
591.793	0.06
591.984	-0
592.174	0.02
592.365	0.09
592.555	0.01
592.746	0.05
592.936	0.03
593.127	0.06
593.317	0.07
593.508	-0
593.698	0
593.889	0.03
594.079	0.05
594.269	0.02
594.46	0.03
594.65	0.03
594.84	0.01
595.031	-0.02
595.221	0.03
595.411	-0
595.602	0.05
595.792	0.02
595.982	0.01
596.172	0.07
596.363	0.05
596.553	0.02
596.743	0.04
596.933	0.04
597.123	0.05
597.314	-0.01
597.504	-0.01
597.694	0.06
597.884	0.08
598.074	0
598.264	0
598.454	0.05
598.644	0.02
598.834	-0.01
599.024	-0.05
599.214	0.02
599.404	0.07
599.594	-0.01
599.784	-0.02
599.974	0.08
600.164	0.05
600.354	-0
600.544	-0.05
600.734	0.04
600.924	0.07
601.114	0.02
601.303	0.02
601.493	0.05
601.683	0.01
601.873	0.01
602.063	-0.02
602.252	0.05
602.442	-0.04
602.632	0.01
602.821	-0.01
603.011	0.05
603.201	-0.01
603.39	-0.01
603.58	0
603.77	0.03
603.959	0.05
604.149	0.03
604.339	-0
604.528	0.05
604.718	0.04
604.907	-0
605.097	-0
605.286	-0
605.476	0.05
605.665	0.03
605.855	0.02
606.044	0.06
606.234	0.06
606.423	-0.01
606.612	-0.01
606.802	0.04
606.991	0.04
607.181	0.05
607.37	-0.03
607.559	0.03
607.749	-0.03
607.938	0.01
608.127	0.01
608.316	-0.01
608.506	0.01
608.695	0.01
608.884	0.02
609.073	0.03
609.263	0.07
609.452	0.05
609.641	0.01
609.83	-0
610.019	0
610.208	-0.03
610.397	0.04
610.586	0.06
610.775	0
610.965	0.02
611.154	-0
611.343	0.01
611.532	0.03
611.721	-0.01
611.91	-0
612.099	0.05
612.287	-0
612.476	-0
612.665	0.04
612.854	0.01
613.043	0.06
613.232	-0
613.421	-0.04
613.61	0.03
613.798	-0.01
613.987	0.06
614.176	-0
614.365	0.03
614.554	0.05
614.742	0.07
614.931	0
615.12	0.03
615.309	0.03
615.497	0.02
615.686	0.01
615.875	-0
616.063	0.02
616.252	-0.02
616.44	0.01
616.629	0.01
616.818	0.04
617.006	0.01
617.195	0.01
617.383	0.04
617.572	0.01
617.76	0.01
617.949	0.01
618.137	0.04
618.326	0.03
618.514	-0.03
618.703	-0.01
618.891	0.08
619.079	-0.05
619.268	0.02
619.456	-0.03
619.644	0.04
619.833	0.02
620.021	0.02
620.209	-0.05
620.398	-0.02
620.586	0.02
620.774	0
620.962	0.02
621.151	0.08
621.339	0
621.527	-0.01
621.715	-0.05
621.903	-0.01
622.092	-0.02
622.28	0.03
622.468	0.02
622.656	-0
622.844	0.03
623.032	0.01
623.22	-0.05
623.408	0.04
623.596	0.04
623.784	0.03
623.972	-0.02
624.16	0.01
624.348	0.07
624.536	0.02
624.724	-0.03
624.912	0.06
625.1	0.05
625.288	-0.01
625.476	-0.01
625.664	0.04
625.851	-0.01
626.039	0.04
626.227	0.01
626.415	-0.01
626.603	-0.05
626.79	0.01
626.978	-0.02
627.166	0.06
627.354	0.01
627.541	-0.01
627.729	-0.06
627.917	0.05
628.104	0.07
628.292	0.03
628.48	0.01
628.667	0.04
628.855	0.02
629.042	0.01
629.23	0.03
629.418	0.04
629.605	0
629.793	0
629.98	-0.03
630.168	0
630.355	-0.01
630.543	0.03
630.73	-0.04
630.917	0.04
631.105	0.09
631.292	-0.01
631.48	0.01
631.667	0.07
631.854	0.05
632.042	0.02
632.229	-0.03
632.416	0.01
632.604	-0.01
632.791	-0.03
632.978	0.04
633.165	0.01
633.353	0.07
633.54	0.06
633.727	-0.05
633.914	0
634.101	-0.08
634.289	0.05
634.476	-0.02
634.663	-0.04
634.85	0
635.037	-0.06
635.224	-0.04
635.411	0.06
635.598	0.08
635.785	-0
635.972	0
636.159	0.07
636.346	-0.03
636.533	0.02
636.72	0
636.907	-0.02
637.094	0.05
637.281	0.02
637.468	-0.01
637.655	-0.02
637.842	0.02
638.029	-0.02
638.215	0.06
638.402	0.04
638.589	-0.01
638.776	0.01
638.963	-0.02
639.149	0.04
639.336	0.05
639.523	0.01
639.709	-0.04
639.896	0.01
640.083	0.03
640.27	0.05
640.456	-0.01
640.643	0.02
640.829	-0.05
641.016	0.02
641.203	-0.03
641.389	0.05
641.576	0.03
641.762	0.01
641.949	-0.02
642.135	0.03
642.322	0.03
642.508	-0.02
642.695	0
642.881	-0
643.068	0.01
643.254	0.03
643.441	0.04
643.627	0.01
643.813	0.01
644	0.06
644.186	-0.01
644.372	0.04
644.559	0
644.745	0.01
644.931	-0.02
645.118	0.02
645.304	0.02
645.49	-0.02
645.676	-0.01
645.862	0.01
646.049	0.05
646.235	0.03
646.421	0.06
646.607	0.06
646.793	-0
646.979	-0.04
647.165	0.03
647.352	0.04
647.538	0.04
647.724	0.01
647.91	0.03
648.096	0.06
648.282	0.04
648.468	0.03
648.654	0.02
648.84	0.02
649.026	0
649.212	-0.01
649.397	-0.01
649.583	-0.04
649.769	0.02
649.955	0.01
650.141	0.02
650.327	0.05
650.513	-0
650.698	0.06
650.884	-0.07
651.07	0.05
651.256	0.04
651.442	-0.01
651.627	-0.01
651.813	0.03
651.999	0.02
652.184	0.02
652.37	-0.01
652.556	0.01
652.741	0.06
652.927	-0.07
653.113	0.01
653.298	0.01
653.484	0
653.669	-0.04
653.855	-0.02
654.04	0.01
654.226	0.04
654.412	0
654.597	-0.04
654.782	0.01
654.968	0.07
655.153	0.01
655.339	-0.02
655.524	-0.03
655.71	0.05
655.895	0
656.08	0.01
656.266	0.05
656.451	0.01
656.636	-0
656.822	-0.01
657.007	-0.02
657.192	0.01
657.378	-0.03
657.563	-0
657.748	0.05
657.933	0.04
658.118	-0.04
658.304	-0.01
658.489	0.02
658.674	0.02
658.859	-0.02
659.044	-0.02
659.229	0.02
659.414	0.01
659.599	-0.01
659.785	-0.05
659.97	-0.01
660.155	0.05
660.34	0
660.525	0.03
660.71	-0.02
660.895	0.05
661.08	-0.02
661.264	-0.01
661.449	0.06
661.634	0.07
661.819	0.07
662.004	-0
662.189	-0.05
662.374	-0.04
662.559	-0.04
662.743	-0.08
662.928	0
663.113	-0.02
663.298	-0.05
663.483	0.01
663.667	0.03
663.852	-0.04
664.037	0.03
664.221	-0.02
664.406	0.06
664.591	0.02
664.775	0.01
664.96	0.02
665.145	0.03
665.329	0.06
665.514	-0.03
665.698	0
665.883	-0.08
666.068	0.05
666.252	0.01
666.437	-0
666.621	0.03
666.806	0.06
666.99	0.01
667.174	-0.04
667.359	0.05
667.543	0.02
667.728	-0.02
667.912	-0.06
668.096	0.01
668.281	-0.03
668.465	-0.03
668.649	-0
668.834	0
669.018	-0.01
669.202	-0.02
669.387	-0.02
669.571	0.09
669.755	0
669.939	-0.01
670.124	0.03
670.308	0.06
670.492	0.02
670.676	0.03
670.86	-0.01
671.044	-0.04
671.228	0.04
671.413	-0
671.597	0
671.781	-0.02
671.965	0.05
672.149	0.02
672.333	0.02
672.517	-0.01
672.701	0.03
672.885	-0.04
673.069	-0.02
673.253	0.08
673.437	0.01
673.621	-0.02
673.804	0
673.988	0.01
674.172	0.01
674.356	-0.04
674.54	0.02
674.724	0.08
674.908	-0.01
675.091	0.03
675.275	-0.02
675.459	0.07
675.643	0.09
675.826	-0.01
676.01	0.01
676.194	0.03
676.377	0.06
676.561	0.04
676.745	-0.04
676.928	0.03
677.112	0.04
677.296	-0.03
677.479	-0.04
677.663	-0.02
677.846	0.03
678.03	-0.02
678.213	-0
678.397	0.05
678.58	-0.02
678.764	0.01
678.947	-0.05
679.131	-0.01
679.314	-0.01
679.498	0.01
679.681	0
679.865	0.06
680.048	-0.01
680.231	0.03
680.415	-0.03
680.598	-0.02
680.781	-0.04
680.965	-0.05
681.148	0
681.331	-0.03
681.514	0.05
681.698	-0.01
681.881	0.02
682.064	0.05
682.247	0.02
682.43	-0.07
682.614	0.04
682.797	0.03
682.98	0.02
683.163	-0.03
683.346	0.03
683.529	-0.05
683.712	-0.02
683.895	0.06
684.078	-0.05
684.261	-0.03
684.444	0.02
684.627	0.05
684.81	-0.02
684.993	0.05
685.176	0.03
685.359	-0.08
685.542	-0.04
685.725	0.07
685.908	0.01
686.091	0.01
686.274	0.07
686.457	0
686.639	-0.02
686.822	0.04
687.005	-0
687.188	0.02
687.371	0.1
687.553	0.02
687.736	0.03
687.919	0.15
688.102	0.09
688.284	0.01
688.467	0.01
688.65	0.02
688.832	-0.02
689.015	-0.01
689.197	-0.07
689.38	0.11
689.563	0.1
689.745	-0.03
689.928	-0.02
690.11	-0.02
690.293	0.02
690.475	-0.09
690.658	0.08
690.84	0
691.023	-0.02
691.205	-0.04
691.388	0.03
691.57	0.06
691.752	0.03
691.935	-0.07
692.117	-0.05
692.3	0.05
692.482	0.02
692.664	-0.01
692.847	0.04
693.029	0.05
693.211	0.07
693.393	-0.07
693.576	-0.03
693.758	0.02
693.94	0.02
694.122	0.03
694.304	0.01
694.487	0.01
694.669	0.13
694.851	-0.08
695.033	0.05
695.215	0
695.397	-0.05
695.579	-0.02
695.761	0
695.943	-0.08
696.125	0.06
696.308	0.08
696.49	-0.13
696.671	0.11
696.853	0.01
697.035	0.15
697.217	0.02
697.399	0.11
697.581	-0.01
697.763	-0.05
697.945	-0.07
698.127	0.03
698.309	0.08
698.491	0.01
698.672	-0
698.854	0.04
699.036	0.07
699.218	-0.03
699.399	0.04
699.581	0.08
699.763	0.04
699.945	-0.07
700.126	-0.02
700.308	0.01
700.49	0.03
700.671	-0.06
700.853	-0.03
701.035	-0.01
701.216	-0.02
701.398	-0.03
701.579	-0.03
701.761	0.11
701.943	0
702.124	-0.07
702.306	-0.04
702.487	0.13
702.669	-0.03
702.85	-0.03
703.031	-0.05
703.213	0.12
703.394	0.04
703.576	-0.01
703.757	0.12
703.938	0.06
704.12	0.15
704.301	0
704.483	-0.06
704.664	-0.03
704.845	0.09
705.026	0.01
705.208	-0.05
705.389	0
705.57	0.01
705.751	0.03
705.933	0.06
706.114	0.07
706.295	-0.01
706.476	-0.06
706.657	0.12
706.838	0.07
707.02	0.1
707.201	-0.01
707.382	-0.06
707.563	0.02
707.744	0.04
707.925	-0.04
708.106	-0.06
708.287	0
708.468	0.08
708.649	-0.01
708.83	0.05
709.011	-0.04
709.192	0.06
709.373	-0.11
709.554	-0.03
709.734	0.06
709.915	0.04
710.096	-0.02
710.277	-0.14
710.458	0.03
710.639	0.1
710.819	-0.11
711	-0.07
711.181	0.09
711.362	0.05
711.542	-0.01
711.723	-0.02
711.904	0.04
712.085	0.01
712.265	-0.04
712.446	-0.04
712.627	-0.03
712.807	0.07
712.988	0.07
713.168	-0.12
713.349	0.03
713.53	-0.1
713.71	-0.05
713.891	-0.05
714.071	-0.04
714.252	0
714.432	-0.06
714.613	-0.13
714.793	0.02
714.974	0.08
715.154	0.06
715.334	0.07
715.515	0.1
715.695	-0.02
715.876	0.01
716.056	-0.04
716.236	-0
716.417	0.03
716.597	-0.06
716.777	0.15
716.957	0.01
717.138	0.06
717.318	0.02
717.498	-0.11
717.678	-0.01
717.859	0.05
718.039	-0.11
718.219	0
718.399	0.05
718.579	-0.04
718.759	-0.07
718.939	0.01
719.12	-0.03
719.3	0.04
719.48	-0.11
719.66	-0.16
719.84	0.06
720.02	0.01
720.2	-0.1
720.38	0
720.56	0.12
720.74	0.03
720.92	0.01
721.1	0.11
721.279	0.05
721.459	-0.02
721.639	-0.11
721.819	0.05
721.999	-0.03
722.179	0.09
722.359	-0.12
722.538	-0.03
722.718	-0.01
722.898	0.03
723.078	-0.07
723.257	-0.02
723.437	-0.02
723.617	-0.03
723.797	-0.08
723.976	-0.01
724.156	0.02
724.336	0.04
724.515	0.21
724.695	-0.16
724.874	0.01
725.054	0.08
725.234	-0
725.413	0.01
725.593	0.03
725.772	-0.03
725.952	-0.01
726.131	0.07
726.311	0.01
726.49	-0.01
726.67	-0.02
726.849	-0.14
727.028	0.06
727.208	0.04
727.387	0.03
727.567	-0.06
727.746	-0.05
727.925	-0.06
728.105	-0.06
728.284	-0.07
728.463	-0.03
728.643	0.03
728.822	-0.18
729.001	-0.09
729.18	-0.03
729.359	0.02
729.539	-0.09
729.718	0.01
729.897	0.17
730.076	-0.02
730.255	-0.08
730.434	0.02
730.614	0.07
730.793	0
730.972	-0.02
731.151	0.05
731.33	0.15
731.509	0.01
731.688	-0.08
731.867	-0.06
732.046	-0.15
732.225	0.2
732.404	-0.06
732.583	-0.12
732.762	0.01
732.941	0.08
733.12	-0.06
733.298	0.01
733.477	0.11
733.656	-0.05
733.835	-0.16
734.014	0.15
734.193	-0.05
734.371	0.08
734.55	0.17
734.729	-0.15
734.908	0.08
735.086	0.09
735.265	0.08
735.444	-0.21
735.623	-0.14
735.801	-0.18
735.98	0.05
736.159	-0.07
736.337	0.16
736.516	0.05
736.694	-0.03
736.873	-0.07
737.052	0.02
737.23	0.08
737.409	-0.07
737.587	0.11
737.766	-0.12
737.944	-0.04
738.123	0.03
738.301	0.01
738.479	-0.02
738.658	0.03
738.836	-0.19
739.015	-0.06
739.193	0.04
739.371	-0.15
739.55	-0.01
739.728	-0.15
739.906	0.24
740.085	0.05
740.263	0.02
740.441	-0.16
740.62	0.15
740.798	0.09
740.976	-0.01
741.154	-0.14
741.332	0.17
741.511	-0.1
741.689	-0.01
741.867	0.04
742.045	0.07
742.223	0
742.401	-0.2
742.579	-0.04
742.757	0.04
742.935	-0.09
743.114	-0.09
743.292	-0.04
743.47	-0.02
743.648	0.09
743.826	-0.16
744.004	0.13
744.181	0.07
744.359	0
744.537	0
744.715	-0.02
744.893	-0.06
745.071	0.05
745.249	-0.14
745.427	-0.1
745.605	0.07
745.782	-0.01
745.96	0.07
746.138	0.05
746.316	0.01
746.493	-0.03
746.671	-0
746.849	0.01
747.027	0.14
747.204	-0.08
747.382	0.08
747.56	-0.18
747.737	-0.02
747.915	-0.03
748.093	-0
748.27	-0.06
748.448	-0.08
748.625	-0.12
748.803	-0.08
748.98	-0.03
749.158	0.04
749.335	0.11
749.513	0.03
749.69	0.01
749.868	0.02
750.045	0
750.223	-0.01
750.4	-0.16
750.578	0.15
750.755	0.02
750.932	-0.1
751.11	0.19
751.287	-0.13
751.464	0.1
751.642	-0.06
751.819	-0.06
751.996	0.02
752.173	-0.04
752.351	-0.09
752.528	0.03
752.705	-0.04
752.882	-0.01
753.06	0.18
753.237	0.02
753.414	0.29
753.591	0.19
753.768	-0.09
753.945	-0.11
754.122	-0.02
754.299	0.19
754.476	-0.09
754.654	-0.05
754.831	0.03
755.008	0.02
755.185	-0
755.362	-0.08
755.539	-0
755.716	-0.06
755.892	-0.06
756.069	0.05
756.246	0.02
756.423	0.06
756.6	0.16
756.777	0
756.954	0.16
757.131	-0.01
757.307	-0.04
757.484	-0.13
757.661	0.06
757.838	-0.02
758.015	-0.05
758.191	-0
758.368	-0.03
758.545	0.21
758.721	0.12
758.898	-0.03
759.075	0.08
759.251	0.08
759.428	0.01
759.605	-0.13
759.781	0
759.958	0.04
760.134	0.09
760.311	-0.05
760.488	0.17
760.664	0.14
760.841	-0.05
761.017	-0.12
761.194	-0.04
761.37	0.08
761.547	0.06
761.723	-0.06
761.899	0.14
762.076	-0.13
762.252	-0.11
762.429	0.01
762.605	0.06
762.781	0.02
762.958	0.09
763.134	-0.1
763.31	-0
763.486	0.09
763.663	-0.26
763.839	0.13
764.015	-0.1
764.191	-0.09
764.368	0.1
764.544	-0.16
764.72	0.01
764.896	0.04
765.072	0.09
765.248	-0.13
765.425	-0.13
765.601	-0.03
765.777	-0.04
765.953	-0.25
766.129	0.03
766.305	-0.15
766.481	0.07
766.657	-0.02
766.833	0.27
767.009	-0.06
767.185	-0.05
767.361	0.02
767.537	-0.15
767.713	0.19
767.889	-0.05
768.065	0.07
768.24	0.09
768.416	0.08
768.592	-0
768.768	-0.09
768.944	0.03
769.12	-0.16
769.295	-0.12
769.471	-0.05
769.647	0.14
769.823	0.09
769.998	-0.05
770.174	-0.18
770.35	0.33
770.525	0.18
770.701	0.04
770.877	0.01
771.052	-0.14
771.228	0.15
771.403	0.05
771.579	0.15
771.755	0.31
771.93	-0.1
772.106	-0.16
772.281	-0.22
772.457	0.02
772.632	0.1
772.808	-0.11
772.983	-0.09
773.159	-0.21
773.334	0.11
773.509	-0.02
773.685	-0.16
773.86	0.3
774.036	0.19
774.211	-0.03
774.386	0.03
774.562	-0.01
774.737	-0.07
774.912	-0.03
775.087	0.2
775.263	-0.02
775.438	-0.13
775.613	-0.06
775.788	-0.08
775.964	0.04
776.139	0.4
776.314	-0.25
776.489	0.18
776.664	-0
776.839	0.06
777.014	0.04
777.19	0.18
777.365	0.19
777.54	0.21
777.715	-0.08
777.89	-0.03
778.065	-0.05
778.24	-0.07
778.415	-0.08
778.59	-0.19
778.765	-0.11
778.94	0.04
779.115	-0.12
779.289	0.02
779.464	-0.05
779.639	0.04
779.814	-0.2
779.989	-0.24
780.164	0.14
780.339	-0.09
780.513	-0.24
780.688	-0.18
780.863	-0.02
781.038	0.02
781.212	-0.11
781.387	0.04
781.562	0.32
781.737	-0.09
781.911	0.06
782.086	-0.21
782.261	-0.18
782.435	0.26
782.61	-0.05
782.784	-0.16
782.959	0.19
783.134	-0.13
783.308	-0.34
783.483	-0.19
783.657	0.43
783.832	0.02
784.006	-0.26
784.181	0.04
784.355	0.06
784.53	-0.3
784.704	-0.11
784.878	0.17
785.053	0.15
785.227	0.2
785.402	0.43
785.576	-0.13
785.75	-0.01
785.925	-0.26
786.099	-0.22
786.273	0.06
786.448	0.05
786.622	0.16
786.796	0.09
786.97	-0.11
787.145	0.5
787.319	-0.27
787.493	-0.24
787.667	-0.47
787.841	-0.25
788.015	0.15
788.19	-0.18
788.364	-0.06
788.538	0.09
788.712	0.02
788.886	-0.21
789.06	0.24
789.234	-0.06
789.408	-0.13
789.582	-0.16
789.756	-0.08
789.93	-0.25
790.104	-0.17
790.278	0.01
790.452	-0.21
790.626	0.08
790.8	0.04
790.973	0.25
791.147	0.16
791.321	0.17
791.495	0.2
791.669	-0.01
791.843	-0.01
792.016	-0.02
792.19	0.44
792.364	-0.41
792.538	0.43
792.711	0.24
792.885	-0.2
793.059	0.05
793.233	-0.34
793.406	0.13
793.58	-0.04
793.754	0.28
793.927	-0.13
794.101	0.3
794.274	0.11
794.448	0.1
794.622	-0.21
794.795	0.28
794.969	-0.1
795.142	0.29
795.316	-0.14
795.489	-0.13
795.663	0.33
795.836	0.16
796.009	-0.17
796.183	0.18
796.356	0.18
796.53	0.13
796.703	0.06
796.876	0.68
797.05	-0.14
797.223	-0.11
797.396	-0.09
797.57	-0.19
797.743	0.46
797.916	0.09
798.09	-0.05
798.263	0.27
798.436	-0.03
798.609	-0.19
798.782	0.01
798.956	0.07
799.129	0.13
799.302	-0.12
799.475	-0.06
799.648	-0.37
799.821	-0.2
799.994	0.13
800.167	-0.59
800.34	-0.02
800.514	-0.12
800.687	-0.38
800.86	-0.17
801.033	-0.04
801.206	-0.02
801.379	-0.4
801.551	0.28
801.724	0.03
801.897	0.25
802.07	-0.04
802.243	-0.47
802.416	-0.01
802.589	-0.18
802.762	0.02
802.935	-0.04
803.107	0.17
803.28	0.16
803.453	0.31
803.626	-0.45
803.798	-0.01
803.971	-0.29
804.144	0.03
804.317	-0.05
804.489	0.44
804.662	-0.17
804.835	0.13
805.007	-0.33
805.18	0.48
805.353	0.05
805.525	-0.44
805.698	-0.2
805.87	0.14
806.043	0.27
806.215	-0.38
806.388	-0.35
806.56	0.07
806.733	0.37
806.905	-0.36
807.078	-0.23
807.25	-0.27
807.423	0.17
807.595	0.09
807.768	-0.16
807.94	0.51
808.112	0.32
808.285	0
808.457	-0.45
808.629	-0.33
808.802	0.16
808.974	-0.15
809.146	-0.2
809.318	-0.28
809.491	-0.06
809.663	-0.15
809.835	-0.18
810.007	-0.14
810.18	0.05
810.352	-0.6
810.524	-0.33
810.696	-0.31
810.868	0.45
811.04	-0.09
811.212	-0.13
811.384	0.45
811.556	-0.02
811.728	-0.01
811.901	0.92
812.073	-0.27
812.245	0.1
812.417	-0.15
812.589	-0.56
812.76	0.02
812.932	-0.11
813.104	0.12
813.276	-0.38
813.448	-0.08
813.62	-0.01
813.792	0.16
813.964	-0.08
814.136	0.08
814.307	-0.27
814.479	-0.09
814.651	-0.06
814.823	0.54
814.995	-0.21
815.166	0.18
815.338	-0.35
815.51	-0.6
815.681	0.54
815.853	0.2
816.025	-0.43
816.196	0.19
816.368	-0.23
816.54	-0.41
816.711	-0.54
816.883	-0.4
817.054	0.58
817.226	-0.69
817.398	0.07
817.569	-0.24
817.741	-0.06
817.912	-0.23
818.084	-0.5
818.255	0.28
818.426	-0.52
818.598	-0.03
818.769	-0.23
818.941	0.1
819.112	0.33
819.283	0.04
819.455	-0.28
819.626	0.18
819.798	0.28
819.969	-0.2
820.14	-0.33
820.311	-0.21
820.483	0.04
820.654	-0.19
820.825	-0.09
820.996	-0.16
821.168	-0.78
821.339	-0.28
821.51	-1.03
821.681	-0.64
821.852	0.41
822.023	-0.95
822.195	-0.69
822.366	-0.07
822.537	-0.24
822.708	-0.04
822.879	-0.51
823.05	0.18
823.221	-0.14
823.392	0.29
823.563	0.1
823.734	-0.02
823.905	-0.53
824.076	-0.37
824.247	-0.81
824.418	-0.47
824.589	0.29
824.759	-0.27
824.93	-0.45
825.101	-0.69
825.272	0.85
825.443	-0.22
825.614	0.3
825.784	-0.61
825.955	1.07
826.126	0.34
826.297	-0.33
826.467	0.64
826.638	0.91
826.809	-0.8
826.98	-0.29
827.15	0.41
827.321	0
827.492	0.06
827.662	-0.01
827.833	1.25
828.003	0.44
828.174	-0.92
828.345	-0.66
828.515	1.03
828.686	-0.08
828.856	-0.3
829.027	-0.42
829.197	0.21
829.368	0.31
829.538	-0.26
829.709	-0.78
829.879	-0.09
830.049	0.14
830.22	-0.44
830.39	-0.38
830.56	0.08
830.731	-0.38
830.901	-0.69
831.072	-0.48
831.242	-0.19
831.412	-0
831.582	-0.55
831.753	-1.16
831.923	0.55
832.093	0.12
832.263	-0.25
832.434	-0.66
832.604	-0.43
832.774	0.21
832.944	-0.25
833.114	-0.73
833.284	0.25
833.454	-0.6
833.624	-0.74
833.795	-0.41
833.965	0.79
834.135	0.04
834.305	-1.13
834.475	-0.41
834.645	-0.3
834.815	-0.77
834.985	-0.88
835.155	-0.52
835.325	0.01
835.494	0.39
835.664	-0.43
835.834	-0.71
836.004	-0.33
836.174	0.01
836.344	-0.25
836.514	-0.34
836.684	-0.48
836.853	-0.29
837.023	0.38
837.193	-0.71
837.363	0.3
837.532	0.5
837.702	-0.26
837.872	-0.7
838.041	0.69
838.211	1.22
838.381	-0.97
838.55	-0.15
838.72	1.99
838.89	0.75
839.059	-0.57
839.229	-1.22
839.398	1.13
839.568	0.14
839.738	-0.86
839.907	0.72
840.077	-0.41
840.246	-0.78
840.416	-0.79
840.585	-1.05
840.755	0.92
840.924	0.59
841.093	-1.3
841.263	0.6
841.432	-0.56
841.602	-0.88
841.771	-0.8
841.94	-0.01
842.11	1.33
842.279	1.12
842.448	-0.8
842.617	-1.67
842.787	0.65
842.956	-0.86
843.125	0.37
843.294	-0.96
843.464	0.21
843.633	-0.37
843.802	-0.96
843.971	-0.35
844.14	-0.29
844.309	0.31
844.479	-0.88
844.648	-1.75
844.817	-1.14
844.986	0.39
845.155	-0.89
845.324	-1.13
845.493	-0.41
845.662	-0.93
845.831	0.22
846	0.48
846.169	0.16
846.338	1.18
846.507	-0.03
846.676	-0.12
846.844	-1.01
847.013	1.39
847.182	-0.09
847.351	-1.28
847.52	0.12
847.689	0.05
847.858	-1.13
848.026	-0.52
848.195	0.08
848.364	-0.56
848.533	-1.75
848.701	-0.6
848.87	-0.82
849.039	1.05
849.207	0.2
849.376	0.33
849.545	0.65
849.713	-0.81
849.882	-0.93
850.051	0.04
850.219	-0.73
850.388	1.19
850.556	-1.15
850.725	-1.43
850.893	0.47
851.062	-0.62
851.23	-0.25
851.399	-1.57
851.567	-0.2
851.736	-1.06
851.904	-0.47
852.073	-0.08
852.241	-0.37
852.41	0.35
852.578	-0.78
852.746	-1.65
852.915	-0.25
853.083	-1.46
853.251	-1.27
853.42	-0.9
853.588	0.43
853.756	0.46
853.924	-0.73
854.093	-0.71
854.261	-0.61
854.429	-1.85
854.597	0.04
854.765	-1.59
854.934	0.54
855.102	-0.22
855.27	-1.57
855.438	1.26
855.606	0.02
855.774	1.89
855.942	-2.83
856.11	-1.6
856.278	0
856.446	0.49
856.614	0.41
856.782	-0.46
856.95	1.33
857.118	-0.02
857.286	0.33
857.454	-1.76
857.622	0.5
857.79	1
857.958	-0.64
858.126	-0.79
858.294	-3.17
858.462	-0.78
858.629	-0.94
858.797	-1.02
858.965	-0.55
859.133	0.1
859.301	-1.25
859.468	-0.02
859.636	-0.36
859.804	0.77
859.971	1.18
860.139	-1.3
860.307	0.88
860.474	0.62
860.642	-1.69
860.81	-1.91
860.977	-1.67
861.145	-0.12
861.313	-0.16
861.48	-0.77
861.648	0.17
861.815	-0.01
861.983	-2.22
862.15	-0.43
862.318	0.97
862.485	0.07
862.653	-0.41
862.82	-1.88
862.988	0.34
863.155	0.06
863.322	-2.4
863.49	-1.38
863.657	-0.62
863.824	1.63
863.992	-1.04
864.159	-0.74
864.326	0.72
864.494	-1.21
864.661	2.58
864.828	-1.84
864.996	0.89
865.163	0.57
865.33	-1.24
865.497	-2.78
865.664	-2.47
865.832	-1.99
865.999	-0.59
866.166	-2.23
866.333	-0.43
866.5	-0.43
866.667	1.46
866.834	-1.51
867.001	0.83
867.168	-3.24
867.335	-0.13
867.502	-1.65
867.669	-1.05
867.836	2.6
868.003	-0.25
868.17	-0.13
868.337	-1.6
868.504	2.95
868.671	-1.84
868.838	-0.87
869.005	1.02
869.172	-0.13
869.339	-1.89
869.505	-0.23
869.672	0.18
869.839	0.13
870.006	0.67
870.173	-1.74
870.339	-0.7
870.506	1.88
870.673	-3.49
870.84	0.38
871.006	0.15
871.173	-0.09
871.34	-0.92
871.506	-1.13
871.673	-0.55
871.839	-2.66
872.006	-0.04
872.173	-0.78
872.339	-0.46
872.506	0.72
872.672	-0.68
872.839	-1.53
873.005	-0.18
873.172	2.21
873.338	0.52
873.505	-1.34
873.671	0.31
873.838	-0.11
874.004	-2.04
874.171	-1.36
874.337	0.88
874.503	-1.2
874.67	-0.77
874.836	0.59
875.002	2.55
875.169	-0.88
875.335	-1.02
875.501	-0.84
875.668	1.01
875.834	-1.29
876	-2.63
876.166	2.17
876.332	1.66
876.499	3.38
876.665	-0.08
876.831	-1.35
876.997	3.01
877.163	-0.95
877.329	-0.89
877.495	-0.67
877.662	-0.23
877.828	-0.45
877.994	-1.67
878.16	-2.9
878.326	-2.54
878.492	-1.7
878.658	-1.4
878.824	-0.42
878.99	-0.07
879.156	-1.6
879.322	2.53
879.487	-1.54
879.653	-0.05
879.819	-1.06
879.985	-3.52
880.151	0.64
880.317	-0.46
880.483	-1.81
880.648	-0.89
880.814	-4.58
880.98	-0.86
881.146	-2.7
881.312	-2.62
881.477	-1.03
881.643	-1.37
881.809	1.27
881.974	0.83
882.14	-3.19
882.306	-1.8
882.471	1.74
882.637	-1.89
882.803	0.66
882.968	2.61
883.134	3.63
883.299	-1.6
883.465	-0.46
883.63	0.3
883.796	-0.55
883.961	0.74
884.127	-0.37
884.292	-4.69
884.458	-2.73
884.623	-2.72
