Data from Apollo_Calib_20240827__AbsoluteIrradiance__713__11-02-03-136.txt Node

Date: Wed Aug 28 11:02:03 BST 2024
User: biology
Spectrometer: FLMT08252
Trigger mode: 0
Integration Time (sec): 5.000000E-1
Scans to average: 5
Electric dark correction enabled: true
Nonlinearity correction enabled: false
Boxcar width: 0
XAxis mode: Wavelengths
Number of Pixels in Spectrum: 3648
>>>>>Begin Spectral Data<<<<<
179.588	-0
179.809	-0
180.03	-0
180.251	-0
180.473	-0
180.694	0
180.915	0
181.136	-0
181.357	0
181.578	0
181.799	0
182.02	-0
182.241	-0
182.462	-0
182.683	0
182.904	-0
183.125	-0
183.346	0
183.567	0
183.788	-0
184.009	-0
184.23	-0
184.451	0
184.672	-0
184.892	-0
185.113	0
185.334	0
185.555	-0
185.776	-0
185.996	-0
186.217	0
186.438	-0
186.659	-0
186.879	0
187.1	-0
187.321	-0
187.541	-0
187.762	-0
187.983	-0
188.203	-0
188.424	0
188.644	-0
188.865	0
189.086	-0
189.306	-0
189.527	-0
189.747	0
189.968	-0
190.188	-0
190.409	0
190.629	0
190.849	-0
191.07	-0
191.29	0
191.511	0
191.731	-0
191.951	-0
192.172	0
192.392	-0
192.612	-0
192.833	0
193.053	0
193.273	0
193.493	-0
193.714	-0
193.934	0
194.154	0
194.374	-0
194.594	0
194.815	-0
195.035	0
195.255	-0
195.475	-0
195.695	-0
195.915	-0
196.135	-0
196.355	0
196.575	0
196.795	0
197.015	-0
197.235	-0
197.455	-0
197.675	0
197.895	-0
198.115	-0
198.335	0
198.555	0
198.775	0
198.995	0
199.214	0
199.434	0
199.654	-0
199.874	-0
200.094	0.83
200.313	0.04
200.533	-1.19
200.753	-1.14
200.973	0.53
201.192	0.73
201.412	-0.99
201.632	-0.81
201.851	1
202.071	-0.35
202.291	-0.66
202.51	-0.69
202.73	0.12
202.95	0.04
203.169	-0.75
203.389	-0.19
203.608	0.18
203.828	-0.82
204.047	-0.27
204.267	0.26
204.486	-0.07
204.706	-0.03
204.925	-0.34
205.145	-0.15
205.364	0.23
205.583	0.29
205.803	-0.28
206.022	-0.59
206.242	-0.24
206.461	0.23
206.68	-0.34
206.9	0.26
207.119	0.3
207.338	0.54
207.557	-0.28
207.777	-0.21
207.996	0.18
208.215	0.36
208.434	-0.51
208.654	-0.4
208.873	0.04
209.092	0.3
209.311	-0.11
209.53	-0.21
209.749	-0.21
209.968	-0.43
210.187	-0.18
210.407	-0.46
210.626	-0.16
210.845	0.3
211.064	-0.04
211.283	-0.35
211.502	0.08
211.721	-0.16
211.94	-0.21
212.159	0.34
212.377	0.2
212.596	0.17
212.815	-0.02
213.034	-0.02
213.253	0.01
213.472	0.22
213.691	-0.15
213.91	-0.4
214.128	-0.14
214.347	0.27
214.566	-0.52
214.785	-0.36
215.003	-0.01
215.222	-0
215.441	0.08
215.66	-0.26
215.878	-0.12
216.097	0.25
216.316	-0.15
216.534	-0.14
216.753	-0.08
216.972	-0.15
217.19	-0.04
217.409	-0.23
217.627	-0.31
217.846	-0.12
218.064	-0.08
218.283	-0.26
218.501	0.4
218.72	0.19
218.938	-0.32
219.157	-0.27
219.375	0.19
219.594	0.19
219.812	-0.31
220.031	-0.17
220.249	0.19
220.467	0.16
220.686	-0.11
220.904	-0.11
221.122	-0.14
221.341	0.3
221.559	-0.1
221.777	-0.2
221.995	-0.11
222.214	0.03
222.432	-0.15
222.65	0.07
222.868	-0.01
223.086	-0.14
223.305	0.16
223.523	0.06
223.741	0.24
223.959	-0.17
224.177	-0.23
224.395	0.02
224.613	-0.01
224.831	0.11
225.049	-0.24
225.267	-0.03
225.485	0.05
225.703	-0.02
225.921	-0.05
226.139	-0.09
226.357	-0.01
226.575	0.19
226.793	-0.06
227.011	0.55
227.229	-0.11
227.447	0.29
227.665	0.02
227.883	-0.26
228.1	-0.06
228.318	0.08
228.536	-0.38
228.754	-0.16
228.972	-0.04
229.189	0.04
229.407	-0.12
229.625	-0.07
229.843	0.11
230.06	-0.01
230.278	-0.13
230.496	0.01
230.713	-0.03
230.931	0.14
231.149	-0.08
231.366	-0.25
231.584	0.02
231.801	0.28
232.019	-0.07
232.236	-0.23
232.454	-0.16
232.671	-0
232.889	-0.1
233.106	-0.2
233.324	-0.02
233.541	-0.14
233.759	-0.03
233.976	-0.15
234.194	0.02
234.411	-0.06
234.628	-0.06
234.846	-0
235.063	-0.15
235.28	-0.07
235.498	-0.07
235.715	-0.21
235.932	0.11
236.149	-0.02
236.367	-0.1
236.584	0.09
236.801	-0.1
237.018	-0.01
237.236	-0.05
237.453	-0.18
237.67	0.11
237.887	-0.12
238.104	-0.07
238.321	-0.11
238.538	-0.09
238.755	0.11
238.973	-0.15
239.19	0.02
239.407	0.19
239.624	0.01
239.841	-0.17
240.058	-0.17
240.275	0.04
240.492	-0.14
240.709	-0.05
240.925	-0.08
241.142	-0.01
241.359	-0.09
241.576	-0.12
241.793	-0.09
242.01	-0.07
242.227	0.13
242.444	-0.02
242.66	0.03
242.877	0.08
243.094	-0.04
243.311	-0.04
243.527	-0.1
243.744	0.04
243.961	0.01
244.178	-0.13
244.394	-0.04
244.611	0.02
244.828	0.08
245.044	-0.07
245.261	-0.05
245.477	-0.04
245.694	-0.05
245.911	-0.08
246.127	-0.05
246.344	0.13
246.56	0.04
246.777	-0.06
246.993	-0.02
247.21	-0.03
247.426	0.07
247.643	-0.08
247.859	-0.15
248.076	-0.08
248.292	0.3
248.508	-0.1
248.725	-0
248.941	0.11
249.157	0.08
249.374	-0.07
249.59	-0.05
249.806	-0.03
250.023	0.1
250.239	-0.09
250.455	-0.1
250.671	-0.04
250.888	0.03
251.104	-0.04
251.32	-0.1
251.536	-0.01
251.752	-0.07
251.969	-0.07
252.185	0.01
252.401	0.14
252.617	0.03
252.833	-0.08
253.049	0.09
253.265	-0.04
253.481	0.03
253.697	-0.06
253.913	-0.17
254.129	0.04
254.345	-0.04
254.561	-0.1
254.777	-0.04
254.993	0.03
255.209	0
255.425	-0.05
255.641	-0.04
255.857	0.11
256.073	0.02
256.288	-0.14
256.504	-0.08
256.72	-0.02
256.936	0.15
257.152	-0.1
257.367	-0.08
257.583	0.03
257.799	0.07
258.015	-0.04
258.23	-0.11
258.446	0.17
258.662	0.05
258.877	-0.07
259.093	-0.11
259.309	0.08
259.524	-0.01
259.74	-0.05
259.955	-0.12
260.171	0.02
260.387	0.02
260.602	-0.01
260.818	0.09
261.033	-0.13
261.249	-0.1
261.464	0.02
261.68	-0.13
261.895	0.07
262.11	0.01
262.326	-0.02
262.541	-0.08
262.757	0.07
262.972	0.01
263.187	-0
263.403	0.02
263.618	0
263.833	-0
264.049	-0.03
264.264	-0.03
264.479	-0
264.694	0.1
264.91	-0.11
265.125	-0.08
265.34	0.02
265.555	0.12
265.77	0.06
265.986	-0.1
266.201	0.05
266.416	0.11
266.631	-0.04
266.846	-0.04
267.061	0.07
267.276	0.04
267.491	-0.12
267.706	0
267.921	0.01
268.136	0.02
268.351	-0.09
268.566	-0.12
268.781	0.03
268.996	0.07
269.211	-0.02
269.426	-0.1
269.641	-0.07
269.856	0.03
270.071	-0.09
270.285	-0.12
270.5	0.05
270.715	0.04
270.93	0
271.145	0.03
271.359	0.02
271.574	-0.06
271.789	-0.01
272.004	-0.05
272.218	-0.03
272.433	0.02
272.648	-0.02
272.862	-0.02
273.077	-0.03
273.292	0.01
273.506	-0.01
273.721	-0.1
273.936	0.01
274.15	0.04
274.365	-0.01
274.579	0.03
274.794	0.05
275.008	0.06
275.223	-0.1
275.437	-0.03
275.652	0.03
275.866	0.04
276.081	-0.07
276.295	0.07
276.509	0.01
276.724	-0.07
276.938	-0.01
277.153	0
277.367	0.07
277.581	-0.13
277.796	-0.06
278.01	-0.08
278.224	0.09
278.438	0.13
278.653	-0.08
278.867	-0
279.081	0.02
279.295	-0.05
279.51	0
279.724	-0.09
279.938	0.08
280.152	0.05
280.366	-0.08
280.58	-0.02
280.794	0.1
281.008	0.05
281.222	0.07
281.437	0.08
281.651	0.03
281.865	0.06
282.079	-0.02
282.293	-0.12
282.507	-0.05
282.721	-0.03
282.935	0.02
283.148	-0.1
283.362	-0.02
283.576	-0.04
283.79	-0.01
284.004	-0.05
284.218	0.05
284.432	-0.02
284.646	-0.01
284.859	-0.08
285.073	-0.07
285.287	0.02
285.501	-0.01
285.714	-0.05
285.928	0.06
286.142	-0.01
286.356	-0.05
286.569	-0.07
286.783	0.03
286.997	0.02
287.21	0.02
287.424	-0.02
287.637	-0.01
287.851	-0.05
288.065	0.01
288.278	-0.02
288.492	0.01
288.705	0
288.919	0.04
289.132	-0.11
289.346	0.07
289.559	-0.06
289.773	-0.06
289.986	-0
290.2	0
290.413	0.05
290.626	-0.06
290.84	0.01
291.053	-0.01
291.267	0.06
291.48	-0.02
291.693	0.03
291.906	-0.06
292.12	-0.02
292.333	-0.01
292.546	-0.05
292.76	0.07
292.973	0.01
293.186	0.04
293.399	-0.07
293.612	0.06
293.826	0.01
294.039	-0.03
294.252	-0
294.465	0.05
294.678	0.05
294.891	-0.03
295.104	-0.07
295.317	-0.01
295.53	0.02
295.743	-0.02
295.956	-0.01
296.169	0.05
296.382	0.04
296.595	-0.02
296.808	-0.05
297.021	0.04
297.234	0.05
297.447	-0.03
297.66	0.06
297.873	0.06
298.086	0.05
298.299	-0.07
298.511	-0.05
298.724	-0.01
298.937	-0.05
299.15	-0.05
299.363	0.01
299.575	0.02
299.788	0.01
300.001	-0.06
300.213	-0.05
300.426	-0.03
300.639	-0
300.852	-0.06
301.064	0.01
301.277	0.06
301.489	0.02
301.702	0.07
301.915	-0.01
302.127	-0.01
302.34	0.04
302.552	0.03
302.765	-0.01
302.977	-0.02
303.19	-0.09
303.402	0.01
303.615	-0.03
303.827	-0.04
304.04	-0.02
304.252	0.01
304.464	0.01
304.677	0.11
304.889	0.04
305.102	-0.02
305.314	-0.02
305.526	0.03
305.739	0.04
305.951	-0.02
306.163	-0.01
306.375	0.06
306.588	-0.07
306.8	-0.06
307.012	-0.05
307.224	0.02
307.436	0.04
307.649	-0.06
307.861	0.02
308.073	0.01
308.285	-0.01
308.497	-0.03
308.709	-0.04
308.921	-0
309.133	0.03
309.346	0.01
309.558	-0.01
309.77	0.06
309.982	0.05
310.194	0.04
310.406	-0.03
310.617	0.1
310.829	0
311.041	-0.01
311.253	-0.04
311.465	-0.05
311.677	0
311.889	0.01
312.101	-0
312.313	0.05
312.524	0.05
312.736	-0.07
312.948	0.01
313.16	0.06
313.372	-0
313.583	0.03
313.795	0
314.007	-0.03
314.218	0.02
314.43	-0.01
314.642	-0.02
314.853	-0.06
315.065	0.06
315.277	-0.02
315.488	-0
315.7	0.01
315.912	0.01
316.123	0.01
316.335	-0.01
316.546	0.11
316.758	-0
316.969	-0.02
317.181	0.01
317.392	-0.02
317.604	0.03
317.815	-0.06
318.026	-0.05
318.238	-0.03
318.449	0.01
318.661	-0.07
318.872	-0.05
319.083	-0.04
319.295	0.01
319.506	-0.02
319.717	0.01
319.929	-0
320.14	-0
320.351	0.03
320.562	-0.02
320.774	0.02
320.985	-0.03
321.196	-0.08
321.407	-0.05
321.618	-0.01
321.829	0.03
322.041	0.01
322.252	-0
322.463	0.02
322.674	0.02
322.885	-0.08
323.096	-0.03
323.307	-0
323.518	-0.03
323.729	-0.04
323.94	-0.06
324.151	-0.01
324.362	0.01
324.573	0.01
324.784	-0.05
324.995	0.04
325.206	0.01
325.417	-0.04
325.628	-0.01
325.838	-0.01
326.049	0.03
326.26	0.02
326.471	-0.06
326.682	0.02
326.892	0.02
327.103	-0.08
327.314	-0.06
327.525	0.05
327.735	-0
327.946	0.01
328.157	-0.05
328.368	0
328.578	-0.02
328.789	0.01
328.999	-0.01
329.21	-0.03
329.421	0.05
329.631	-0.05
329.842	-0.07
330.052	0.03
330.263	0.03
330.473	0.03
330.684	-0.01
330.894	-0.02
331.105	-0.03
331.315	-0.02
331.526	-0.11
331.736	0.06
331.947	0.01
332.157	0.04
332.367	-0.05
332.578	-0.01
332.788	0.1
332.999	-0.01
333.209	-0.03
333.419	-0.08
333.629	0.02
333.84	0.02
334.05	0.01
334.26	0.07
334.47	-0
334.681	0.06
334.891	-0.01
335.101	0.02
335.311	0.06
335.521	0.03
335.732	-0.09
335.942	0.07
336.152	0.02
336.362	-0
336.572	0
336.782	0.06
336.992	-0.01
337.202	-0.01
337.412	-0.05
337.622	0.03
337.832	0.01
338.042	-0.04
338.252	-0.03
338.462	0.01
338.672	-0.01
338.882	-0.03
339.092	0.01
339.302	0.06
339.511	0.05
339.721	-0.05
339.931	-0.05
340.141	-0.02
340.351	0.04
340.561	0.02
340.77	-0.02
340.98	-0.01
341.19	0.03
341.4	-0.04
341.609	-0.06
341.819	-0.06
342.029	-0.03
342.238	-0.01
342.448	-0.03
342.658	0.02
342.867	0.01
343.077	0.02
343.286	-0.03
343.496	-0.02
343.706	0.06
343.915	-0.05
344.125	-0.03
344.334	0.03
344.544	-0.06
344.753	-0.01
344.963	-0.02
345.172	-0.06
345.381	0.01
345.591	-0.05
345.8	-0.03
346.01	0.09
346.219	0.05
346.428	-0.13
346.638	0.01
346.847	-0.03
347.056	0.04
347.266	-0.05
347.475	-0.01
347.684	0.04
347.893	0.02
348.103	0.04
348.312	-0.01
348.521	-0.01
348.73	-0.02
348.94	-0.01
349.149	-0.04
349.358	-0
349.567	0.01
349.776	-0.03
349.985	-0.02
350.194	0.03
350.403	0.06
350.612	-0.06
350.821	-0.02
351.03	0.01
351.239	-0.05
351.448	-0.01
351.657	-0.07
351.866	0.05
352.075	-0
352.284	-0.05
352.493	-0.04
352.702	0.07
352.911	0.01
353.12	-0
353.329	-0.03
353.538	0
353.746	-0.03
353.955	-0.06
354.164	0.03
354.373	-0.03
354.582	0.03
354.79	0.03
354.999	0.02
355.208	0.02
355.416	0.02
355.625	-0.04
355.834	-0.03
356.042	-0
356.251	-0.01
356.46	-0.04
356.668	0.03
356.877	0.04
357.085	-0.01
357.294	-0.08
357.503	0.02
357.711	-0.05
357.92	0.11
358.128	-0.02
358.337	-0.03
358.545	0.02
358.754	-0.05
358.962	0.05
359.17	0
359.379	0.05
359.587	0.05
359.796	-0.01
360.004	0.05
360.212	0.04
360.421	0.05
360.629	0.01
360.837	-0.05
361.046	0.03
361.254	0.12
361.462	-0.02
361.67	-0.03
361.879	0.05
362.087	0.06
362.295	-0.02
362.503	-0.02
362.711	-0.04
362.92	-0.05
363.128	-0.03
363.336	-0.06
363.544	-0.02
363.752	-0.02
363.96	-0.02
364.168	-0.02
364.376	-0.01
364.584	0.02
364.792	0.04
365	0.02
365.208	-0.01
365.416	0
365.624	0.07
365.832	-0.06
366.04	0.04
366.248	-0.01
366.456	0.01
366.664	0.01
366.872	-0
367.079	-0.01
367.287	0.04
367.495	-0.02
367.703	0.02
367.911	0
368.118	-0.03
368.326	-0.01
368.534	-0.06
368.742	0.05
368.949	-0.08
369.157	-0.04
369.365	0.01
369.572	0.02
369.78	0.01
369.988	0.02
370.195	0.01
370.403	0.04
370.61	-0.02
370.818	0.02
371.026	0.05
371.233	-0.04
371.441	0.01
371.648	-0.03
371.856	0
372.063	0.02
372.271	-0.01
372.478	-0
372.685	-0.06
372.893	0.03
373.1	0.01
373.308	-0.04
373.515	0.05
373.722	0.04
373.93	-0.04
374.137	0.01
374.344	0.06
374.552	0.06
374.759	0.01
374.966	-0.01
375.173	-0.02
375.381	0.01
375.588	-0.01
375.795	-0.08
376.002	-0.03
376.209	-0.08
376.417	-0.03
376.624	0.03
376.831	0.05
377.038	-0.03
377.245	-0.03
377.452	0.02
377.659	-0.02
377.866	-0.03
378.073	-0.04
378.28	0
378.487	0.03
378.694	0.03
378.901	0.01
379.108	-0.03
379.315	0.03
379.522	0.09
379.729	-0
379.936	-0.03
380.143	-0.01
380.35	-0.05
380.557	0.01
380.763	-0
380.97	-0.05
381.177	-0.01
381.384	-0.02
381.591	-0.07
381.797	-0.01
382.004	-0.01
382.211	-0.01
382.418	-0.06
382.624	0.03
382.831	0.03
383.038	0.01
383.244	-0.02
383.451	-0.01
383.658	0.06
383.864	0
384.071	-0.06
384.277	0.04
384.484	-0
384.69	0.04
384.897	-0.03
385.103	-0.02
385.31	-0.05
385.516	-0.01
385.723	-0.01
385.929	-0.01
386.136	-0.08
386.342	0.04
386.549	-0.02
386.755	0.05
386.961	-0.02
387.168	-0.02
387.374	0.03
387.58	0.02
387.787	-0
387.993	0
388.199	-0.03
388.406	-0.02
388.612	-0.01
388.818	-0.04
389.024	-0.04
389.231	0
389.437	0.07
389.643	0.02
389.849	-0.01
390.055	0.01
390.261	-0.02
390.467	0.03
390.674	-0.05
390.88	-0.01
391.086	0.02
391.292	-0.04
391.498	0.04
391.704	0.04
391.91	-0.01
392.116	-0.04
392.322	-0.11
392.528	0.02
392.734	-0.03
392.94	-0.01
393.146	-0.02
393.352	0.02
393.557	-0.03
393.763	0.02
393.969	0.03
394.175	-0.01
394.381	0.01
394.587	-0.04
394.792	-0.01
394.998	0
395.204	0.04
395.41	-0.02
395.615	0.04
395.821	0.01
396.027	0.04
396.233	0.01
396.438	0.03
396.644	0.01
396.85	0.02
397.055	0.01
397.261	0.01
397.466	0.06
397.672	0.01
397.878	0.02
398.083	0.04
398.289	-0.03
398.494	0.09
398.7	0.01
398.905	-0.1
399.111	0.08
399.316	-0.06
399.522	0.02
399.727	0
399.932	-0.02
400.138	-0.03
400.343	0.03
400.549	0.03
400.754	0
400.959	-0.03
401.165	-0.01
401.37	0.01
401.575	0.09
401.78	0.02
401.986	0.01
402.191	0.02
402.396	-0.03
402.601	0
402.807	0.01
403.012	0.01
403.217	0.06
403.422	-0.01
403.627	0
403.832	-0.03
404.037	0.02
404.243	0.05
404.448	-0.02
404.653	-0.02
404.858	0.01
405.063	0.03
405.268	-0.01
405.473	-0.05
405.678	-0.05
405.883	0.09
406.088	0.09
406.293	-0.03
406.498	0
406.703	0.03
406.907	-0.01
407.112	-0.06
407.317	0.07
407.522	0.05
407.727	-0.02
407.932	-0
408.136	0.06
408.341	-0
408.546	0.02
408.751	0.05
408.956	-0.04
409.16	0.07
409.365	0.01
409.57	0.02
409.774	0.01
409.979	0.09
410.184	0.01
410.388	-0
410.593	0.06
410.798	0.01
411.002	0.01
411.207	0.05
411.411	0.03
411.616	-0
411.82	0.04
412.025	0.04
412.229	-0.01
412.434	0.07
412.638	0.06
412.843	0.01
413.047	0.06
413.252	0.01
413.456	-0.01
413.66	0.05
413.865	-0
414.069	0.07
414.273	0.01
414.478	0.03
414.682	0.03
414.886	0.01
415.091	-0
415.295	-0.04
415.499	0.05
415.703	0.07
415.908	0.06
416.112	-0.04
416.316	0.06
416.52	0.07
416.724	-0
416.929	0.04
417.133	0.11
417.337	0.06
417.541	0.04
417.745	0.03
417.949	0.13
418.153	0.08
418.357	-0
418.561	0.15
418.765	0.09
418.969	0.18
419.173	0.1
419.377	0.07
419.581	0.18
419.785	0.08
419.989	0.04
420.193	0.07
420.397	0.09
420.601	0.18
420.804	0.2
421.008	0.08
421.212	0.15
421.416	0.2
421.62	0.1
421.823	0.15
422.027	0.24
422.231	0.15
422.435	0.1
422.638	0.19
422.842	0.18
423.046	0.12
423.249	0.19
423.453	0.23
423.657	0.22
423.86	0.17
424.064	0.19
424.268	0.27
424.471	0.23
424.675	0.33
424.878	0.23
425.082	0.22
425.285	0.28
425.489	0.19
425.692	0.2
425.896	0.14
426.099	0.26
426.303	0.21
426.506	0.2
426.71	0.25
426.913	0.33
427.116	0.32
427.32	0.27
427.523	0.28
427.726	0.37
427.93	0.26
428.133	0.3
428.336	0.26
428.54	0.26
428.743	0.35
428.946	0.36
429.149	0.29
429.353	0.42
429.556	0.37
429.759	0.39
429.962	0.28
430.165	0.34
430.368	0.34
430.571	0.3
430.775	0.38
430.978	0.36
431.181	0.4
431.384	0.39
431.587	0.34
431.79	0.38
431.993	0.3
432.196	0.4
432.399	0.36
432.602	0.5
432.805	0.37
433.008	0.38
433.211	0.36
433.414	0.45
433.616	0.48
433.819	0.43
434.022	0.36
434.225	0.53
434.428	0.46
434.631	0.58
434.833	0.48
435.036	0.49
435.239	0.54
435.442	0.5
435.645	0.47
435.847	0.55
436.05	0.58
436.253	0.49
436.455	0.52
436.658	0.56
436.861	0.66
437.063	0.55
437.266	0.57
437.468	0.6
437.671	0.69
437.874	0.56
438.076	0.59
438.279	0.54
438.481	0.61
438.684	0.64
438.886	0.7
439.089	0.64
439.291	0.68
439.494	0.75
439.696	0.64
439.899	0.7
440.101	0.75
440.303	0.69
440.506	0.81
440.708	0.73
440.91	0.83
441.113	0.79
441.315	0.83
441.517	0.76
441.72	0.89
441.922	0.77
442.124	0.8
442.326	0.84
442.529	0.95
442.731	0.85
442.933	1.01
443.135	0.93
443.337	0.83
443.539	0.97
443.742	0.9
443.944	0.95
444.146	0.93
444.348	0.98
444.55	0.88
444.752	1.03
444.954	0.92
445.156	0.99
445.358	0.98
445.56	1.05
445.762	1.03
445.964	1.01
446.166	1
446.368	0.96
446.57	1.07
446.772	1.01
446.974	0.98
447.175	0.98
447.377	0.96
447.579	0.99
447.781	0.93
447.983	1.04
448.184	0.97
448.386	1.01
448.588	0.86
448.79	1.02
448.991	0.99
449.193	0.94
449.395	1
449.597	0.96
449.798	0.95
450	0.92
450.202	0.91
450.403	0.95
450.605	0.91
450.806	0.89
451.008	0.82
451.21	0.84
451.411	0.83
451.613	0.8
451.814	0.75
452.016	0.84
452.217	0.77
452.419	0.78
452.62	0.76
452.821	0.7
453.023	0.76
453.224	0.74
453.426	0.68
453.627	0.61
453.828	0.68
454.03	0.6
454.231	0.62
454.432	0.56
454.634	0.68
454.835	0.54
455.036	0.49
455.238	0.58
455.439	0.65
455.64	0.47
455.841	0.42
456.042	0.57
456.244	0.48
456.445	0.44
456.646	0.32
456.847	0.42
457.048	0.47
457.249	0.44
457.45	0.72
457.651	0.34
457.852	0.37
458.054	0.34
458.255	0.35
458.456	0.37
458.657	0.37
458.858	0.3
459.058	0.4
459.259	0.38
459.46	0.33
459.661	0.29
459.862	0.43
460.063	0.28
460.264	0.32
460.465	0.28
460.666	0.43
460.866	0.28
461.067	0.27
461.268	0.3
461.469	0.27
461.67	0.27
461.87	0.25
462.071	0.21
462.272	0.22
462.473	0.24
462.673	0.28
462.874	0.25
463.075	0.25
463.275	0.2
463.476	0.22
463.676	0.22
463.877	0.25
464.078	0.27
464.278	0.3
464.479	0.22
464.679	0.19
464.88	0.19
465.08	0.3
465.281	0.18
465.481	0.19
465.682	0.17
465.882	0.19
466.083	0.21
466.283	0.14
466.483	0.19
466.684	0.14
466.884	0.12
467.085	0.18
467.285	0.18
467.485	0.1
467.686	0.17
467.886	0.11
468.086	0.16
468.286	0.14
468.487	0.19
468.687	0.16
468.887	0.12
469.087	0.22
469.287	0.15
469.488	0.07
469.688	0.15
469.888	0.18
470.088	0.18
470.288	0.2
470.488	0.18
470.688	0.11
470.888	0.14
471.088	0.1
471.288	0.16
471.488	0.15
471.688	0.16
471.888	0.08
472.088	0.17
472.288	0.16
472.488	0.1
472.688	0.09
472.888	0.14
473.088	0.09
473.288	0.14
473.488	0.1
473.688	0.13
473.887	0.08
474.087	0.08
474.287	0.13
474.487	0.08
474.687	0.13
474.886	0.1
475.086	0.1
475.286	0.1
475.486	0.08
475.685	0.09
475.885	0.1
476.085	0.1
476.284	0.09
476.484	0.05
476.684	0.14
476.883	0.16
477.083	0.14
477.282	0.09
477.482	0.13
477.681	0.11
477.881	0.09
478.08	0.07
478.28	0.06
478.479	0.11
478.679	0.18
478.878	0.05
479.078	0.07
479.277	0.09
479.477	0.1
479.676	0.14
479.875	0.1
480.075	0.03
480.274	0.09
480.473	0.14
480.673	0.04
480.872	0.16
481.071	0.09
481.271	0.08
481.47	0.08
481.669	0.08
481.868	0.05
482.067	0.05
482.267	0.07
482.466	0.05
482.665	0.03
482.864	0.04
483.063	0.03
483.262	0.11
483.461	0.14
483.661	0.14
483.86	0.07
484.059	0.1
484.258	0.09
484.457	0.1
484.656	0.09
484.855	0.11
485.054	0.04
485.253	0.08
485.452	0.04
485.651	0.09
485.849	0.1
486.048	0.06
486.247	0.04
486.446	0.11
486.645	0.05
486.844	0.08
487.043	0.11
487.241	0.12
487.44	0.07
487.639	0.1
487.838	0.12
488.037	0.1
488.235	0.14
488.434	0.11
488.633	0.07
488.831	0.13
489.03	0.11
489.229	0.09
489.427	0.08
489.626	0.12
489.825	0.16
490.023	0.12
490.222	0.09
490.42	0.12
490.619	0.12
490.817	0.12
491.016	0.11
491.214	0.13
491.413	0.12
491.611	0.1
491.81	0.14
492.008	0.12
492.207	0.13
492.405	0.12
492.604	0.07
492.802	0.09
493	0.14
493.199	0.13
493.397	0.13
493.595	0.12
493.794	0.11
493.992	0.17
494.19	0.14
494.388	0.15
494.587	0.11
494.785	0.14
494.983	0.1
495.181	0.13
495.379	0.15
495.578	0.13
495.776	0.15
495.974	0.2
496.172	0.13
496.37	0.13
496.568	0.13
496.766	0.13
496.964	0.17
497.162	0.17
497.36	0.14
497.558	0.19
497.756	0.19
497.954	0.18
498.152	0.13
498.35	0.16
498.548	0.18
498.746	0.18
498.944	0.14
499.142	0.17
499.34	0.15
499.538	0.19
499.736	0.16
499.933	0.21
500.131	0.23
500.329	0.2
500.527	0.21
500.725	0.23
500.922	0.23
501.12	0.19
501.318	0.21
501.516	0.17
501.713	0.2
501.911	0.19
502.109	0.17
502.306	0.2
502.504	0.22
502.701	0.19
502.899	0.21
503.097	0.26
503.294	0.23
503.492	0.22
503.689	0.25
503.887	0.25
504.084	0.28
504.282	0.23
504.479	0.21
504.677	0.24
504.874	0.2
505.072	0.28
505.269	0.24
505.466	0.27
505.664	0.28
505.861	0.21
506.059	0.21
506.256	0.27
506.453	0.24
506.651	0.32
506.848	0.31
507.045	0.27
507.242	0.27
507.44	0.27
507.637	0.26
507.834	0.27
508.031	0.29
508.229	0.26
508.426	0.27
508.623	0.3
508.82	0.26
509.017	0.26
509.214	0.26
509.411	0.32
509.608	0.27
509.805	0.31
510.003	0.29
510.2	0.29
510.397	0.36
510.594	0.29
510.791	0.29
510.988	0.28
511.184	0.3
511.381	0.32
511.578	0.3
511.775	0.32
511.972	0.29
512.169	0.31
512.366	0.3
512.563	0.36
512.76	0.29
512.956	0.36
513.153	0.31
513.35	0.35
513.547	0.32
513.744	0.3
513.94	0.31
514.137	0.35
514.334	0.32
514.53	0.34
514.727	0.36
514.924	0.41
515.12	0.32
515.317	0.33
515.514	0.33
515.71	0.31
515.907	0.35
516.103	0.38
516.3	0.38
516.497	0.39
516.693	0.42
516.89	0.37
517.086	0.34
517.283	0.4
517.479	0.36
517.676	0.36
517.872	0.38
518.068	0.34
518.265	0.35
518.461	0.35
518.658	0.34
518.854	0.41
519.05	0.37
519.247	0.39
519.443	0.39
519.639	0.39
519.836	0.38
520.032	0.39
520.228	0.36
520.424	0.44
520.621	0.42
520.817	0.38
521.013	0.39
521.209	0.43
521.405	0.43
521.601	0.41
521.798	0.4
521.994	0.43
522.19	0.37
522.386	0.39
522.582	0.39
522.778	0.42
522.974	0.36
523.17	0.41
523.366	0.39
523.562	0.42
523.758	0.4
523.954	0.38
524.15	0.37
524.346	0.42
524.542	0.39
524.738	0.39
524.934	0.41
525.129	0.4
525.325	0.4
525.521	0.41
525.717	0.43
525.913	0.4
526.109	0.42
526.304	0.43
526.5	0.42
526.696	0.45
526.892	0.38
527.087	0.43
527.283	0.39
527.479	0.43
527.674	0.38
527.87	0.41
528.066	0.39
528.261	0.43
528.457	0.45
528.653	0.42
528.848	0.44
529.044	0.45
529.239	0.4
529.435	0.44
529.63	0.42
529.826	0.48
530.021	0.42
530.217	0.46
530.412	0.41
530.608	0.4
530.803	0.43
530.999	0.42
531.194	0.37
531.389	0.44
531.585	0.38
531.78	0.43
531.975	0.46
532.171	0.44
532.366	0.42
532.561	0.45
532.757	0.4
532.952	0.45
533.147	0.45
533.342	0.46
533.538	0.41
533.733	0.48
533.928	0.44
534.123	0.44
534.318	0.43
534.513	0.43
534.709	0.44
534.904	0.44
535.099	0.46
535.294	0.44
535.489	0.45
535.684	0.45
535.879	0.42
536.074	0.43
536.269	0.44
536.464	0.45
536.659	0.44
536.854	0.43
537.049	0.46
537.244	0.45
537.439	0.42
537.634	0.46
537.828	0.44
538.023	0.45
538.218	0.41
538.413	0.43
538.608	0.4
538.803	0.49
538.997	0.39
539.192	0.48
539.387	0.45
539.582	0.46
539.776	0.45
539.971	0.45
540.166	0.43
540.36	0.44
540.555	0.46
540.75	0.45
540.944	0.44
541.139	0.41
541.334	0.46
541.528	0.45
541.723	0.48
541.917	0.42
542.112	0.4
542.306	0.41
542.501	0.42
542.695	0.44
542.89	0.41
543.084	0.45
543.279	0.43
543.473	0.47
543.668	0.45
543.862	0.44
544.056	0.45
544.251	0.46
544.445	0.47
544.64	0.45
544.834	0.4
545.028	0.42
545.222	0.44
545.417	0.46
545.611	0.45
545.805	0.44
546	0.4
546.194	0.46
546.388	0.42
546.582	0.46
546.776	0.44
546.97	0.44
547.165	0.47
547.359	0.46
547.553	0.41
547.747	0.46
547.941	0.47
548.135	0.45
548.329	0.46
548.523	0.45
548.717	0.43
548.911	0.42
549.105	0.45
549.299	0.46
549.493	0.46
549.687	0.46
549.881	0.45
550.075	0.45
550.269	0.42
550.463	0.47
550.657	0.43
550.85	0.44
551.044	0.43
551.238	0.49
551.432	0.41
551.626	0.45
551.82	0.43
552.013	0.43
552.207	0.47
552.401	0.48
552.594	0.44
552.788	0.44
552.982	0.45
553.176	0.42
553.369	0.47
553.563	0.48
553.756	0.39
553.95	0.44
554.144	0.45
554.337	0.48
554.531	0.47
554.724	0.46
554.918	0.45
555.111	0.45
555.305	0.46
555.498	0.5
555.692	0.48
555.885	0.44
556.079	0.45
556.272	0.44
556.466	0.45
556.659	0.45
556.852	0.45
557.046	0.44
557.239	0.45
557.432	0.42
557.626	0.44
557.819	0.46
558.012	0.47
558.206	0.47
558.399	0.46
558.592	0.47
558.785	0.42
558.979	0.48
559.172	0.44
559.365	0.45
559.558	0.45
559.751	0.47
559.944	0.47
560.138	0.43
560.331	0.42
560.524	0.43
560.717	0.47
560.91	0.44
561.103	0.46
561.296	0.44
561.489	0.46
561.682	0.48
561.875	0.48
562.068	0.48
562.261	0.46
562.454	0.48
562.647	0.46
562.84	0.48
563.032	0.45
563.225	0.47
563.418	0.43
563.611	0.45
563.804	0.46
563.997	0.42
564.19	0.38
564.382	0.41
564.575	0.47
564.768	0.44
564.961	0.44
565.153	0.41
565.346	0.47
565.539	0.46
565.731	0.47
565.924	0.48
566.117	0.5
566.309	0.45
566.502	0.45
566.695	0.44
566.887	0.46
567.08	0.41
567.272	0.43
567.465	0.43
567.657	0.45
567.85	0.44
568.042	0.44
568.235	0.47
568.427	0.44
568.62	0.44
568.812	0.45
569.005	0.46
569.197	0.42
569.389	0.46
569.582	0.46
569.774	0.44
569.966	0.4
570.159	0.41
570.351	0.45
570.543	0.42
570.736	0.45
570.928	0.41
571.12	0.46
571.312	0.44
571.505	0.39
571.697	0.47
571.889	0.41
572.081	0.42
572.273	0.41
572.465	0.49
572.658	0.45
572.85	0.48
573.042	0.42
573.234	0.44
573.426	0.47
573.618	0.39
573.81	0.45
574.002	0.47
574.194	0.5
574.386	0.42
574.578	0.35
574.77	0.42
574.962	0.43
575.154	0.4
575.346	0.4
575.538	0.45
575.729	0.42
575.921	0.45
576.113	0.41
576.305	0.45
576.497	0.43
576.689	0.42
576.88	0.41
577.072	0.45
577.264	0.44
577.456	0.43
577.647	0.36
577.839	0.45
578.031	0.46
578.223	0.44
578.414	0.38
578.606	0.46
578.798	0.45
578.989	0.43
579.181	0.44
579.372	0.46
579.564	0.4
579.755	0.42
579.947	0.43
580.139	0.41
580.33	0.38
580.522	0.4
580.713	0.34
580.905	0.43
581.096	0.44
581.287	0.44
581.479	0.4
581.67	0.43
581.862	0.41
582.053	0.43
582.244	0.36
582.436	0.44
582.627	0.41
582.818	0.38
583.01	0.4
583.201	0.45
583.392	0.43
583.583	0.44
583.775	0.37
583.966	0.42
584.157	0.44
584.348	0.41
584.54	0.38
584.731	0.41
584.922	0.4
585.113	0.39
585.304	0.42
585.495	0.46
585.686	0.47
585.877	0.47
586.068	0.41
586.259	0.45
586.45	0.42
586.641	0.41
586.832	0.36
587.023	0.45
587.214	0.4
587.405	0.43
587.596	0.39
587.787	0.46
587.978	0.42
588.169	0.42
588.36	0.4
588.551	0.43
588.742	0.4
588.932	0.41
589.123	0.4
589.314	0.42
589.505	0.42
589.696	0.41
589.886	0.37
590.077	0.39
590.268	0.41
590.458	0.34
590.649	0.34
590.84	0.43
591.03	0.4
591.221	0.34
591.412	0.36
591.602	0.43
591.793	0.4
591.984	0.4
592.174	0.41
592.365	0.5
592.555	0.35
592.746	0.38
592.936	0.41
593.127	0.43
593.317	0.45
593.508	0.39
593.698	0.38
593.889	0.4
594.079	0.36
594.269	0.37
594.46	0.37
594.65	0.4
594.84	0.38
595.031	0.33
595.221	0.34
595.411	0.36
595.602	0.37
595.792	0.39
595.982	0.36
596.172	0.43
596.363	0.4
596.553	0.38
596.743	0.39
596.933	0.36
597.123	0.39
597.314	0.36
597.504	0.35
597.694	0.38
597.884	0.36
598.074	0.36
598.264	0.35
598.454	0.38
598.644	0.36
598.834	0.38
599.024	0.31
599.214	0.33
599.404	0.4
599.594	0.35
599.784	0.33
599.974	0.4
600.164	0.35
600.354	0.32
600.544	0.3
600.734	0.38
600.924	0.34
601.114	0.36
601.303	0.35
601.493	0.36
601.683	0.36
601.873	0.39
602.063	0.31
602.252	0.36
602.442	0.27
602.632	0.32
602.821	0.31
603.011	0.38
603.201	0.32
603.39	0.3
603.58	0.32
603.77	0.38
603.959	0.37
604.149	0.35
604.339	0.3
604.528	0.41
604.718	0.36
604.907	0.32
605.097	0.34
605.286	0.32
605.476	0.34
605.665	0.38
605.855	0.32
606.044	0.38
606.234	0.33
606.423	0.33
606.612	0.31
606.802	0.33
606.991	0.36
607.181	0.35
607.37	0.3
607.559	0.32
607.749	0.27
607.938	0.32
608.127	0.31
608.316	0.33
608.506	0.34
608.695	0.32
608.884	0.29
609.073	0.33
609.263	0.31
609.452	0.34
609.641	0.3
609.83	0.3
610.019	0.33
610.208	0.3
610.397	0.3
610.586	0.36
610.775	0.29
610.965	0.29
611.154	0.31
611.343	0.33
611.532	0.32
611.721	0.25
611.91	0.28
612.099	0.31
612.287	0.28
612.476	0.25
612.665	0.32
612.854	0.28
613.043	0.35
613.232	0.31
613.421	0.26
613.61	0.31
613.798	0.29
613.987	0.29
614.176	0.26
614.365	0.34
614.554	0.31
614.742	0.33
614.931	0.24
615.12	0.32
615.309	0.29
615.497	0.27
615.686	0.29
615.875	0.29
616.063	0.3
616.252	0.28
616.44	0.27
616.629	0.26
616.818	0.28
617.006	0.24
617.195	0.26
617.383	0.28
617.572	0.27
617.76	0.22
617.949	0.26
618.137	0.27
618.326	0.29
618.514	0.25
618.703	0.22
618.891	0.33
619.079	0.19
619.268	0.31
619.456	0.23
619.644	0.31
619.833	0.25
620.021	0.24
620.209	0.2
620.398	0.28
620.586	0.24
620.774	0.26
620.962	0.24
621.151	0.29
621.339	0.26
621.527	0.19
621.715	0.21
621.903	0.2
622.092	0.22
622.28	0.28
622.468	0.24
622.656	0.25
622.844	0.23
623.032	0.25
623.22	0.21
623.408	0.28
623.596	0.25
623.784	0.26
623.972	0.21
624.16	0.24
624.348	0.28
624.536	0.25
624.724	0.24
624.912	0.27
625.1	0.3
625.288	0.21
625.476	0.21
625.664	0.25
625.851	0.21
626.039	0.25
626.227	0.25
626.415	0.2
626.603	0.13
626.79	0.26
626.978	0.22
627.166	0.23
627.354	0.21
627.541	0.2
627.729	0.15
627.917	0.25
628.104	0.26
628.292	0.2
628.48	0.21
628.667	0.19
628.855	0.22
629.042	0.22
629.23	0.21
629.418	0.23
629.605	0.22
629.793	0.21
629.98	0.2
630.168	0.22
630.355	0.21
630.543	0.2
630.73	0.19
630.917	0.22
631.105	0.25
631.292	0.19
631.48	0.21
631.667	0.25
631.854	0.22
632.042	0.19
632.229	0.13
632.416	0.23
632.604	0.19
632.791	0.16
632.978	0.22
633.165	0.2
633.353	0.24
633.54	0.23
633.727	0.12
633.914	0.15
634.101	0.19
634.289	0.24
634.476	0.19
634.663	0.13
634.85	0.2
635.037	0.17
635.224	0.13
635.411	0.23
635.598	0.21
635.785	0.16
635.972	0.16
636.159	0.2
636.346	0.15
636.533	0.16
636.72	0.2
636.907	0.18
637.094	0.22
637.281	0.14
637.468	0.17
637.655	0.18
637.842	0.17
638.029	0.18
638.215	0.2
638.402	0.17
638.589	0.16
638.776	0.15
638.963	0.17
639.149	0.17
639.336	0.21
639.523	0.16
639.709	0.14
639.896	0.17
640.083	0.23
640.27	0.19
640.456	0.16
640.643	0.2
640.829	0.09
641.016	0.17
641.203	0.15
641.389	0.17
641.576	0.13
641.762	0.16
641.949	0.13
642.135	0.17
642.322	0.16
642.508	0.1
642.695	0.15
642.881	0.16
643.068	0.15
643.254	0.13
643.441	0.19
643.627	0.12
643.813	0.1
644	0.2
644.186	0.14
644.372	0.09
644.559	0.17
644.745	0.16
644.931	0.08
645.118	0.13
645.304	0.16
645.49	0.11
645.676	0.13
645.862	0.14
646.049	0.16
646.235	0.12
646.421	0.23
646.607	0.2
646.793	0.12
646.979	0.12
647.165	0.16
647.352	0.17
647.538	0.14
647.724	0.13
647.91	0.14
648.096	0.18
648.282	0.18
648.468	0.12
648.654	0.17
648.84	0.17
649.026	0.17
649.212	0.12
649.397	0.12
649.583	0.09
649.769	0.15
649.955	0.12
650.141	0.17
650.327	0.17
650.513	0.09
650.698	0.14
650.884	0.05
651.07	0.15
651.256	0.15
651.442	0.13
651.627	0.11
651.813	0.14
651.999	0.12
652.184	0.16
652.37	0.1
652.556	0.1
652.741	0.18
652.927	0.03
653.113	0.1
653.298	0.1
653.484	0.13
653.669	0.1
653.855	0.09
654.04	0.13
654.226	0.13
654.412	0.09
654.597	0.09
654.782	0.13
654.968	0.12
655.153	0.13
655.339	0.1
655.524	0.08
655.71	0.11
655.895	0.09
656.08	0.12
656.266	0.16
656.451	0.15
656.636	0.06
656.822	0.13
657.007	0.06
657.192	0.1
657.378	0.05
657.563	0.09
657.748	0.09
657.933	0.14
658.118	0.07
658.304	0.11
658.489	0.12
658.674	0.12
658.859	0.06
659.044	0.09
659.229	0.12
659.414	0.09
659.599	0.09
659.785	0.04
659.97	0.05
660.155	0.11
660.34	0.11
660.525	0.08
660.71	0.06
660.895	0.11
661.08	0.06
661.264	0.09
661.449	0.13
661.634	0.14
661.819	0.11
662.004	0.12
662.189	0.03
662.374	0.04
662.559	0.05
662.743	0.02
662.928	0.1
663.113	0.09
663.298	0.04
663.483	0.03
663.667	0.1
663.852	0.02
664.037	0.1
664.221	0.06
664.406	0.11
664.591	0.11
664.775	0.11
664.96	0.11
665.145	0.1
665.329	0.09
665.514	0.05
665.698	0.06
665.883	0.03
666.068	0.11
666.252	0.08
666.437	0.01
666.621	0.08
666.806	0.14
666.99	0.08
667.174	-0
667.359	0.09
667.543	0.09
667.728	0.06
667.912	0.01
668.096	0.08
668.281	0.07
668.465	0.07
668.649	0.05
668.834	0.02
669.018	0.07
669.202	0.06
669.387	0.06
669.571	0.1
669.755	0.04
669.939	0.09
670.124	0.09
670.308	0.13
670.492	0.1
670.676	0.04
670.86	0.06
671.044	0.02
671.228	0.09
671.413	0.03
671.597	0.04
671.781	0
671.965	0.07
672.149	0.07
672.333	0.05
672.517	0.06
672.701	0.05
672.885	0.05
673.069	0.04
673.253	0.12
673.437	0.05
673.621	-0
673.804	0.05
673.988	0.03
674.172	0.04
674.356	-0.01
674.54	0.05
674.724	0.11
674.908	0.08
675.091	0.14
675.275	0.06
675.459	0.08
675.643	0.06
675.826	0.05
676.01	0.03
676.194	0.03
676.377	0.11
676.561	0.07
676.745	0.05
676.928	0.11
677.112	0.11
677.296	0.01
677.479	0.03
677.663	0.07
677.846	0.08
678.03	0.01
678.213	0.03
678.397	0.06
678.58	0
678.764	0.01
678.947	0.02
679.131	0.01
679.314	0.07
679.498	0.05
679.681	0.03
679.865	0.05
680.048	0.03
680.231	0.03
680.415	0.03
680.598	0.03
680.781	0.02
680.965	0.06
681.148	0.12
681.331	0.06
681.514	0.08
681.698	0.01
681.881	0.07
682.064	0.1
682.247	0.07
682.43	-0.01
682.614	0.05
682.797	0.09
682.98	0.09
683.163	-0.01
683.346	0.05
683.529	-0.01
683.712	0.04
683.895	0.06
684.078	-0.01
684.261	0.03
684.444	0.05
684.627	0.1
684.81	-0.02
684.993	0.01
685.176	0.06
685.359	-0.03
685.542	0.02
685.725	0.08
685.908	0.02
686.091	0.03
686.274	0.11
686.457	0.03
686.639	0.01
686.822	0.12
687.005	0.05
687.188	0.03
687.371	0.13
687.553	0.03
687.736	0.05
687.919	0.13
688.102	0.09
688.284	0.03
688.467	0.03
688.65	-0.01
688.832	-0.01
689.015	0.05
689.197	-0.04
689.38	0.15
689.563	0.1
689.745	-0.01
689.928	0.02
690.11	-0.01
690.293	0.04
690.475	-0.08
690.658	0.04
690.84	-0.03
691.023	0.07
691.205	-0.04
691.388	0.02
691.57	0.08
691.752	0.08
691.935	-0.02
692.117	0.02
692.3	0.05
692.482	0.03
692.664	0.04
692.847	0.05
693.029	0.1
693.211	0.02
693.393	0.04
693.576	0.02
693.758	0.08
693.94	0.01
694.122	-0.03
694.304	0
694.487	0.01
694.669	0.07
694.851	-0.05
695.033	0.04
695.215	0.01
695.397	-0.01
695.579	0.03
695.761	-0
695.943	-0.03
696.125	0.12
696.308	0.06
696.49	-0.09
696.671	0.16
696.853	-0.03
697.035	0.13
697.217	0.05
697.399	0.07
697.581	-0.03
697.763	-0
697.945	-0.01
698.127	0.05
698.309	0.09
698.491	0
698.672	0.06
698.854	0.02
699.036	0.05
699.218	-0.04
699.399	0.05
699.581	0.05
699.763	0.02
699.945	-0.01
700.126	-0.02
700.308	0.04
700.49	0
700.671	-0.05
700.853	0.04
701.035	0.01
701.216	-0.02
701.398	-0.07
701.579	0.02
701.761	0.06
701.943	-0.01
702.124	-0.12
702.306	0.07
702.487	0.11
702.669	0.01
702.85	-0.03
703.031	-0.05
703.213	0.12
703.394	0.07
703.576	-0.04
703.757	0
703.938	0.08
704.12	0.19
704.301	-0.02
704.483	-0.09
704.664	0
704.845	0.11
705.026	0.08
705.208	-0.02
705.389	0.02
705.57	0.08
705.751	-0.04
705.933	0.01
706.114	0.08
706.295	0.02
706.476	-0
706.657	0.1
706.838	0.03
707.02	0.03
707.201	-0.06
707.382	-0.03
707.563	0.02
707.744	0.01
707.925	-0.03
708.106	-0.02
708.287	0.02
708.468	0.05
708.649	-0.01
708.83	0
709.011	-0
709.192	0.09
709.373	-0.04
709.554	0.01
709.734	0.07
709.915	0.11
710.096	-0
710.277	-0.09
710.458	0.02
710.639	0.11
710.819	-0.1
711	0.01
711.181	0.06
711.362	0.02
711.542	0.02
711.723	-0.05
711.904	0.06
712.085	-0
712.265	0.05
712.446	-0.02
712.627	0
712.807	-0.03
712.988	0.03
713.168	-0.1
713.349	0.03
713.53	-0.11
713.71	-0.03
713.891	-0.1
714.071	-0.01
714.252	-0.01
714.432	-0.05
714.613	-0.12
714.793	-0.02
714.974	0.06
715.154	0.1
715.334	0.03
715.515	0.08
715.695	-0.06
715.876	-0.04
716.056	-0.01
716.236	0.04
716.417	-0.01
716.597	-0.09
716.777	0.14
716.957	0.03
717.138	0.04
717.318	-0.03
717.498	-0.1
717.678	0.06
717.859	0.04
718.039	-0.12
718.219	0.02
718.399	0.07
718.579	-0.01
718.759	-0.04
718.939	0.07
719.12	0.01
719.3	-0.02
719.48	-0.15
719.66	-0.08
719.84	0.09
720.02	-0
720.2	-0.02
720.38	-0.06
720.56	0.08
720.74	-0.02
720.92	0.01
721.1	0.08
721.279	0.09
721.459	-0
721.639	-0.15
721.819	0.02
721.999	0.04
722.179	0.05
722.359	-0.05
722.538	-0.01
722.718	0.03
722.898	-0.02
723.078	-0.04
723.257	-0.03
723.437	0.03
723.617	-0.03
723.797	-0.02
723.976	0
724.156	-0.02
724.336	0.09
724.515	0.17
724.695	-0.1
724.874	0.01
725.054	0.05
725.234	-0.08
725.413	0.07
725.593	-0.03
725.772	-0.03
725.952	0
726.131	-0.02
726.311	0.01
726.49	0.04
726.67	-0.06
726.849	-0.13
727.028	-0.03
727.208	-0.06
727.387	0.02
727.567	-0.1
727.746	-0.02
727.925	-0.05
728.105	-0.05
728.284	-0.05
728.463	-0.11
728.643	0.07
728.822	-0.02
729.001	-0.1
729.18	0.1
729.359	-0.01
729.539	-0.03
729.718	-0
729.897	0.03
730.076	-0.04
730.255	-0.12
730.434	0.01
730.614	-0.04
730.793	0.09
730.972	0.02
731.151	0.02
731.33	0.14
731.509	-0.03
731.688	0.05
731.867	0.05
732.046	-0.19
732.225	0.14
732.404	-0.09
732.583	-0.12
732.762	0.03
732.941	0.04
733.12	0.08
733.298	-0.08
733.477	0.1
733.656	-0.08
733.835	-0.13
734.014	0.11
734.193	-0.09
734.371	-0.03
734.55	0.1
734.729	-0.14
734.908	-0.01
735.086	0.02
735.265	0.02
735.444	-0.14
735.623	-0.14
735.801	-0.12
735.98	-0.04
736.159	-0.09
736.337	0.07
736.516	0.01
736.694	0.08
736.873	-0.1
737.052	0.14
737.23	0.18
737.409	-0.05
737.587	0.12
737.766	-0.15
737.944	-0.09
738.123	0.06
738.301	-0.04
738.479	-0.05
738.658	0.03
738.836	-0.21
739.015	-0.01
739.193	0.11
739.371	-0.2
739.55	-0.12
739.728	-0.17
739.906	-0.02
740.085	0.16
740.263	-0.04
740.441	-0.24
740.62	0.19
740.798	0.11
740.976	-0.14
741.154	-0.15
741.332	0.26
741.511	0
741.689	0.04
741.867	0.08
742.045	-0.02
742.223	-0.12
742.401	-0.1
742.579	-0.07
742.757	0.06
742.935	-0.04
743.114	-0.11
743.292	-0.1
743.47	-0
743.648	-0.07
743.826	-0.08
744.004	0.08
744.181	0.1
744.359	-0.03
744.537	0.05
744.715	-0.01
744.893	-0.03
745.071	-0.08
745.249	-0.07
745.427	-0.02
745.605	0.03
745.782	0.05
745.96	0.09
746.138	0
746.316	0.05
746.493	-0.05
746.671	-0.03
746.849	-0.09
747.027	0.13
747.204	-0.07
747.382	0.13
747.56	-0.19
747.737	-0.03
747.915	-0.11
748.093	-0.11
748.27	-0.05
748.448	-0.01
748.625	-0.07
748.803	-0.08
748.98	-0.13
749.158	0
749.335	0.11
749.513	0.01
749.69	0.01
749.868	-0.03
750.045	0.02
750.223	-0.03
750.4	-0.16
750.578	0.1
750.755	0.06
750.932	-0.13
751.11	0.04
751.287	-0.1
751.464	0.02
751.642	-0.02
751.819	0
751.996	-0.02
752.173	0.01
752.351	-0.16
752.528	0.02
752.705	-0.02
752.882	-0.1
753.06	-0.02
753.237	-0.06
753.414	0.14
753.591	0.15
753.768	0.03
753.945	-0.12
754.122	-0.05
754.299	0.04
754.476	-0.08
754.654	0.02
754.831	-0.03
755.008	-0
755.185	-0.16
755.362	-0.13
755.539	0.07
755.716	-0.17
755.892	0.1
756.069	-0.07
756.246	-0.03
756.423	-0.06
756.6	0.06
756.777	-0.02
756.954	0
757.131	-0.02
757.307	-0.13
757.484	-0.05
757.661	-0.05
757.838	0.07
758.015	-0.18
758.191	0.03
758.368	-0.06
758.545	0.08
758.721	0.14
758.898	-0.17
759.075	0.03
759.251	0.01
759.428	0.09
759.605	-0.07
759.781	-0
759.958	0.12
760.134	0.04
760.311	-0.03
760.488	0.02
760.664	0.15
760.841	-0.01
761.017	-0.13
761.194	0.13
761.37	-0.01
761.547	-0
761.723	-0
761.899	0.13
762.076	-0.06
762.252	-0.18
762.429	-0.06
762.605	0.12
762.781	-0.05
762.958	0.09
763.134	-0.08
763.31	-0.02
763.486	0.01
763.663	-0.2
763.839	0.04
764.015	-0.1
764.191	-0.09
764.368	-0.01
764.544	-0.11
764.72	0.03
764.896	-0.01
765.072	0.06
765.248	-0.08
765.425	-0.02
765.601	-0.1
765.777	-0.1
765.953	-0.12
766.129	-0.17
766.305	-0.1
766.481	0.1
766.657	-0.13
766.833	0.17
767.009	-0.12
767.185	-0.01
767.361	-0.03
767.537	-0.2
767.713	0.18
767.889	-0.05
768.065	-0.06
768.24	-0.1
768.416	0.04
768.592	-0.19
768.768	-0.09
768.944	-0.05
769.12	-0.23
769.295	-0.08
769.471	-0.14
769.647	-0.12
769.823	0.1
769.998	-0.18
770.174	-0.06
770.35	0.14
770.525	0.23
770.701	0
770.877	-0.02
771.052	-0.06
771.228	0.16
771.403	-0.03
771.579	0.16
771.755	0.14
771.93	-0.12
772.106	-0.07
772.281	-0.39
772.457	-0
772.632	0.05
772.808	-0.1
772.983	0.01
773.159	-0.24
773.334	0.1
773.509	-0.17
773.685	-0.13
773.86	0.22
774.036	0.22
774.211	0.08
774.386	-0.02
774.562	-0.08
774.737	-0.1
774.912	-0.04
775.087	-0.01
775.263	-0.11
775.438	0
775.613	-0.08
775.788	-0.17
775.964	0.05
776.139	0.22
776.314	-0.12
776.489	-0.09
776.664	-0.09
776.839	-0.23
777.014	0.21
777.19	-0.06
777.365	0.2
777.54	0.09
777.715	-0.16
777.89	0.01
778.065	-0.18
778.24	-0.09
778.415	0.08
778.59	-0.16
778.765	-0.11
778.94	-0.03
779.115	-0.06
779.289	-0.2
779.464	-0.04
779.639	-0.04
779.814	-0.09
779.989	-0.27
780.164	0.13
780.339	0.02
780.513	-0.07
780.688	-0.05
780.863	-0.2
781.038	0.17
781.212	-0.16
781.387	-0.05
781.562	0.21
781.737	-0.2
781.911	0.11
782.086	-0.07
782.261	-0.1
782.435	0.2
782.61	-0.16
782.784	-0.06
782.959	0.07
783.134	-0.2
783.308	-0.19
783.483	-0.06
783.657	0.28
783.832	0.18
784.006	-0.18
784.181	-0.11
784.355	0.06
784.53	-0.3
784.704	-0.05
784.878	0.19
785.053	0.17
785.227	0.09
785.402	0.23
785.576	-0.2
785.75	-0.18
785.925	-0.2
786.099	0.05
786.273	0.04
786.448	0.13
786.622	-0.01
786.796	-0.09
786.97	-0.05
787.145	0.31
787.319	-0.36
787.493	-0.19
787.667	-0.24
787.841	-0.14
788.015	0.06
788.19	-0.02
788.364	0.05
788.538	0.13
788.712	0.12
788.886	-0.06
789.06	0.11
789.234	0.15
789.408	-0.34
789.582	0.05
789.756	-0.17
789.93	-0.26
790.104	-0.08
790.278	-0.23
790.452	-0.33
790.626	-0.18
790.8	-0.02
790.973	0.02
791.147	0.21
791.321	0.43
791.495	0.19
791.669	0.14
791.843	0.07
792.016	0.15
792.19	0.33
792.364	-0.29
792.538	0.44
792.711	0.13
792.885	-0.35
793.059	-0.2
793.233	-0.6
793.406	0.09
793.58	-0.17
793.754	0.02
793.927	-0.09
794.101	0.14
794.274	-0.25
794.448	0.27
794.622	-0.27
794.795	0.15
794.969	-0.23
795.142	0.26
795.316	-0.12
795.489	-0.36
795.663	0.28
795.836	-0.15
796.009	-0.25
796.183	0.44
796.356	-0.15
796.53	0.07
796.703	-0.32
796.876	0.39
797.05	-0.02
797.223	0.06
797.396	0.07
797.57	-0
797.743	0.21
797.916	0.06
798.09	0.05
798.263	0.25
798.436	-0.11
798.609	-0.07
798.782	-0.33
798.956	0.01
799.129	0.07
799.302	-0.17
799.475	-0.05
799.648	-0.18
799.821	-0.07
799.994	-0.11
800.167	-0.64
800.34	0.13
800.514	0
800.687	-0.1
800.86	-0.06
801.033	-0.22
801.206	-0.14
801.379	-0.17
801.551	0.11
801.724	-0.01
801.897	0.22
802.07	-0.15
802.243	-0.89
802.416	-0.29
802.589	0.01
802.762	-0
802.935	0.29
803.107	-0.14
803.28	0.32
803.453	0.22
803.626	-0.22
803.798	-0.13
803.971	-0.04
804.144	0.12
804.317	0.25
804.489	-0.08
804.662	0.06
804.835	0.13
805.007	-0.27
805.18	0.16
805.353	-0.11
805.525	-0.07
805.698	-0.14
805.87	0.24
806.043	0.24
806.215	-0.18
806.388	-0.12
806.56	0.33
806.733	0.28
806.905	0.12
807.078	0.01
807.25	-0.37
807.423	0.08
807.595	-0.18
807.768	-0.22
807.94	0.24
808.112	0.17
808.285	-0.08
808.457	-0.58
808.629	-0.23
808.802	0.3
808.974	-0.37
809.146	-0.2
809.318	-0.49
809.491	-0.32
809.663	0.08
809.835	-0.5
810.007	0.02
810.18	-0.15
810.352	-0.49
810.524	-0.02
810.696	-0.1
810.868	0.5
811.04	0.04
811.212	0.03
811.384	0.36
811.556	0.06
811.728	0.19
811.901	0.78
812.073	0.05
812.245	0.16
812.417	0.06
812.589	-0.47
812.76	-0.11
812.932	-0.12
813.104	0.24
813.276	0.06
813.448	0.16
813.62	-0.18
813.792	-0
813.964	-0.08
814.136	0.06
814.307	-0.44
814.479	-0.35
814.651	0.06
814.823	0.55
814.995	-0.3
815.166	-0.11
815.338	-0.74
815.51	-0.68
815.681	0.82
815.853	-0.43
816.025	-0.29
816.196	0.46
816.368	0.54
816.54	-0.29
816.711	-0.58
816.883	0.24
817.054	1.1
817.226	-0.77
817.398	-0.04
817.569	0.05
817.741	-0.15
817.912	-0.43
818.084	-0.23
818.255	-0.12
818.426	-0.29
818.598	0.04
818.769	-0.23
818.941	0.2
819.112	0.23
819.283	0.3
819.455	-0.74
819.626	0.39
819.798	0
819.969	0.18
820.14	-0.3
820.311	-0.3
820.483	0.19
820.654	0.38
820.825	-0.21
820.996	-0.3
821.168	-0.67
821.339	0.22
821.51	-0.62
821.681	0.96
821.852	0.15
822.023	-0.61
822.195	-0.6
822.366	0.45
822.537	-0.04
822.708	-0.19
822.879	-0.21
823.05	0.46
823.221	-0.13
823.392	-0.22
823.563	-0.13
823.734	0.19
823.905	-0.37
824.076	-0.3
824.247	-0.25
824.418	-1.02
824.589	0.38
824.759	-0.08
824.93	-0.24
825.101	-0.71
825.272	0.29
825.443	0.53
825.614	-0.06
825.784	-1.01
825.955	0.5
826.126	0.26
826.297	-0.51
826.467	0.13
826.638	0.84
826.809	-1.15
826.98	-0.47
827.15	-0.1
827.321	-0.09
827.492	0.31
827.662	-0.2
827.833	0.52
828.003	0.47
828.174	-0.67
828.345	-0.71
828.515	0.63
828.686	0.47
828.856	-1.05
829.027	-0.18
829.197	0.01
829.368	0.16
829.538	-0.83
829.709	-0.4
829.879	0.17
830.049	-0.18
830.22	-0.58
830.39	0.03
830.56	0.06
830.731	-0.42
830.901	-0.17
831.072	-0.2
831.242	-0.4
831.412	0.51
831.582	0.24
831.753	-0.86
831.923	0.65
832.093	-0.38
832.263	-0.2
832.434	-0.57
832.604	-0.1
832.774	0.13
832.944	-0.43
833.114	-0.5
833.284	-0.08
833.454	-0.93
833.624	-0.39
833.795	-0.69
833.965	0.54
834.135	1.08
834.305	-1.47
834.475	-0.41
834.645	-0.45
834.815	-0.08
834.985	-0.83
835.155	-0.91
835.325	-0.56
835.494	0.4
835.664	0.31
835.834	-0.79
836.004	-0.06
836.174	0.31
836.344	-0.61
836.514	-1.26
836.684	-0.52
836.853	-0.13
837.023	0.33
837.193	-0.3
837.363	0.1
837.532	0.15
837.702	-0.25
837.872	-1
838.041	0.97
838.211	0.72
838.381	-0.65
838.55	0.58
838.72	1.5
838.89	1.47
839.059	-0.08
839.229	-0.28
839.398	0.88
839.568	0.06
839.738	-0.25
839.907	0.08
840.077	0.3
840.246	-0.24
840.416	-0.72
840.585	-0.28
840.755	1.67
840.924	0.83
841.093	-0.73
841.263	-0.5
841.432	-0.38
841.602	-0.77
841.771	-0.87
841.94	-0.24
842.11	1.32
842.279	0.96
842.448	-0.39
842.617	-0.3
842.787	1.28
842.956	-0.79
843.125	0.14
843.294	0.22
843.464	0.56
843.633	-0.55
843.802	-0.47
843.971	-0.42
844.14	-0.32
844.309	0.32
844.479	-1.91
844.648	-1.06
844.817	-0.72
844.986	1
845.155	-0.17
845.324	-0.46
845.493	0.12
845.662	-0.05
845.831	0.24
846	-0.13
846.169	-0.23
846.338	0.78
846.507	0.25
846.676	0.19
846.844	-0.6
847.013	0.53
847.182	-0.26
847.351	-0.8
847.52	-0.35
847.689	0.39
847.858	-0.4
848.026	-0.72
848.195	-1.11
848.364	-0.9
848.533	-0.29
848.701	-0.12
848.87	-0.57
849.039	0.41
849.207	0.23
849.376	0.53
849.545	1.44
849.713	-1.36
849.882	-0.51
850.051	-0.36
850.219	-0.48
850.388	1.25
850.556	-1.23
850.725	0.04
850.893	-0.26
851.062	0.13
851.23	-0.77
851.399	-2.32
851.567	0.36
851.736	-1.29
851.904	-0.57
852.073	-0.55
852.241	0.55
852.41	-0.65
852.578	-0.96
852.746	-1.23
852.915	-0
853.083	-0.1
853.251	-1.9
853.42	0.32
853.588	-1.41
853.756	0.8
853.924	-0.42
854.093	-0.75
854.261	-0.6
854.429	-1.42
854.597	-0.76
854.765	-0.94
854.934	0.5
855.102	0.93
855.27	-0.9
855.438	1.02
855.606	1.11
855.774	1.28
855.942	-1.82
856.11	-1.23
856.278	0.2
856.446	1.46
856.614	-0.67
856.782	-0.63
856.95	0.37
857.118	0.47
857.286	-0.33
857.454	-0.79
857.622	1.03
857.79	-0.5
857.958	-1.07
858.126	-1.53
858.294	-2.43
858.462	-0.23
858.629	-0.63
858.797	-1.81
858.965	-0.02
859.133	0.7
859.301	0.27
859.468	-0.41
859.636	-0.29
859.804	1.85
859.971	1.16
860.139	-1.85
860.307	2.15
860.474	-0.31
860.642	-1.73
860.81	-1.38
860.977	-0.75
861.145	0.17
861.313	-1.18
861.48	-0.68
861.648	0.56
861.815	-0.07
861.983	-2.24
862.15	-0.63
862.318	0.91
862.485	1.23
862.653	-1.6
862.82	-1.36
862.988	0.46
863.155	0.93
863.322	-2.09
863.49	-1.99
863.657	-0.45
863.824	1.25
863.992	-0.83
864.159	0.16
864.326	1.21
864.494	-2.39
864.661	2.95
864.828	-1.73
864.996	0.5
865.163	0.43
865.33	-1.88
865.497	-2.82
865.664	-1.48
865.832	-2.74
865.999	-0.17
866.166	-2.37
866.333	-1.97
866.5	-0.41
866.667	0.22
866.834	-0.23
867.001	1.32
867.168	-2.58
867.335	-0.69
867.502	-2.06
867.669	-0.84
867.836	-0
868.003	-1.52
868.17	0.35
868.337	0.97
868.504	3.98
868.671	-1.91
868.838	-1.87
869.005	0.84
869.172	2.21
869.339	-0.71
869.505	-0.35
869.672	-1.41
869.839	2.35
870.006	-0.01
870.173	-2.42
870.339	-0.45
870.506	1.64
870.673	-1.76
870.84	0.11
871.006	1.55
871.173	-0.72
871.34	0.28
871.506	-2.59
871.673	0.58
871.839	-2.86
872.006	-0.01
872.173	-0.93
872.339	-0.29
872.506	0.72
872.672	-0.82
872.839	-2.35
873.005	0.83
873.172	1.26
873.338	1.06
873.505	-1.51
873.671	-1.2
873.838	1.16
874.004	-2.98
874.171	-0.64
874.337	-1.12
874.503	0.75
874.67	-1.85
874.836	-1.13
875.002	0.79
875.169	0.27
875.335	0.52
875.501	-0.88
875.668	1.02
875.834	0.79
876	-1.55
876.166	0.08
876.332	0.57
876.499	1.09
876.665	-0.57
876.831	-0.33
876.997	1.46
877.163	1.52
877.329	-1.69
877.495	-1.91
877.662	1.53
877.828	0.09
877.994	-0.36
878.16	-3.11
878.326	-1.72
878.492	1.38
878.658	-1.84
878.824	0.4
878.99	0.7
879.156	-1.66
879.322	2.22
879.487	-1.5
879.653	-0.34
879.819	0.4
879.985	-2.31
880.151	1.5
880.317	-0.36
880.483	0.05
880.648	0.37
880.814	-2.19
880.98	-0.77
881.146	-2.92
881.312	-0.34
881.477	-2.07
881.643	-0.8
881.809	1.78
881.974	0.35
882.14	-4.95
882.306	0.45
882.471	3.08
882.637	-0.91
882.803	1.7
882.968	1.79
883.134	2.07
883.299	-0.49
883.465	1.15
883.63	0.91
883.796	1.49
883.961	0.78
884.127	0.37
884.292	-4.35
884.458	-1.13
884.623	-1.13
