Data from Apollo_Calib_20240827__AbsoluteIrradiance__604__09-13-02-585.txt Node

Date: Wed Aug 28 09:13:02 BST 2024
User: biology
Spectrometer: FLMT08252
Trigger mode: 0
Integration Time (sec): 5.000000E-1
Scans to average: 5
Electric dark correction enabled: true
Nonlinearity correction enabled: false
Boxcar width: 0
XAxis mode: Wavelengths
Number of Pixels in Spectrum: 3648
>>>>>Begin Spectral Data<<<<<
179.588	-0
179.809	-0
180.03	-0
180.251	-0
180.473	-0
180.694	0
180.915	0
181.136	-0
181.357	0
181.578	-0
181.799	-0
182.02	-0
182.241	-0
182.462	-0
182.683	0
182.904	-0
183.125	-0
183.346	0
183.567	0
183.788	0
184.009	0
184.23	0
184.451	0
184.672	-0
184.892	-0
185.113	0
185.334	0
185.555	0
185.776	0
185.996	0
186.217	0
186.438	0
186.659	0
186.879	0
187.1	-0
187.321	0
187.541	-0
187.762	0
187.983	0
188.203	0
188.424	0
188.644	0
188.865	0
189.086	0
189.306	0
189.527	0
189.747	0
189.968	0
190.188	0
190.409	0
190.629	0
190.849	0
191.07	0
191.29	0
191.511	0
191.731	0
191.951	0
192.172	0
192.392	0
192.612	0
192.833	0
193.053	0
193.273	0
193.493	0
193.714	0
193.934	0
194.154	0
194.374	0
194.594	0
194.815	0
195.035	0
195.255	0
195.475	0
195.695	0
195.915	0
196.135	0
196.355	0
196.575	0
196.795	0
197.015	-0
197.235	0
197.455	0
197.675	0
197.895	0
198.115	0
198.335	0
198.555	0
198.775	0
198.995	0
199.214	0
199.434	0
199.654	0
199.874	0
200.094	1.91
200.313	1.47
200.533	0.3
200.753	0.3
200.973	2.06
201.192	1.61
201.412	-0.01
201.632	0.68
201.851	1.96
202.071	0.15
202.291	0.37
202.51	0.31
202.73	0.99
202.95	0.66
203.169	0.47
203.389	0.68
203.608	0.87
203.828	0.11
204.047	0.63
204.267	0.69
204.486	0.73
204.706	1.18
204.925	0.78
205.145	0.41
205.364	0.86
205.583	1.07
205.803	0.61
206.022	0.1
206.242	0.69
206.461	0.82
206.68	0.46
206.9	0.6
207.119	0.97
207.338	1.11
207.557	0.17
207.777	0.15
207.996	0.27
208.215	0.88
208.434	0.32
208.654	0.26
208.873	0.74
209.092	1.11
209.311	0.4
209.53	0.45
209.749	0.44
209.968	0.16
210.187	0.41
210.407	0.06
210.626	0.51
210.845	0.62
211.064	0.46
211.283	0.36
211.502	0.7
211.721	0.59
211.94	0.39
212.159	0.54
212.377	0.6
212.596	0.75
212.815	0.46
213.034	0.48
213.253	0.61
213.472	0.63
213.691	0.13
213.91	0.17
214.128	0.21
214.347	0.82
214.566	-0.14
214.785	-0.02
215.003	0.53
215.222	0.51
215.441	0.39
215.66	0.17
215.878	0.4
216.097	0.49
216.316	0.16
216.534	0.28
216.753	0.3
216.972	0.4
217.19	0.22
217.409	0.2
217.627	0.37
217.846	0.32
218.064	0.42
218.283	0.12
218.501	0.69
218.72	0.57
218.938	0.01
219.157	0.12
219.375	0.51
219.594	0.43
219.812	0.18
220.031	0.1
220.249	0.63
220.467	0.71
220.686	0.31
220.904	0.04
221.122	0.3
221.341	0.49
221.559	0.26
221.777	0.03
221.995	0.28
222.214	0.55
222.432	0.21
222.65	0.49
222.868	0.3
223.086	0.41
223.305	0.38
223.523	0.2
223.741	0.39
223.959	0.07
224.177	0.03
224.395	0.06
224.613	0.42
224.831	0.41
225.049	0.11
225.267	0.14
225.485	0.25
225.703	0.15
225.921	0.23
226.139	0.24
226.357	0.4
226.575	0.31
226.793	0.12
227.011	0.8
227.229	0.17
227.447	0.39
227.665	0.08
227.883	0.04
228.1	0.29
228.318	0.22
228.536	-0.08
228.754	0.1
228.972	0.25
229.189	0.14
229.407	0.16
229.625	0.13
229.843	0.38
230.06	0.34
230.278	0.12
230.496	0.28
230.713	0.3
230.931	0.36
231.149	0.24
231.366	0.02
231.584	0.22
231.801	0.55
232.019	0.17
232.236	0.05
232.454	0.13
232.671	0.09
232.889	0.09
233.106	0.01
233.324	0.22
233.541	0.24
233.759	0.15
233.976	0.09
234.194	0.21
234.411	0.21
234.628	0.03
234.846	0.19
235.063	0.18
235.28	0.09
235.498	0.18
235.715	0.05
235.932	0.34
236.149	0.16
236.367	0.11
236.584	0.19
236.801	0.08
237.018	0.28
237.236	0.23
237.453	-0.08
237.67	0.28
237.887	0.13
238.104	0.15
238.321	0.02
238.538	0.11
238.755	0.15
238.973	0.08
239.19	0.12
239.407	0.19
239.624	0.16
239.841	0.05
240.058	0.09
240.275	0.23
240.492	0.11
240.709	0.26
240.925	0.21
241.142	0.25
241.359	0.12
241.576	0.1
241.793	0.15
242.01	0.18
242.227	0.27
242.444	0.21
242.66	0.3
242.877	0.22
243.094	0.18
243.311	0.2
243.527	0.12
243.744	0.19
243.961	0.24
244.178	0.11
244.394	0.14
244.611	0.18
244.828	0.31
245.044	0.02
245.261	0.14
245.477	0.23
245.694	0.16
245.911	0.14
246.127	0.18
246.344	0.28
246.56	0.24
246.777	0.04
246.993	0.11
247.21	0.27
247.426	0.2
247.643	0.07
247.859	0.09
248.076	0.07
248.292	0.3
248.508	0.08
248.725	0.13
248.941	0.18
249.157	0.29
249.374	0.11
249.59	0.11
249.806	0.14
250.023	0.1
250.239	0.11
250.455	0.07
250.671	0.15
250.888	0.12
251.104	0.19
251.32	0.17
251.536	0.1
251.752	0.07
251.969	0.13
252.185	0.15
252.401	0.29
252.617	0.13
252.833	0.1
253.049	0.12
253.265	0.15
253.481	0.09
253.697	0.08
253.913	0.06
254.129	0.21
254.345	0.18
254.561	0.11
254.777	0.13
254.993	0.18
255.209	0.07
255.425	0.13
255.641	0.07
255.857	0.24
256.073	0.15
256.288	0.1
256.504	0.12
256.72	0.09
256.936	0.27
257.152	0.1
257.367	0.06
257.583	0.18
257.799	0.2
258.015	0.16
258.23	0.12
258.446	0.24
258.662	0.1
258.877	0.14
259.093	0.08
259.309	0.13
259.524	0.13
259.74	0.13
259.955	0.05
260.171	0.17
260.387	0.1
260.602	0.18
260.818	0.2
261.033	0.09
261.249	0.1
261.464	0.11
261.68	0.08
261.895	0.12
262.11	0.16
262.326	0.17
262.541	0.01
262.757	0.15
262.972	0.12
263.187	0.12
263.403	0.09
263.618	0.18
263.833	0.1
264.049	0.05
264.264	0.12
264.479	0.14
264.694	0.24
264.91	0.04
265.125	0.06
265.34	0.14
265.555	0.28
265.77	0.1
265.986	0.02
266.201	0.18
266.416	0.19
266.631	0.08
266.846	0.11
267.061	0.14
267.276	0.16
267.491	-0.03
267.706	0.12
267.921	0.17
268.136	0.12
268.351	0.11
268.566	0.05
268.781	0.18
268.996	0.16
269.211	0.11
269.426	0.05
269.641	0.04
269.856	0.13
270.071	0.05
270.285	0.04
270.5	0.18
270.715	0.21
270.93	0.12
271.145	0.16
271.359	0.13
271.574	0.11
271.789	0.12
272.004	0.1
272.218	0.08
272.433	0.15
272.648	0.03
272.862	0.13
273.077	0.15
273.292	0.11
273.506	0.02
273.721	0.05
273.936	0.18
274.15	0.17
274.365	0.08
274.579	0.1
274.794	0.14
275.008	0.16
275.223	0.03
275.437	0.12
275.652	0.16
275.866	0.09
276.081	0.05
276.295	0.11
276.509	0.12
276.724	0.13
276.938	0.09
277.153	0.18
277.367	0.15
277.581	0.05
277.796	0.02
278.01	0.06
278.224	0.14
278.438	0.21
278.653	-0.05
278.867	0.05
279.081	-0.06
279.295	0.08
279.51	0.09
279.724	0.01
279.938	0.16
280.152	0.15
280.366	0.05
280.58	0.1
280.794	0.19
281.008	0.1
281.222	0.15
281.437	0.25
281.651	0.13
281.865	0.21
282.079	0.1
282.293	-0
282.507	0.05
282.721	0.11
282.935	0.05
283.148	-0
283.362	0.05
283.576	0.02
283.79	0.1
284.004	0.04
284.218	0.14
284.432	0.07
284.646	0.08
284.859	0.07
285.073	0.09
285.287	0.09
285.501	0.07
285.714	0.12
285.928	0.09
286.142	0.13
286.356	0.1
286.569	0.07
286.783	0.19
286.997	0.15
287.21	0.08
287.424	0.1
287.637	0.08
287.851	0.04
288.065	0.14
288.278	0.06
288.492	0.09
288.705	0.08
288.919	0.14
289.132	0.05
289.346	0.14
289.559	-0.01
289.773	0.04
289.986	0.06
290.2	0.1
290.413	0.15
290.626	0.09
290.84	0.1
291.053	0.1
291.267	0.14
291.48	0.07
291.693	0.1
291.906	0.04
292.12	0.1
292.333	0.02
292.546	0.05
292.76	0.17
292.973	0.09
293.186	0.13
293.399	0.09
293.612	0.16
293.826	0.06
294.039	0.08
294.252	0.08
294.465	0.1
294.678	0.06
294.891	0.13
295.104	0.03
295.317	0.09
295.53	0.12
295.743	0.07
295.956	0.14
296.169	0.14
296.382	0.11
296.595	0.07
296.808	0.05
297.021	0.12
297.234	0.14
297.447	0.11
297.66	0.1
297.873	0.17
298.086	0.1
298.299	0.06
298.511	-0.01
298.724	0.06
298.937	0.03
299.15	0.04
299.363	0.09
299.575	0.14
299.788	0.12
300.001	0.05
300.213	0.03
300.426	0.04
300.639	0.06
300.852	0.06
301.064	0.11
301.277	0.16
301.489	0.09
301.702	0.08
301.915	0.07
302.127	0.09
302.34	0.05
302.552	0.12
302.765	0.08
302.977	0.09
303.19	0.04
303.402	0.08
303.615	0.1
303.827	0.03
304.04	0.11
304.252	0.1
304.464	0.1
304.677	0.13
304.889	0.08
305.102	0.06
305.314	0.07
305.526	0.15
305.739	0.09
305.951	0.07
306.163	0.06
306.375	0.14
306.588	0.09
306.8	0.1
307.012	0.02
307.224	0.12
307.436	0.17
307.649	0.03
307.861	0.08
308.073	0.11
308.285	0.06
308.497	0.03
308.709	0.07
308.921	0.07
309.133	0.18
309.346	0.07
309.558	0.07
309.77	0.14
309.982	0.16
310.194	0.14
310.406	0.05
310.617	0.13
310.829	0.12
311.041	0.13
311.253	0.01
311.465	0.06
311.677	0.03
311.889	0.07
312.101	0.01
312.313	0.07
312.524	0.11
312.736	0.04
312.948	0.08
313.16	0.16
313.372	0.09
313.583	0.1
313.795	0.05
314.007	0.04
314.218	0.09
314.43	0.05
314.642	0.07
314.853	0.04
315.065	0.15
315.277	0.06
315.488	0.12
315.7	0.11
315.912	0.11
316.123	0.03
316.335	0.09
316.546	0.17
316.758	0.13
316.969	0.04
317.181	0.08
317.392	0.08
317.604	0.12
317.815	0.05
318.026	0.03
318.238	0.04
318.449	0.12
318.661	0
318.872	0.05
319.083	0.05
319.295	0.1
319.506	0.07
319.717	0.11
319.929	0.08
320.14	0.08
320.351	0.06
320.562	0.07
320.774	0.13
320.985	0.07
321.196	0.05
321.407	-0.01
321.618	0.11
321.829	0.06
322.041	0.07
322.252	0.11
322.463	0.1
322.674	0.13
322.885	0.04
323.096	0.08
323.307	0.06
323.518	0.07
323.729	0.03
323.94	0.08
324.151	0.07
324.362	0.06
324.573	0.06
324.784	0.03
324.995	0.14
325.206	0.09
325.417	0.04
325.628	0.07
325.838	0.07
326.049	0.09
326.26	0.09
326.471	0.05
326.682	0.06
326.892	0.07
327.103	0.02
327.314	0.05
327.525	0.14
327.735	0.07
327.946	0.09
328.157	0.05
328.368	0.08
328.578	0.07
328.789	0.1
328.999	0.09
329.21	0.07
329.421	0.11
329.631	0.03
329.842	0.03
330.052	0.1
330.263	0.08
330.473	0.07
330.684	0.07
330.894	0.05
331.105	0.07
331.315	0.1
331.526	0.02
331.736	0.18
331.947	0.11
332.157	0.07
332.367	0.01
332.578	0.11
332.788	0.13
332.999	0.1
333.209	0.11
333.419	0.04
333.629	0.09
333.84	0.16
334.05	0.11
334.26	0.15
334.47	0.07
334.681	0.15
334.891	0.02
335.101	0.12
335.311	0.13
335.521	0.09
335.732	0.04
335.942	0.14
336.152	0.11
336.362	0.09
336.572	0.12
336.782	0.12
336.992	0.07
337.202	0.06
337.412	0.05
337.622	0.07
337.832	0.08
338.042	0.08
338.252	0.04
338.462	0.07
338.672	0.05
338.882	0.06
339.092	0.09
339.302	0.17
339.511	0.1
339.721	0.04
339.931	0.06
340.141	0.12
340.351	0.15
340.561	0.1
340.77	0.09
340.98	0.09
341.19	0.13
341.4	0.05
341.609	0.05
341.819	0.1
342.029	0.04
342.238	0.05
342.448	0.06
342.658	0.11
342.867	0.14
343.077	0.08
343.286	0.07
343.496	0.06
343.706	0.1
343.915	0.02
344.125	0.05
344.334	0.11
344.544	0.02
344.753	0.07
344.963	0.06
345.172	0.08
345.381	0.04
345.591	0.08
345.8	0.09
346.01	0.14
346.219	0.12
346.428	-0.04
346.638	0.07
346.847	0.06
347.056	0.16
347.266	0.08
347.475	0.08
347.684	0.07
347.893	0.11
348.103	0.11
348.312	0.05
348.521	0.06
348.73	0.08
348.94	0.07
349.149	0.05
349.358	0.02
349.567	0.07
349.776	0.05
349.985	0.04
350.194	0.07
350.403	0.07
350.612	0
350.821	0.08
351.03	0.1
351.239	0.01
351.448	0.07
351.657	0.03
351.866	0.14
352.075	0.04
352.284	0.1
352.493	0.02
352.702	0.14
352.911	0.09
353.12	0.1
353.329	0.06
353.538	0.11
353.746	0
353.955	0.02
354.164	0.09
354.373	0.07
354.582	0.12
354.79	0.09
354.999	0.13
355.208	0.08
355.416	0.15
355.625	0.02
355.834	0.04
356.042	0.08
356.251	0.05
356.46	0.01
356.668	0.1
356.877	0.14
357.085	0.11
357.294	0.01
357.503	0.09
357.711	0.05
357.92	0.19
358.128	0.11
358.337	0.08
358.545	0.13
358.754	0.06
358.962	0.1
359.17	0.06
359.379	0.07
359.587	0.1
359.796	0.05
360.004	0.11
360.212	0.1
360.421	0.12
360.629	0.06
360.837	0.1
361.046	0.13
361.254	0.17
361.462	0.06
361.67	0.08
361.879	0.1
362.087	0.13
362.295	0.03
362.503	0.07
362.711	-0.01
362.92	0.02
363.128	0.04
363.336	0.05
363.544	0.02
363.752	0.05
363.96	0.07
364.168	0.06
364.376	0.08
364.584	0.08
364.792	0.1
365	0.08
365.208	0.06
365.416	0.08
365.624	0.11
365.832	0.05
366.04	0.13
366.248	0.09
366.456	0.06
366.664	0.05
366.872	0.05
367.079	0.08
367.287	0.07
367.495	0.1
367.703	0.05
367.911	0.05
368.118	0.06
368.326	0.06
368.534	0.05
368.742	0.14
368.949	0
369.157	0.05
369.365	0.09
369.572	0.06
369.78	0.03
369.988	0.1
370.195	0.1
370.403	0.1
370.61	0.06
370.818	0.06
371.026	0.09
371.233	0.02
371.441	0.07
371.648	0.06
371.856	0.08
372.063	0.06
372.271	0.05
372.478	0.04
372.685	0.05
372.893	0.11
373.1	0.02
373.308	0.04
373.515	0.11
373.722	0.1
373.93	0.07
374.137	0.11
374.344	0.14
374.552	0.12
374.759	0.09
374.966	0.02
375.173	0.03
375.381	0.14
375.588	0.1
375.795	0.02
376.002	0.04
376.209	0.04
376.417	0.04
376.624	0.06
376.831	0.07
377.038	0.06
377.245	-0.01
377.452	0.07
377.659	0.08
377.866	0.02
378.073	0.07
378.28	0.1
378.487	0.07
378.694	0.1
378.901	0.08
379.108	0.07
379.315	0.09
379.522	0.12
379.729	0.03
379.936	0.07
380.143	0.1
380.35	0.08
380.557	0.07
380.763	0.07
380.97	0.08
381.177	0.08
381.384	0.07
381.591	0.01
381.797	0.07
382.004	0.11
382.211	0.05
382.418	0.08
382.624	0.07
382.831	0.07
383.038	0.06
383.244	0.1
383.451	0.02
383.658	0.07
383.864	0.08
384.071	0.03
384.277	0.12
384.484	0.08
384.69	0.09
384.897	0.05
385.103	0.07
385.31	0.03
385.516	0.01
385.723	0.06
385.929	0.07
386.136	0.01
386.342	0.06
386.549	0.02
386.755	0.12
386.961	0.1
387.168	0.03
387.374	0.07
387.58	0.09
387.787	0.07
387.993	0.1
388.199	0.03
388.406	0.07
388.612	0.04
388.818	0.09
389.024	0.02
389.231	0.09
389.437	0.16
389.643	0.11
389.849	0.08
390.055	0.05
390.261	0.06
390.467	0.08
390.674	0.07
390.88	0.07
391.086	0.11
391.292	0.03
391.498	0.09
391.704	0.09
391.91	0.02
392.116	0.08
392.322	-0.04
392.528	0.06
392.734	0.03
392.94	0.06
393.146	0.03
393.352	0.06
393.557	0.02
393.763	0.07
393.969	0.07
394.175	0.09
394.381	0.06
394.587	0.01
394.792	0.05
394.998	0.09
395.204	0.15
395.41	0.04
395.615	0.07
395.821	0.09
396.027	0.11
396.233	0.02
396.438	0.07
396.644	0.07
396.85	0.09
397.055	0.05
397.261	0.1
397.466	0.12
397.672	0.01
397.878	0.03
398.083	0.09
398.289	0.04
398.494	0.1
398.7	0.09
398.905	-0
399.111	0.12
399.316	0.06
399.522	0.09
399.727	0.05
399.932	0.04
400.138	0.01
400.343	0.13
400.549	0.06
400.754	0.05
400.959	0.09
401.165	0.07
401.37	0.1
401.575	0.14
401.78	0.1
401.986	0.03
402.191	0.08
402.396	0.08
402.601	0.13
402.807	0.09
403.012	0.11
403.217	0.07
403.422	0.05
403.627	0.07
403.832	0.06
404.037	0.04
404.243	0.09
404.448	0.07
404.653	0.05
404.858	0.1
405.063	0.11
405.268	0.05
405.473	0.03
405.678	0.04
405.883	0.17
406.088	0.06
406.293	0.04
406.498	0.08
406.703	0.11
406.907	0.06
407.112	0.01
407.317	0.07
407.522	0.09
407.727	0.02
407.932	0.06
408.136	0.13
408.341	0.05
408.546	0.03
408.751	0.05
408.956	0.02
409.16	0.04
409.365	0.03
409.57	0.03
409.774	0.05
409.979	0.15
410.184	0.15
410.388	0.05
410.593	0.13
410.798	0.11
411.002	0.07
411.207	0.08
411.411	0.1
411.616	0.04
411.82	0.07
412.025	0.07
412.229	0.04
412.434	0.11
412.638	0.07
412.843	0.04
413.047	0.1
413.252	0.08
413.456	0.04
413.66	0.13
413.865	0.03
414.069	0.15
414.273	0.02
414.478	0.02
414.682	0.08
414.886	0.01
415.091	0.02
415.295	0
415.499	0.04
415.703	0.05
415.908	0.05
416.112	-0.01
416.316	0.09
416.52	0.03
416.724	0.01
416.929	0.04
417.133	0.17
417.337	0.02
417.541	0.06
417.745	0.05
417.949	0.06
418.153	0.04
418.357	-0.03
418.561	0.18
418.765	0.05
418.969	0.17
419.173	0.1
419.377	0.02
419.581	0.11
419.785	0.06
419.989	0.01
420.193	0.02
420.397	0.03
420.601	0.12
420.804	0.08
421.008	0.08
421.212	0.1
421.416	0.1
421.62	0.01
421.823	0.08
422.027	0.16
422.231	0.08
422.435	0.05
422.638	0.06
422.842	0.07
423.046	0.03
423.249	0.11
423.453	0.12
423.657	0.03
423.86	0.05
424.064	0.06
424.268	0.12
424.471	0.08
424.675	0.12
424.878	0.15
425.082	0.04
425.285	0.1
425.489	0.08
425.692	0.05
425.896	0.08
426.099	0.09
426.303	0.03
426.506	0.01
426.71	0.07
426.913	0.14
427.116	0.14
427.32	0.09
427.523	0.06
427.726	0.17
427.93	0.02
428.133	0.03
428.336	0.05
428.54	0.07
428.743	0.1
428.946	0.14
429.149	0.05
429.353	0.08
429.556	0.05
429.759	0.05
429.962	-0
430.165	0.1
430.368	0.02
430.571	0.02
430.775	0.08
430.978	0.02
431.181	0.13
431.384	0.09
431.587	0.04
431.79	0.05
431.993	0.09
432.196	0.09
432.399	0.04
432.602	0.15
432.805	0.02
433.008	0
433.211	-0.01
433.414	0.06
433.616	0.12
433.819	0.09
434.022	0.01
434.225	0.09
434.428	0.1
434.631	0.2
434.833	0.08
435.036	0.05
435.239	0.15
435.442	0.05
435.645	0.05
435.847	0.12
436.05	0.15
436.253	0.09
436.455	-0.01
436.658	0.04
436.861	0.11
437.063	0.06
437.266	0.06
437.468	0.08
437.671	0.24
437.874	0.09
438.076	-0.02
438.279	0.01
438.481	0.08
438.684	0.02
438.886	0.1
439.089	-0.01
439.291	0.06
439.494	0.06
439.696	0.01
439.899	0.06
440.101	0.11
440.303	0.01
440.506	0.13
440.708	0.08
440.91	0.12
441.113	0.05
441.315	0.11
441.517	0.03
441.72	0.14
441.922	-0.01
442.124	-0.02
442.326	0.08
442.529	0.13
442.731	0.03
442.933	0.18
443.135	0.06
443.337	0.04
443.539	0.04
443.742	0.09
443.944	0.07
444.146	0.06
444.348	0.02
444.55	0.06
444.752	0.07
444.954	0.04
445.156	0.07
445.358	0.03
445.56	0.11
445.762	0.06
445.964	0.05
446.166	0.03
446.368	0.07
446.57	0.07
446.772	0.07
446.974	0.07
447.175	0.08
447.377	0.05
447.579	0.06
447.781	-0.01
447.983	0.16
448.184	0.08
448.386	0.1
448.588	0.01
448.79	0.07
448.991	0.08
449.193	0.02
449.395	0.07
449.597	0.08
449.798	0.05
450	0.11
450.202	0.08
450.403	0.07
450.605	0.09
450.806	0.05
451.008	0.03
451.21	0.09
451.411	0.08
451.613	0.08
451.814	0.07
452.016	0.1
452.217	0.08
452.419	0.1
452.62	0.12
452.821	0.09
453.023	0.18
453.224	0.1
453.426	0.06
453.627	0.09
453.828	0.1
454.03	0.05
454.231	0.04
454.432	0.03
454.634	0.12
454.835	0.03
455.036	0.09
455.238	0.12
455.439	0.21
455.64	0.04
455.841	0.05
456.042	0.18
456.244	0.1
456.445	-0.01
456.646	0.05
456.847	0.1
457.048	0.11
457.249	0.15
457.45	0.27
457.651	0.04
457.852	0.13
458.054	0.12
458.255	0.09
458.456	0.12
458.657	0.11
458.858	0.03
459.058	0.1
459.259	0.11
459.46	0.08
459.661	0.06
459.862	0.18
460.063	0.05
460.264	0.13
460.465	0.03
460.666	0.21
460.866	0.05
461.067	0.08
461.268	0.04
461.469	0.13
461.67	0.03
461.87	0.06
462.071	0.04
462.272	0
462.473	0.07
462.673	0.09
462.874	0.01
463.075	0.09
463.275	0.05
463.476	0.03
463.676	0.1
463.877	0.09
464.078	0.07
464.278	0.12
464.479	0.09
464.679	0.11
464.88	0.08
465.08	0.18
465.281	0.01
465.481	0.04
465.682	0.1
465.882	0.09
466.083	0.06
466.283	0.05
466.483	0.1
466.684	0.02
466.884	0.04
467.085	0.07
467.285	0.13
467.485	0.07
467.686	0.07
467.886	0.04
468.086	0.04
468.286	0.03
468.487	0.1
468.687	-0.03
468.887	0.05
469.087	0.09
469.287	0.06
469.488	0.03
469.688	0.05
469.888	0.13
470.088	0.11
470.288	0.13
470.488	0.12
470.688	0.02
470.888	0.07
471.088	0.02
471.288	0.12
471.488	0.1
471.688	0.07
471.888	0.03
472.088	0.11
472.288	0.08
472.488	0.03
472.688	0.03
472.888	0.05
473.088	0.06
473.288	0.07
473.488	0.03
473.688	0.14
473.887	0.05
474.087	0
474.287	0.11
474.487	0
474.687	0.08
474.886	0.04
475.086	0.06
475.286	0.08
475.486	0.08
475.685	0.05
475.885	0.05
476.085	0.03
476.284	0.04
476.484	0.03
476.684	0.09
476.883	0.12
477.083	0.09
477.282	0.05
477.482	0.14
477.681	0.12
477.881	0.06
478.08	0.03
478.28	0.01
478.479	0.11
478.679	0.14
478.878	0.03
479.078	0.04
479.277	0.03
479.477	0.02
479.676	0.08
479.875	0.06
480.075	-0.01
480.274	0.08
480.473	0.08
480.673	0
480.872	0.08
481.071	0.08
481.271	0.06
481.47	0.02
481.669	0.04
481.868	0.04
482.067	0.01
482.267	0
482.466	0.02
482.665	0.02
482.864	0.01
483.063	0.05
483.262	0.07
483.461	0.09
483.661	0.06
483.86	0.03
484.059	0.04
484.258	0.04
484.457	0.05
484.656	0.05
484.855	0.1
485.054	-0.01
485.253	0
485.452	0
485.651	0.04
485.849	0.06
486.048	0.04
486.247	0.04
486.446	0.05
486.645	-0.01
486.844	0.04
487.043	0.02
487.241	0.05
487.44	0
487.639	0.02
487.838	0.07
488.037	0.05
488.235	0.09
488.434	0.04
488.633	0.01
488.831	0.06
489.03	0.08
489.229	0.04
489.427	0.02
489.626	0.11
489.825	0.08
490.023	0.05
490.222	0.01
490.42	0.05
490.619	0.05
490.817	0.03
491.016	0.01
491.214	0.06
491.413	0.01
491.611	0.03
491.81	0.04
492.008	0.05
492.207	0.06
492.405	0.06
492.604	0
492.802	0.04
493	0.03
493.199	0.01
493.397	0.05
493.595	0.02
493.794	0.03
493.992	0.1
494.19	0.04
494.388	0.06
494.587	0.02
494.785	0.02
494.983	0.02
495.181	0.02
495.379	0.05
495.578	0.03
495.776	0.03
495.974	0.06
496.172	0.02
496.37	0.03
496.568	0.01
496.766	0.02
496.964	0.05
497.162	0.05
497.36	0
497.558	0.07
497.756	0.06
497.954	0.04
498.152	0.02
498.35	0.03
498.548	0.01
498.746	0.05
498.944	0
499.142	0.03
499.34	-0.01
499.538	0.05
499.736	0
499.933	0.04
500.131	0.07
500.329	0.05
500.527	0.06
500.725	0.07
500.922	0.05
501.12	0.04
501.318	0.03
501.516	0
501.713	0.06
501.911	0.03
502.109	0
502.306	0.03
502.504	0.05
502.701	0
502.899	0.01
503.097	0.08
503.294	0.02
503.492	0.03
503.689	0.04
503.887	0.05
504.084	0.07
504.282	0.04
504.479	-0.01
504.677	0.02
504.874	0.01
505.072	0.04
505.269	0.03
505.466	0.06
505.664	0.05
505.861	-0
506.059	0
506.256	0.05
506.453	0.02
506.651	0.08
506.848	0.05
507.045	0.04
507.242	0.04
507.44	0.01
507.637	0.04
507.834	0.04
508.031	0.08
508.229	0.02
508.426	0.02
508.623	0.06
508.82	0.02
509.017	0.02
509.214	0.03
509.411	0.04
509.608	0.01
509.805	0.04
510.003	0.04
510.2	0.01
510.397	0.07
510.594	0.01
510.791	0.02
510.988	0.02
511.184	0.05
511.381	0.03
511.578	0.02
511.775	0.04
511.972	0.03
512.169	0.03
512.366	0.02
512.563	0.04
512.76	0.01
512.956	0.02
513.153	0.01
513.35	0.04
513.547	0.02
513.744	0.03
513.94	0.01
514.137	0.06
514.334	0.03
514.53	0.03
514.727	0.04
514.924	0.1
515.12	0.02
515.317	-0.01
515.514	0.02
515.71	-0.01
515.907	0.02
516.103	0.04
516.3	0.05
516.497	0.04
516.693	0.07
516.89	0.03
517.086	0.01
517.283	0.08
517.479	0.04
517.676	0.04
517.872	0.04
518.068	-0
518.265	0.03
518.461	0.01
518.658	0.02
518.854	0.04
519.05	0.02
519.247	0.03
519.443	0.04
519.639	0.05
519.836	0.05
520.032	0.03
520.228	0.02
520.424	0.08
520.621	0.03
520.817	0.03
521.013	0.06
521.209	0.05
521.405	0.06
521.601	0.04
521.798	0.03
521.994	0.07
522.19	0.03
522.386	0.01
522.582	0.03
522.778	0.06
522.974	0.02
523.17	0.03
523.366	0.01
523.562	0.07
523.758	0.03
523.954	0.01
524.15	0.02
524.346	0.07
524.542	0.02
524.738	0.02
524.934	0.04
525.129	-0.04
525.325	0.02
525.521	0.04
525.717	0.04
525.913	0.05
526.109	0.02
526.304	0.05
526.5	0.03
526.696	0.06
526.892	0.04
527.087	0.03
527.283	0.01
527.479	0.03
527.674	0.02
527.87	0.02
528.066	0.02
528.261	0.04
528.457	0.04
528.653	0.03
528.848	0.03
529.044	0.04
529.239	0.02
529.435	0.04
529.63	0.05
529.826	0.11
530.021	0.05
530.217	0.05
530.412	0.03
530.608	0.01
530.803	0.04
530.999	0.03
531.194	-0.01
531.389	0.05
531.585	-0.01
531.78	0.05
531.975	0.03
532.171	0.07
532.366	0.01
532.561	0.05
532.757	0
532.952	0.02
533.147	0.05
533.342	0.03
533.538	-0
533.733	0.05
533.928	0.05
534.123	0.02
534.318	0.01
534.513	0.02
534.709	0.04
534.904	0.03
535.099	0.03
535.294	0.02
535.489	0.03
535.684	0.04
535.879	0.02
536.074	0.04
536.269	0.03
536.464	0.03
536.659	0.02
536.854	0.04
537.049	0.04
537.244	0.05
537.439	0.04
537.634	0.06
537.828	0.03
538.023	0.03
538.218	-0.01
538.413	0.04
538.608	-0.02
538.803	0.06
538.997	-0
539.192	0.07
539.387	0.04
539.582	0.04
539.776	0.06
539.971	0.02
540.166	0.04
540.36	0.03
540.555	0.04
540.75	0.01
540.944	0.03
541.139	-0.01
541.334	0.02
541.528	0.03
541.723	0.05
541.917	0.02
542.112	0.01
542.306	0.03
542.501	0.03
542.695	0.04
542.89	0.02
543.084	0.05
543.279	0.02
543.473	0.04
543.668	0.04
543.862	0.01
544.056	0.06
544.251	0.03
544.445	0.04
544.64	0.04
544.834	0.02
545.028	0.06
545.222	0.05
545.417	0.05
545.611	0.04
545.805	0.05
546	0.02
546.194	0.03
546.388	0.03
546.582	0.05
546.776	0.05
546.97	0.06
547.165	0.04
547.359	0.06
547.553	0.02
547.747	0.07
547.941	0.05
548.135	0.04
548.329	0.05
548.523	0.02
548.717	0.05
548.911	0.03
549.105	0.04
549.299	0.04
549.493	0.06
549.687	0.05
549.881	0.04
550.075	0.04
550.269	0
550.463	0.07
550.657	0.04
550.85	0.04
551.044	-0.01
551.238	0.05
551.432	0.03
551.626	0.02
551.82	0.04
552.013	0.02
552.207	0.05
552.401	0.07
552.594	0.05
552.788	0.05
552.982	0.04
553.176	0.01
553.369	0.07
553.563	0.07
553.756	0.02
553.95	0.03
554.144	0.04
554.337	0.06
554.531	0.06
554.724	0.05
554.918	0.01
555.111	0.07
555.305	0.04
555.498	0.06
555.692	0.05
555.885	0.01
556.079	0.06
556.272	0.04
556.466	0.05
556.659	0.05
556.852	0.04
557.046	0.04
557.239	0.07
557.432	0.03
557.626	0.02
557.819	0.04
558.012	0.08
558.206	0.06
558.399	0.03
558.592	0.06
558.785	0
558.979	0.07
559.172	0.04
559.365	0.07
559.558	0.05
559.751	0.06
559.944	0.05
560.138	0.05
560.331	0.04
560.524	0.01
560.717	0.05
560.91	0.04
561.103	0.08
561.296	0.03
561.489	0.05
561.682	0.05
561.875	0.06
562.068	0.04
562.261	0.07
562.454	0.08
562.647	0.05
562.84	0.05
563.032	0.03
563.225	0.06
563.418	0.05
563.611	0.04
563.804	0.03
563.997	0.03
564.19	0.03
564.382	-0.01
564.575	0.05
564.768	0.04
564.961	0.04
565.153	0.03
565.346	0.07
565.539	0.05
565.731	0.07
565.924	0.06
566.117	0.07
566.309	0.06
566.502	0.05
566.695	0.06
566.887	0.05
567.08	0.01
567.272	0.04
567.465	0.05
567.657	0.06
567.85	0.07
568.042	0.04
568.235	0.05
568.427	0.04
568.62	0.07
568.812	0.08
569.005	0.06
569.197	0.01
569.389	0.07
569.582	0.08
569.774	0.07
569.966	0.04
570.159	0.01
570.351	0.05
570.543	0.05
570.736	0.07
570.928	0.02
571.12	0.07
571.312	0.05
571.505	0.02
571.697	0.09
571.889	0.02
572.081	0.05
572.273	0.03
572.465	0.09
572.658	0.05
572.85	0.06
573.042	0.04
573.234	0.07
573.426	0.11
573.618	0.02
573.81	0.06
574.002	0.1
574.194	0.09
574.386	0.03
574.578	-0
574.77	0.03
574.962	0.04
575.154	0.03
575.346	0.06
575.538	0.06
575.729	0.03
575.921	0.06
576.113	0.04
576.305	0.09
576.497	0.07
576.689	0.05
576.88	0.02
577.072	0.08
577.264	0.05
577.456	0.05
577.647	-0
577.839	0.06
578.031	0.08
578.223	0.03
578.414	0.03
578.606	0.07
578.798	0.08
578.989	0.05
579.181	0.06
579.372	0.06
579.564	0.04
579.755	0.06
579.947	0.08
580.139	0.1
580.33	0.01
580.522	0.04
580.713	0.01
580.905	0.06
581.096	0.07
581.287	0.06
581.479	0.07
581.67	0.08
581.862	0.08
582.053	0.03
582.244	0.02
582.436	0.07
582.627	0.09
582.818	0.05
583.01	0.02
583.201	0.08
583.392	0.1
583.583	0.07
583.775	0.06
583.966	0.09
584.157	0.05
584.348	0.06
584.54	0.04
584.731	0.08
584.922	0.07
585.113	0.04
585.304	0.07
585.495	0.07
585.686	0.06
585.877	0.09
586.068	0.08
586.259	0.08
586.45	0.11
586.641	0.05
586.832	0.06
587.023	0.1
587.214	0.08
587.405	0.1
587.596	0.06
587.787	0.1
587.978	0.1
588.169	0.06
588.36	0.05
588.551	0.11
588.742	0.05
588.932	0.1
589.123	0.08
589.314	0.12
589.505	0.1
589.696	0.08
589.886	0.07
590.077	0.05
590.268	0.09
590.458	0.04
590.649	0.05
590.84	0.13
591.03	0.06
591.221	0.05
591.412	0.05
591.602	0.12
591.793	0.12
591.984	0.1
592.174	0.08
592.365	0.18
592.555	0.07
592.746	0.12
592.936	0.11
593.127	0.12
593.317	0.15
593.508	0.09
593.698	0.11
593.889	0.12
594.079	0.11
594.269	0.11
594.46	0.14
594.65	0.11
594.84	0.11
595.031	0.09
595.221	0.1
595.411	0.09
595.602	0.17
595.792	0.11
595.982	0.11
596.172	0.18
596.363	0.16
596.553	0.15
596.743	0.13
596.933	0.14
597.123	0.18
597.314	0.14
597.504	0.12
597.694	0.17
597.884	0.15
598.074	0.14
598.264	0.15
598.454	0.17
598.644	0.15
598.834	0.15
599.024	0.15
599.214	0.17
599.404	0.19
599.594	0.16
599.784	0.16
599.974	0.2
600.164	0.18
600.354	0.13
600.544	0.14
600.734	0.16
600.924	0.21
601.114	0.14
601.303	0.18
601.493	0.2
601.683	0.19
601.873	0.19
602.063	0.16
602.252	0.21
602.442	0.13
602.632	0.16
602.821	0.17
603.011	0.25
603.201	0.18
603.39	0.2
603.58	0.18
603.77	0.23
603.959	0.27
604.149	0.23
604.339	0.18
604.528	0.26
604.718	0.24
604.907	0.24
605.097	0.25
605.286	0.22
605.476	0.27
605.665	0.28
605.855	0.26
606.044	0.31
606.234	0.27
606.423	0.28
606.612	0.27
606.802	0.29
606.991	0.3
607.181	0.31
607.37	0.24
607.559	0.28
607.749	0.27
607.938	0.32
608.127	0.31
608.316	0.3
608.506	0.35
608.695	0.35
608.884	0.31
609.073	0.34
609.263	0.37
609.452	0.37
609.641	0.38
609.83	0.36
610.019	0.36
610.208	0.37
610.397	0.41
610.586	0.41
610.775	0.39
610.965	0.4
611.154	0.39
611.343	0.43
611.532	0.42
611.721	0.42
611.91	0.43
612.099	0.47
612.287	0.45
612.476	0.44
612.665	0.48
612.854	0.49
613.043	0.52
613.232	0.52
613.421	0.48
613.61	0.51
613.798	0.55
613.987	0.6
614.176	0.56
614.365	0.59
614.554	0.58
614.742	0.66
614.931	0.58
615.12	0.66
615.309	0.6
615.497	0.64
615.686	0.6
615.875	0.67
616.063	0.65
616.252	0.66
616.44	0.68
616.629	0.73
616.818	0.72
617.006	0.75
617.195	0.73
617.383	0.75
617.572	0.75
617.76	0.78
617.949	0.79
618.137	0.85
618.326	0.87
618.514	0.77
618.703	0.81
618.891	0.92
619.079	0.85
619.268	0.93
619.456	0.9
619.644	0.99
619.833	0.97
620.021	0.97
620.209	0.92
620.398	1.03
620.586	1.01
620.774	1.11
620.962	1.07
621.151	1.17
621.339	1.09
621.527	1.13
621.715	1.09
621.903	1.13
622.092	1.13
622.28	1.25
622.468	1.24
622.656	1.28
622.844	1.36
623.032	1.3
623.22	1.3
623.408	1.42
623.596	1.42
623.784	1.48
623.972	1.39
624.16	1.43
624.348	1.56
624.536	1.55
624.724	1.52
624.912	1.64
625.1	1.66
625.288	1.63
625.476	1.63
625.664	1.74
625.851	1.7
626.039	1.79
626.227	1.77
626.415	1.83
626.603	1.83
626.79	1.91
626.978	1.96
627.166	2.02
627.354	1.98
627.541	1.99
627.729	1.95
627.917	2.18
628.104	2.17
628.292	2.22
628.48	2.22
628.667	2.27
628.855	2.31
629.042	2.43
629.23	2.44
629.418	2.4
629.605	2.48
629.793	2.48
629.98	2.56
630.168	2.6
630.355	2.65
630.543	2.7
630.73	2.7
630.917	2.82
631.105	2.92
631.292	2.88
631.48	2.98
631.667	3.08
631.854	3
632.042	3.16
632.229	3.1
632.416	3.22
632.604	3.31
632.791	3.27
632.978	3.37
633.165	3.4
633.353	3.55
633.54	3.61
633.727	3.56
633.914	3.6
634.101	3.64
634.289	3.9
634.476	3.77
634.663	3.86
634.85	3.96
635.037	3.94
635.224	3.96
635.411	4.12
635.598	4.21
635.785	4.22
635.972	4.28
636.159	4.42
636.346	4.49
636.533	4.53
636.72	4.63
636.907	4.68
637.094	4.76
637.281	4.72
637.468	4.88
637.655	4.94
637.842	5.05
638.029	5.08
638.215	5.12
638.402	5.25
638.589	5.25
638.776	5.36
638.963	5.43
639.149	5.63
639.336	5.73
639.523	5.73
639.709	5.84
639.896	5.93
640.083	6.03
640.27	6.13
640.456	6.16
640.643	6.23
640.829	6.34
641.016	6.43
641.203	6.46
641.389	6.67
641.576	6.67
641.762	6.82
641.949	6.95
642.135	7.03
642.322	7.11
642.508	7.18
642.695	7.48
642.881	7.37
643.068	7.49
643.254	7.66
643.441	7.79
643.627	8.02
643.813	7.88
644	8.25
644.186	8.22
644.372	8.53
644.559	8.51
644.745	8.62
644.931	8.71
645.118	9.04
645.304	9.06
645.49	9.32
645.676	9.4
645.862	9.53
646.049	9.79
646.235	9.84
646.421	10.31
646.607	10.39
646.793	10.34
646.979	10.38
647.165	10.78
647.352	10.79
647.538	11.09
647.724	11.14
647.91	11.31
648.096	11.48
648.282	11.78
648.468	11.86
648.654	12.2
648.84	12.23
649.026	12.58
649.212	12.52
649.397	12.83
649.583	13.13
649.769	13.23
649.955	13.4
650.141	13.91
650.327	13.89
650.513	14.11
650.698	14.43
650.884	14.33
651.07	14.82
651.256	14.88
651.442	15.22
651.627	15.08
651.813	15.71
651.999	15.66
652.184	16
652.37	16.31
652.556	16.55
652.741	16.64
652.927	16.69
653.113	17.18
653.298	17.44
653.484	17.56
653.669	17.84
653.855	18.04
654.04	18.39
654.226	18.55
654.412	18.67
654.597	18.74
654.782	19.16
654.968	19.38
655.153	19.59
655.339	19.81
655.524	19.96
655.71	20.23
655.895	20.56
656.08	20.73
656.266	21.08
656.451	20.95
656.636	21.09
656.822	21.48
657.007	21.66
657.192	21.94
657.378	22.02
657.563	21.85
657.748	22.12
657.933	22.6
658.118	22.15
658.304	22.8
658.489	22.98
658.674	22.92
658.859	22.84
659.044	23.08
659.229	23.26
659.414	23.33
659.599	23.4
659.785	23.16
659.97	23.29
660.155	23.36
660.34	23.51
660.525	23.13
660.71	23.29
660.895	23.25
661.08	23.07
661.264	22.79
661.449	22.77
661.634	22.42
661.819	22.42
662.004	21.94
662.189	22.06
662.374	21.63
662.559	21.14
662.743	20.99
662.928	20.74
663.113	20.25
663.298	19.96
663.483	19.65
663.667	19.2
663.852	18.86
664.037	18.43
664.221	18.23
664.406	17.73
664.591	17.33
664.775	16.77
664.96	16.4
665.145	15.71
665.329	15.58
665.514	15.13
665.698	14.45
665.883	14.07
666.068	13.88
666.252	13.42
666.437	12.76
666.621	12.48
666.806	12.23
666.99	11.68
667.174	11.44
667.359	11.02
667.543	10.71
667.728	10.24
667.912	9.88
668.096	9.51
668.281	9.26
668.465	9
668.649	8.75
668.834	8.21
669.018	8.08
669.202	7.95
669.387	7.55
669.571	7.41
669.755	6.99
669.939	6.8
670.124	6.55
670.308	6.29
670.492	6.18
670.676	5.93
670.86	5.78
671.044	5.47
671.228	5.36
671.413	5.13
671.597	4.99
671.781	4.96
671.965	4.76
672.149	4.64
672.333	4.46
672.517	4.29
672.701	4.1
672.885	4.01
673.069	3.75
673.253	3.88
673.437	3.66
673.621	3.54
673.804	3.36
673.988	3.36
674.172	3.14
674.356	3.11
674.54	3.03
674.724	3.03
674.908	2.73
675.091	2.76
675.275	2.66
675.459	2.6
675.643	2.54
675.826	2.41
676.01	2.31
676.194	2.33
676.377	2.31
676.561	2.22
676.745	2.06
676.928	2
677.112	2.04
677.296	1.92
677.479	1.82
677.663	1.73
677.846	1.78
678.03	1.63
678.213	1.56
678.397	1.6
678.58	1.51
678.764	1.46
678.947	1.42
679.131	1.3
679.314	1.35
679.498	1.28
679.681	1.29
679.865	1.35
680.048	1.17
680.231	1.18
680.415	1.11
680.598	1.1
680.781	1.07
680.965	1.07
681.148	1.04
681.331	0.99
681.514	1.01
681.698	0.92
681.881	0.91
682.064	0.88
682.247	0.9
682.43	0.74
682.614	0.83
682.797	0.87
682.98	0.84
683.163	0.72
683.346	0.82
683.529	0.74
683.712	0.69
683.895	0.74
684.078	0.63
684.261	0.63
684.444	0.67
684.627	0.66
684.81	0.59
684.993	0.59
685.176	0.66
685.359	0.5
685.542	0.55
685.725	0.65
685.908	0.51
686.091	0.55
686.274	0.59
686.457	0.55
686.639	0.52
686.822	0.52
687.005	0.49
687.188	0.49
687.371	0.57
687.553	0.53
687.736	0.45
687.919	0.53
688.102	0.53
688.284	0.41
688.467	0.42
688.65	0.4
688.832	0.32
689.015	0.41
689.197	0.32
689.38	0.44
689.563	0.5
689.745	0.35
689.928	0.35
690.11	0.34
690.293	0.39
690.475	0.31
690.658	0.39
690.84	0.34
691.023	0.33
691.205	0.3
691.388	0.33
691.57	0.36
691.752	0.39
691.935	0.29
692.117	0.31
692.3	0.36
692.482	0.31
692.664	0.32
692.847	0.29
693.029	0.36
693.211	0.36
693.393	0.28
693.576	0.19
693.758	0.28
693.94	0.19
694.122	0.27
694.304	0.27
694.487	0.26
694.669	0.31
694.851	0.24
695.033	0.29
695.215	0.17
695.397	0.17
695.579	0.24
695.761	0.2
695.943	0.18
696.125	0.31
696.308	0.25
696.49	0.09
696.671	0.29
696.853	0.18
697.035	0.33
697.217	0.24
697.399	0.27
697.581	0.2
697.763	0.15
697.945	0.13
698.127	0.14
698.309	0.23
698.491	0.22
698.672	0.21
698.854	0.25
699.036	0.27
699.218	0.17
699.399	0.24
699.581	0.2
699.763	0.21
699.945	0.2
700.126	0.13
700.308	0.18
700.49	0.18
700.671	0.08
700.853	0.17
701.035	0.17
701.216	0.19
701.398	0.15
701.579	0.13
701.761	0.26
701.943	0.13
702.124	0.13
702.306	0.15
702.487	0.29
702.669	0.17
702.85	0.16
703.031	0.1
703.213	0.22
703.394	0.21
703.576	0.12
703.757	0.26
703.938	0.17
704.12	0.3
704.301	0.15
704.483	0.11
704.664	0.22
704.845	0.2
705.026	0.2
705.208	0.14
705.389	0.14
705.57	0.2
705.751	0.14
705.933	0.14
706.114	0.25
706.295	0.2
706.476	0.12
706.657	0.23
706.838	0.19
707.02	0.23
707.201	0.16
707.382	0.11
707.563	0.18
707.744	0.08
707.925	0.14
708.106	0.08
708.287	0.19
708.468	0.28
708.649	0.15
708.83	0.18
709.011	0.13
709.192	0.17
709.373	0.08
709.554	0.14
709.734	0.22
709.915	0.23
710.096	0.26
710.277	0.03
710.458	0.11
710.639	0.19
710.819	0.02
711	0.11
711.181	0.18
711.362	0.15
711.542	0.15
711.723	0.18
711.904	0.19
712.085	0.14
712.265	0.17
712.446	0.09
712.627	0.06
712.807	0.13
712.988	0.2
713.168	0.09
713.349	0.18
713.53	0.03
713.71	0.07
713.891	0.05
714.071	0.13
714.252	0.13
714.432	0.12
714.613	0.09
714.793	0.18
714.974	0.29
715.154	0.22
715.334	0.25
715.515	0.22
715.695	0.04
715.876	0.1
716.056	0.11
716.236	0.12
716.417	0.02
716.597	0.09
716.777	0.3
716.957	0.12
717.138	0.16
717.318	0.16
717.498	0.06
717.678	0.14
717.859	0.16
718.039	0.1
718.219	0.18
718.399	0.1
718.579	0.16
718.759	0.11
718.939	0.17
719.12	0.15
719.3	0.15
719.48	0.05
719.66	0
719.84	0.17
720.02	0.14
720.2	0.1
720.38	0.1
720.56	0.2
720.74	0.1
720.92	0.13
721.1	0.2
721.279	0.26
721.459	0.12
721.639	0.04
721.819	0.15
721.999	0.12
722.179	0.19
722.359	0.07
722.538	0.09
722.718	0.13
722.898	0.12
723.078	0.16
723.257	0.06
723.437	0.08
723.617	0.2
723.797	0.08
723.976	0.13
724.156	0.18
724.336	0.22
724.515	0.24
724.695	-0
724.874	0.05
725.054	0.16
725.234	0.07
725.413	0.09
725.593	0.14
725.772	0.09
725.952	0.12
726.131	0.11
726.311	0.12
726.49	0.06
726.67	0.05
726.849	0.12
727.028	0.15
727.208	0.07
727.387	0.14
727.567	-0.03
727.746	0.08
727.925	0.11
728.105	0.12
728.284	0.1
728.463	0.08
728.643	0.18
728.822	0.05
729.001	0.05
729.18	0.18
729.359	0.12
729.539	0.08
729.718	0.11
729.897	0.2
730.076	0.12
730.255	0.12
730.434	0.13
730.614	0.19
730.793	0.28
730.972	0.09
731.151	0.1
731.33	0.26
731.509	0.17
731.688	0.15
731.867	0.11
732.046	-0.01
732.225	0.25
732.404	0.1
732.583	0.04
732.762	0.1
732.941	0.16
733.12	0.14
733.298	0.1
733.477	0.1
733.656	0.03
733.835	0.12
734.014	0.2
734.193	0.14
734.371	0.19
734.55	0.15
734.729	-0.01
734.908	0.15
735.086	0.15
735.265	0.18
735.444	0.04
735.623	0.06
735.801	0.05
735.98	0.13
736.159	0.13
736.337	0.17
736.516	0.16
736.694	0.15
736.873	0.21
737.052	0.34
737.23	0.28
737.409	0.11
737.587	0.34
737.766	0.01
737.944	0.14
738.123	0.15
738.301	0.18
738.479	0.18
738.658	0.22
738.836	0.14
739.015	0.13
739.193	0.28
739.371	0.08
739.55	0.09
739.728	-0.05
739.906	0.28
740.085	0.32
740.263	0.07
740.441	-0
740.62	0.24
740.798	0.25
740.976	0.1
741.154	0.14
741.332	0.35
741.511	0.17
741.689	0.09
741.867	0.26
742.045	0.19
742.223	0.12
742.401	0.05
742.579	0.1
742.757	0.17
742.935	-0.04
743.114	0.08
743.292	0.09
743.47	0.14
743.648	0.28
743.826	0.06
744.004	0.2
744.181	0.24
744.359	0.19
744.537	0.13
744.715	0.16
744.893	0.1
745.071	0.28
745.249	0.09
745.427	0.16
745.605	0.23
745.782	0.16
745.96	0.23
746.138	-0.03
746.316	0.31
746.493	0.17
746.671	0.08
746.849	0.04
747.027	0.27
747.204	0.1
747.382	0.13
747.56	-0.02
747.737	0.13
747.915	0.05
748.093	0.19
748.27	0.07
748.448	0.1
748.625	-0.1
748.803	0.05
748.98	0.03
749.158	0
749.335	0.18
749.513	0.05
749.69	0.04
749.868	0.15
750.045	0.26
750.223	0.08
750.4	-0.11
750.578	0.24
750.755	0.15
750.932	-0.06
751.11	0.21
751.287	0.05
751.464	0.23
751.642	0.03
751.819	0.17
751.996	0.16
752.173	0.1
752.351	0
752.528	0.16
752.705	0.12
752.882	0.09
753.06	0.16
753.237	0.21
753.414	0.33
753.591	0.28
753.768	0.2
753.945	0.11
754.122	0.03
754.299	0.21
754.476	0.15
754.654	0.04
754.831	0.1
755.008	0.1
755.185	0.19
755.362	0.03
755.539	0.07
755.716	0.08
755.892	0.16
756.069	0.07
756.246	0.15
756.423	0.04
756.6	0.29
756.777	0.05
756.954	0.08
757.131	0.08
757.307	-0.05
757.484	0.12
757.661	0.13
757.838	0.17
758.015	0.03
758.191	0.25
758.368	0.1
758.545	0.13
758.721	0.26
758.898	0.09
759.075	0.24
759.251	0.16
759.428	0.28
759.605	0.02
759.781	0.13
759.958	0.17
760.134	0.2
760.311	0.16
760.488	0.42
760.664	0.38
760.841	0.02
761.017	0.05
761.194	0.3
761.37	0.16
761.547	0.12
761.723	0.1
761.899	0.23
762.076	0.04
762.252	0.03
762.429	0.19
762.605	0.22
762.781	0.14
762.958	0.27
763.134	-0.04
763.31	-0.04
763.486	0.17
763.663	0.04
763.839	0.2
764.015	-0.04
764.191	-0.07
764.368	0.09
764.544	0.03
764.72	0.08
764.896	0.26
765.072	0.13
765.248	0.13
765.425	0.12
765.601	0.13
765.777	0.19
765.953	0.06
766.129	0.09
766.305	0.13
766.481	0.26
766.657	0.16
766.833	0.33
767.009	0.02
767.185	0.1
767.361	0.1
767.537	0.06
767.713	0.19
767.889	0.06
768.065	0.17
768.24	-0.04
768.416	0.2
768.592	0.11
768.768	0.13
768.944	0.21
769.12	0.07
769.295	0.06
769.471	0.2
769.647	0.08
769.823	0.25
769.998	0.14
770.174	-0.03
770.35	0.3
770.525	0.47
770.701	0.11
770.877	0.13
771.052	0.11
771.228	0.16
771.403	0.12
771.579	0.25
771.755	0.46
771.93	-0.02
772.106	-0.05
772.281	-0.05
772.457	0.14
772.632	0.07
772.808	0
772.983	0.01
773.159	0
773.334	0.27
773.509	0.14
773.685	0.09
773.86	0.41
774.036	0.39
774.211	0.11
774.386	-0.02
774.562	0.1
774.737	0.23
774.912	0.11
775.087	0.24
775.263	0.15
775.438	0.2
775.613	0.07
775.788	0.04
775.964	0.37
776.139	0.3
776.314	-0.04
776.489	0.12
776.664	0.19
776.839	0.1
777.014	0.28
777.19	0.09
777.365	0.36
777.54	0.36
777.715	0.11
777.89	0.14
778.065	0.11
778.24	0.17
778.415	0.39
778.59	-0.02
778.765	0.09
778.94	0.24
779.115	0.12
779.289	0.07
779.464	0.13
779.639	0.05
779.814	-0.05
779.989	-0.03
780.164	0.39
780.339	0.17
780.513	0.1
780.688	0.07
780.863	0.1
781.038	0.24
781.212	0.01
781.387	0.32
781.562	0.39
781.737	0.06
781.911	0.46
782.086	0.06
782.261	0.21
782.435	0.34
782.61	-0.07
782.784	-0.02
782.959	0.2
783.134	0.01
783.308	-0.01
783.483	0
783.657	0.67
783.832	0.3
784.006	-0.22
784.181	0.03
784.355	0.42
784.53	0.05
784.704	0.11
784.878	0.38
785.053	0.36
785.227	0.2
785.402	0.42
785.576	-0.08
785.75	0.04
785.925	0.32
786.099	0.14
786.273	0.29
786.448	0.27
786.622	0.27
786.796	0.25
786.97	0.22
787.145	0.77
787.319	-0.1
787.493	0.03
787.667	-0.07
787.841	0.34
788.015	0.28
788.19	0.2
788.364	0.25
788.538	0.47
788.712	0.2
788.886	0.18
789.06	0.37
789.234	0.29
789.408	-0.01
789.582	0.04
789.756	0.21
789.93	-0
790.104	0.18
790.278	0
790.452	0.02
790.626	0.33
790.8	0.07
790.973	0.41
791.147	0.39
791.321	0.48
791.495	0.59
791.669	0
791.843	0.29
792.016	0.18
792.19	0.6
792.364	0.07
792.538	0.78
792.711	0.27
792.885	0.25
793.059	0.05
793.233	-0.34
793.406	0.5
793.58	0.08
793.754	0.33
793.927	0.18
794.101	0.41
794.274	0.18
794.448	0.34
794.622	0.03
794.795	0.47
794.969	0.34
795.142	0.54
795.316	0.03
795.489	-0.03
795.663	0.59
795.836	0.24
796.009	0.07
796.183	0.63
796.356	0.61
796.53	0.34
796.703	0.01
796.876	0.42
797.05	0.09
797.223	0.19
797.396	0.2
797.57	0.28
797.743	0.51
797.916	0.41
798.09	0.23
798.263	0.33
798.436	0.51
798.609	0.08
798.782	0.24
798.956	0.26
799.129	0.23
799.302	0.15
799.475	0.29
799.648	0.02
799.821	0.05
799.994	0.4
800.167	0.05
800.34	0.21
800.514	0.23
800.687	0.11
800.86	-0.03
801.033	0.17
801.206	0.51
801.379	-0.14
801.551	0.59
801.724	0.44
801.897	0.59
802.07	0.1
802.243	-0.04
802.416	0.07
802.589	0.03
802.762	0.47
802.935	0.22
803.107	0.48
803.28	0.37
803.453	0.4
803.626	0.08
803.798	0.44
803.971	-0.11
804.144	0.22
804.317	0.43
804.489	0.41
804.662	0.02
804.835	0.22
805.007	0.05
805.18	0.75
805.353	0.34
805.525	0.06
805.698	-0.02
805.87	0.43
806.043	0.62
806.215	-0.07
806.388	0.23
806.56	0.19
806.733	0.7
806.905	0.44
807.078	0.2
807.25	0.33
807.423	0.41
807.595	0.32
807.768	0.41
807.94	0.81
808.112	0.54
808.285	0.46
808.457	0.01
808.629	0.24
808.802	0.37
808.974	0.48
809.146	0.19
809.318	0.17
809.491	0.5
809.663	0.5
809.835	0.22
810.007	0.46
810.18	0.57
810.352	-0.17
810.524	0.23
810.696	0.63
810.868	0.59
811.04	0.57
811.212	0.33
811.384	0.69
811.556	0.15
811.728	0.6
811.901	0.96
812.073	0.22
812.245	0.71
812.417	0.32
812.589	-0.12
812.76	0.24
812.932	0.54
813.104	0.23
813.276	-0.01
813.448	0.76
813.62	0
813.792	0.44
813.964	0.22
814.136	0.44
814.307	0.13
814.479	0.23
814.651	0.4
814.823	1.35
814.995	0.33
815.166	0.44
815.338	-0.06
815.51	-0.26
815.681	1.21
815.853	0.29
816.025	0.31
816.196	0.94
816.368	0.62
816.54	0.05
816.711	-0.29
816.883	0.41
817.054	1.17
817.226	-0.4
817.398	0.34
817.569	0.16
817.741	0.12
817.912	0.2
818.084	0.12
818.255	0.52
818.426	0.12
818.598	0.27
818.769	0.16
818.941	0.29
819.112	0.53
819.283	0.64
819.455	-0.15
819.626	0.15
819.798	0.7
819.969	0.14
820.14	0.17
820.311	0.47
820.483	0.48
820.654	0.57
820.825	-0.1
820.996	0.06
821.168	-0.29
821.339	0.22
821.51	0.04
821.681	0.05
821.852	0.22
822.023	-0.21
822.195	-0.28
822.366	0.98
822.537	0.44
822.708	0.52
822.879	0.14
823.05	1.25
823.221	0.56
823.392	0.7
823.563	0.26
823.734	0.78
823.905	0.03
824.076	0.7
824.247	0.14
824.418	0.1
824.589	0.95
824.759	0.83
824.93	0.27
825.101	0.02
825.272	0.77
825.443	1.17
825.614	0.33
825.784	-0.75
825.955	1.97
826.126	1.12
826.297	0.37
826.467	1.41
826.638	0.63
826.809	-0.12
826.98	0.5
827.15	0.31
827.321	0.31
827.492	0.7
827.662	0.8
827.833	1.36
828.003	1.15
828.174	0.27
828.345	-0.01
828.515	0.96
828.686	0.15
828.856	0.06
829.027	0.54
829.197	0.4
829.368	0.59
829.538	0.4
829.709	0.1
829.879	0.94
830.049	0.26
830.22	0.53
830.39	0.21
830.56	0.87
830.731	0.17
830.901	-0.47
831.072	0.81
831.242	0.72
831.412	0.65
831.582	0.46
831.753	-0.03
831.923	0.8
832.093	0.29
832.263	0.26
832.434	0.01
832.604	0.26
832.774	1.2
832.944	0.46
833.114	0.43
833.284	0.56
833.454	-0.37
833.624	0.2
833.795	-0.02
833.965	0.79
834.135	1.51
834.305	0.3
834.475	-0.45
834.645	-0.13
834.815	-0.59
834.985	0.1
835.155	0.37
835.325	0.95
835.494	1.1
835.664	0.46
835.834	-0.44
836.004	1.39
836.174	1.15
836.344	0.62
836.514	-0.24
836.684	0.46
836.853	0.99
837.023	0.94
837.193	0.35
837.363	1.03
837.532	1.87
837.702	0.67
837.872	0.21
838.041	0.97
838.211	1.31
838.381	-0.43
838.55	0.6
838.72	1.59
838.89	1.62
839.059	0.56
839.229	-0.2
839.398	1.56
839.568	0.76
839.738	1.02
839.907	1.62
840.077	0.96
840.246	-0.04
840.416	0.72
840.585	0.83
840.755	1.48
840.924	1.26
841.093	0.44
841.263	0.6
841.432	1.55
841.602	0
841.771	-0.18
841.94	0.84
842.11	2.38
842.279	2.25
842.448	0.32
842.617	-0.28
842.787	2.2
842.956	0.12
843.125	-0.02
843.294	1.32
843.464	0.95
843.633	-0.17
843.802	-0.63
843.971	0.41
844.14	1.78
844.309	1.89
844.479	0.04
844.648	0.28
844.817	0.28
844.986	0.83
845.155	0.16
845.324	0.35
845.493	0.36
845.662	-0.09
845.831	0.93
846	1.55
846.169	0.74
846.338	2.21
846.507	0.96
846.676	0.88
846.844	0.46
847.013	1.13
847.182	0.74
847.351	0.13
847.52	0.11
847.689	1.34
847.858	1.43
848.026	0.46
848.195	0.88
848.364	0.42
848.533	0.14
848.701	0.57
848.87	-0.31
849.039	1.85
849.207	1.62
849.376	1.2
849.545	1.77
849.713	0.28
849.882	0.69
850.051	0.51
850.219	0.99
850.388	2.15
850.556	-0.23
850.725	-0.27
850.893	1.75
851.062	0.61
851.23	1.23
851.399	-0.04
851.567	-0.43
851.736	0.12
851.904	0.43
852.073	0.41
852.241	0.49
852.41	1.06
852.578	0.44
852.746	1.09
852.915	1.29
853.083	1.58
853.251	-0.11
853.42	0.21
853.588	1.92
853.756	1.27
853.924	0.37
854.093	0.43
854.261	1.26
854.429	0.87
854.597	1.1
854.765	0.57
854.934	1.52
855.102	2.19
855.27	1.09
855.438	1.08
855.606	2.09
855.774	3.03
855.942	-0.22
856.11	-1.27
856.278	0.41
856.446	1.27
856.614	1.11
856.782	-0.36
856.95	2.2
857.118	1.72
857.286	2.07
857.454	0.38
857.622	1.6
857.79	1.72
857.958	0.44
858.126	0.09
858.294	-2
858.462	1.32
858.629	0.61
858.797	-0.09
858.965	1.6
859.133	1.59
859.301	0.51
859.468	0.2
859.636	1.4
859.804	2.55
859.971	1.61
860.139	0.82
860.307	1.64
860.474	0.15
860.642	-0.29
860.81	1.32
860.977	1.02
861.145	2.26
861.313	0.71
861.48	1.35
861.648	2.14
861.815	1.34
861.983	-0.32
862.15	0.94
862.318	1.76
862.485	2.74
862.653	1.13
862.82	0.18
862.988	2.96
863.155	1.47
863.322	1.08
863.49	-0.62
863.657	-0.14
863.824	2.39
863.992	1.86
864.159	2.89
864.326	3.55
864.494	0.15
864.661	3.43
864.828	0.39
864.996	3.28
865.163	4.85
865.33	0.87
865.497	-0.3
865.664	0.73
865.832	-0.82
865.999	0.57
866.166	0.21
866.333	-0.12
866.5	0.04
866.667	0.96
866.834	0.66
867.001	1.73
867.168	0.43
867.335	2.16
867.502	-0.77
867.669	1.85
867.836	2.83
868.003	0.78
868.17	2.11
868.337	0.97
868.504	2.72
868.671	0.47
868.838	-0.83
869.005	1.16
869.172	0.79
869.339	0.99
869.505	0.44
869.672	0.6
869.839	3.13
870.006	2.28
870.173	-0.32
870.339	1.51
870.506	4.01
870.673	-1.28
870.84	1.78
871.006	0.79
871.173	0.64
871.34	0.83
871.506	-0.37
871.673	1.67
871.839	-1.06
872.006	1.51
872.173	0.86
872.339	2
872.506	2
872.672	1.06
872.839	-0.73
873.005	-0.25
873.172	4.22
873.338	1.95
873.505	1.17
873.671	2.24
873.838	2.2
874.004	-1.28
874.171	0.19
874.337	1.66
874.503	2.63
874.67	-0.14
874.836	2.29
875.002	3.47
875.169	-0.09
875.335	1.76
875.501	0.4
875.668	2.62
875.834	2.5
876	0.6
876.166	1.77
876.332	1.04
876.499	4.35
876.665	1.6
876.831	1.88
876.997	4.78
877.163	0.64
877.329	2.12
877.495	1.92
877.662	2.73
877.828	2.01
877.994	0.79
878.16	-1.66
878.326	0.72
878.492	1.85
878.658	-1.15
878.824	2.43
878.99	1.41
879.156	0.37
879.322	3.36
879.487	0.75
879.653	1.93
879.819	3.32
879.985	0.09
880.151	2.33
880.317	1.29
880.483	1.81
880.648	3.7
880.814	-1.66
880.98	0.88
881.146	-0.6
881.312	1.24
881.477	0.6
881.643	1.73
881.809	3.37
881.974	2.95
882.14	-1.22
882.306	2.75
882.471	4.82
882.637	2.07
882.803	1.95
882.968	2.79
883.134	4.64
883.299	0.77
883.465	1.31
883.63	2.15
883.796	2.76
883.961	2.47
884.127	1.93
884.292	-2.51
884.458	1
884.623	1
