Data from Apollo_Calib_20240827__AbsoluteIrradiance__338__04-47-01-593.txt Node

Date: Wed Aug 28 04:47:01 BST 2024
User: biology
Spectrometer: FLMT08252
Trigger mode: 0
Integration Time (sec): 5.000000E-1
Scans to average: 5
Electric dark correction enabled: true
Nonlinearity correction enabled: false
Boxcar width: 0
XAxis mode: Wavelengths
Number of Pixels in Spectrum: 3648
>>>>>Begin Spectral Data<<<<<
179.588	-0
179.809	-0
180.03	-0
180.251	-0
180.473	-0
180.694	0
180.915	0
181.136	-0
181.357	0
181.578	-0
181.799	-0
182.02	-0
182.241	-0
182.462	-0
182.683	0
182.904	-0
183.125	-0
183.346	0
183.567	0
183.788	-0
184.009	-0
184.23	0
184.451	0
184.672	-0
184.892	-0
185.113	0
185.334	0
185.555	-0
185.776	-0
185.996	0
186.217	0
186.438	0
186.659	-0
186.879	0
187.1	0
187.321	-0
187.541	-0
187.762	0
187.983	-0
188.203	0
188.424	0
188.644	0
188.865	0
189.086	-0
189.306	-0
189.527	0
189.747	0
189.968	-0
190.188	0
190.409	0
190.629	0
190.849	-0
191.07	-0
191.29	0
191.511	0
191.731	-0
191.951	-0
192.172	0
192.392	0
192.612	-0
192.833	0
193.053	0
193.273	0
193.493	-0
193.714	0
193.934	0
194.154	0
194.374	0
194.594	0
194.815	0
195.035	0
195.255	0
195.475	-0
195.695	0
195.915	0
196.135	0
196.355	0
196.575	0
196.795	0
197.015	-0
197.235	-0
197.455	0
197.675	0
197.895	-0
198.115	-0
198.335	0
198.555	0
198.775	0
198.995	0
199.214	0
199.434	0
199.654	-0
199.874	-0
200.094	1.39
200.313	0.18
200.533	-0.18
200.753	-0.64
200.973	0.85
201.192	0.78
201.412	-0.56
201.632	-0.32
201.851	1.04
202.071	-0.05
202.291	-0.1
202.51	-0.35
202.73	0.82
202.95	-0.16
203.169	-0.46
203.389	-0.05
203.608	0.79
203.828	-0.17
204.047	-0.08
204.267	0.49
204.486	0.22
204.706	0.46
204.925	-0.04
205.145	-0.02
205.364	0.74
205.583	0.93
205.803	-0.2
206.022	-0.17
206.242	0.27
206.461	0.28
206.68	-0.18
206.9	0.47
207.119	0.77
207.338	0.87
207.557	-0.26
207.777	0.03
207.996	0.26
208.215	0.71
208.434	-0.12
208.654	-0.14
208.873	0.17
209.092	0.54
209.311	0.02
209.53	0.12
209.749	0.18
209.968	-0.05
210.187	0.09
210.407	-0.14
210.626	0.06
210.845	0.52
211.064	-0.03
211.283	-0.41
211.502	0.52
211.721	0.28
211.94	0.09
212.159	0.37
212.377	0.63
212.596	0.34
212.815	0.03
213.034	0.24
213.253	0.46
213.472	0.27
213.691	0.09
213.91	-0.13
214.128	0.13
214.347	0.56
214.566	-0.19
214.785	-0.18
215.003	0.38
215.222	0.23
215.441	0.23
215.66	-0.21
215.878	0.15
216.097	0.4
216.316	-0.09
216.534	-0.09
216.753	0.15
216.972	0.08
217.19	-0.03
217.409	-0.28
217.627	0.04
217.846	-0.01
218.064	0.01
218.283	-0.06
218.501	0.55
218.72	0.1
218.938	-0.1
219.157	-0.08
219.375	0.28
219.594	0.32
219.812	-0.12
220.031	-0.25
220.249	0.48
220.467	0.33
220.686	-0.09
220.904	-0.12
221.122	0.09
221.341	0.44
221.559	0.11
221.777	-0.23
221.995	0.02
222.214	0.25
222.432	-0.05
222.65	0.31
222.868	0.14
223.086	0.24
223.305	0.14
223.523	-0.01
223.741	0.33
223.959	-0.03
224.177	-0.22
224.395	0.02
224.613	0.24
224.831	0.31
225.049	-0.07
225.267	0.02
225.485	0.22
225.703	0.06
225.921	0.06
226.139	-0.14
226.357	0.24
226.575	0.29
226.793	-0.03
227.011	0.63
227.229	0.2
227.447	0.31
227.665	0.1
227.883	-0.14
228.1	0.02
228.318	0.13
228.536	-0.23
228.754	-0.03
228.972	0.15
229.189	0.26
229.407	0.05
229.625	-0.01
229.843	0.26
230.06	0.27
230.278	-0.02
230.496	0.14
230.713	0.09
230.931	0.21
231.149	-0.04
231.366	-0.13
231.584	0
231.801	0.41
232.019	-0.04
232.236	-0.06
232.454	-0.12
232.671	0.22
232.889	0.03
233.106	-0.03
233.324	0.03
233.541	-0.03
233.759	0.07
233.976	0.03
234.194	0.08
234.411	0.08
234.628	-0.06
234.846	0.06
235.063	0.02
235.28	0.01
235.498	0.03
235.715	-0.15
235.932	0.21
236.149	0.06
236.367	0.02
236.584	0.09
236.801	-0.04
237.018	0.15
237.236	0.02
237.453	-0.16
237.67	0.15
237.887	0.06
238.104	0.1
238.321	-0.07
238.538	0.02
238.755	0.25
238.973	-0.09
239.19	0.08
239.407	0.14
239.624	0.14
239.841	0.01
240.058	-0.05
240.275	0.05
240.492	0.02
240.709	0.14
240.925	0.03
241.142	0.11
241.359	-0.13
241.576	-0.09
241.793	-0.03
242.01	0.06
242.227	0.25
242.444	0.13
242.66	0.19
242.877	0.09
243.094	-0.03
243.311	0.06
243.527	0.02
243.744	0.12
243.961	0.19
244.178	-0.05
244.394	-0.03
244.611	0.18
244.828	0.32
245.044	0.03
245.261	0.02
245.477	0.08
245.694	0.07
245.911	-0.03
246.127	0.1
246.344	0.21
246.56	0.08
246.777	0
246.993	-0
247.21	0.16
247.426	0.08
247.643	0.01
247.859	-0.06
248.076	-0.01
248.292	0.2
248.508	0.08
248.725	0.14
248.941	0.1
249.157	0.15
249.374	0
249.59	0.08
249.806	-0
250.023	0.19
250.239	-0.01
250.455	-0
250.671	0.01
250.888	0.07
251.104	0.06
251.32	0.07
251.536	0.09
251.752	0.13
251.969	0.08
252.185	0.01
252.401	0.2
252.617	0.13
252.833	0.04
253.049	0.08
253.265	0.12
253.481	0.09
253.697	0.11
253.913	-0.02
254.129	0.15
254.345	0.07
254.561	0.03
254.777	-0.04
254.993	0.08
255.209	0.12
255.425	-0
255.641	-0.1
255.857	0.18
256.073	0.11
256.288	-0.08
256.504	0
256.72	0.07
256.936	0.14
257.152	0.06
257.367	-0.01
257.583	0.05
257.799	0.08
258.015	0.02
258.23	0.05
258.446	0.17
258.662	0.07
258.877	0.04
259.093	-0.06
259.309	0.09
259.524	0.1
259.74	0.05
259.955	-0.04
260.171	0.04
260.387	0.04
260.602	0.08
260.818	0.09
261.033	0.05
261.249	0.03
261.464	0.03
261.68	-0.06
261.895	0.12
262.11	0.18
262.326	-0.02
262.541	-0.07
262.757	0.19
262.972	0.09
263.187	0.07
263.403	0.03
263.618	0.22
263.833	0.08
264.049	-0.01
264.264	0.06
264.479	0.08
264.694	0.19
264.91	-0.07
265.125	0.01
265.34	0.15
265.555	0.25
265.77	0.13
265.986	0.04
266.201	0.04
266.416	0.13
266.631	0.01
266.846	0.04
267.061	0.12
267.276	0.13
267.491	-0.03
267.706	0.07
267.921	0.13
268.136	0.09
268.351	0.05
268.566	-0.04
268.781	0.17
268.996	0.09
269.211	0.04
269.426	0.03
269.641	0
269.856	0.09
270.071	0.01
270.285	-0.05
270.5	0.1
270.715	0.17
270.93	0.03
271.145	0.08
271.359	0.17
271.574	0.02
271.789	0.09
272.004	-0
272.218	0.02
272.433	0.09
272.648	-0.05
272.862	0.18
273.077	0.08
273.292	0.1
273.506	-0
273.721	0.04
273.936	0.07
274.15	0.07
274.365	0.02
274.579	0.09
274.794	0.13
275.008	0.18
275.223	-0.05
275.437	-0
275.652	0.18
275.866	0.12
276.081	0.07
276.295	0.11
276.509	0.03
276.724	0.06
276.938	0.08
277.153	0.08
277.367	0.13
277.581	0.03
277.796	0.03
278.01	0.02
278.224	0.08
278.438	0.17
278.653	-0
278.867	0.01
279.081	-0.14
279.295	-0.02
279.51	0.12
279.724	-0.02
279.938	0.09
280.152	0.08
280.366	0.05
280.58	0.07
280.794	0.19
281.008	0.12
281.222	0.13
281.437	0.14
281.651	0.08
281.865	0.16
282.079	0.05
282.293	-0.11
282.507	0.04
282.721	0.09
282.935	0.06
283.148	-0.03
283.362	0.02
283.576	-0.03
283.79	0.1
284.004	0.04
284.218	0.13
284.432	0.06
284.646	0.04
284.859	0
285.073	0.05
285.287	0.08
285.501	0.07
285.714	0.03
285.928	0.07
286.142	0.09
286.356	0.05
286.569	0.06
286.783	0.18
286.997	0.11
287.21	0.07
287.424	0.06
287.637	0.08
287.851	0.01
288.065	0.08
288.278	0.09
288.492	0.11
288.705	0.03
288.919	0.1
289.132	-0
289.346	0.15
289.559	-0.04
289.773	0
289.986	0.03
290.2	0.01
290.413	0.13
290.626	-0.01
290.84	0.06
291.053	0.09
291.267	0.12
291.48	0.08
291.693	0.04
291.906	0.04
292.12	0.01
292.333	0.05
292.546	0
292.76	0.17
292.973	0.09
293.186	0.13
293.399	0.04
293.612	0.1
293.826	0.1
294.039	0.08
294.252	0.07
294.465	0.1
294.678	0.09
294.891	0.07
295.104	-0.03
295.317	0.06
295.53	0.06
295.743	0.06
295.956	0.03
296.169	0.18
296.382	0.12
296.595	0.08
296.808	0.01
297.021	0.13
297.234	0.14
297.447	0.08
297.66	0.1
297.873	0.14
298.086	0.09
298.299	-0.01
298.511	0.01
298.724	0.02
298.937	0.04
299.15	0.01
299.363	0.05
299.575	0.11
299.788	0.1
300.001	0.03
300.213	-0.03
300.426	0.05
300.639	0.03
300.852	0.03
301.064	0.12
301.277	0.14
301.489	0.12
301.702	0.1
301.915	0.06
302.127	0.06
302.34	0.08
302.552	0.12
302.765	0.06
302.977	0.12
303.19	0.07
303.402	0.05
303.615	0.05
303.827	-0
304.04	0.04
304.252	0.09
304.464	0.02
304.677	0.16
304.889	0.17
305.102	0.04
305.314	0.06
305.526	0.11
305.739	0.11
305.951	0.02
306.163	0.03
306.375	0.13
306.588	0.03
306.8	0.04
307.012	0.01
307.224	0.1
307.436	0.23
307.649	-0
307.861	0.08
308.073	0.07
308.285	0.05
308.497	0.04
308.709	-0.01
308.921	0.06
309.133	0.13
309.346	0.02
309.558	0.06
309.77	0.09
309.982	0.14
310.194	0.1
310.406	0.03
310.617	0.15
310.829	0.08
311.041	0.06
311.253	0.03
311.465	0.06
311.677	0.06
311.889	0.05
312.101	0.02
312.313	0.12
312.524	0.13
312.736	-0.03
312.948	0.03
313.16	0.12
313.372	0.1
313.583	0.04
313.795	0.08
314.007	0.06
314.218	0.13
314.43	0.04
314.642	0.04
314.853	0.01
315.065	0.12
315.277	0.08
315.488	0.07
315.7	0.09
315.912	0.09
316.123	0.05
316.335	0.05
316.546	0.18
316.758	0.07
316.969	0.06
317.181	0.08
317.392	0.09
317.604	0.12
317.815	-0.01
318.026	0.01
318.238	0.06
318.449	0.08
318.661	-0.01
318.872	0.02
319.083	-0.05
319.295	0.11
319.506	0.05
319.717	0.08
319.929	0.1
320.14	0.11
320.351	0.08
320.562	0.03
320.774	0.08
320.985	0.08
321.196	0.03
321.407	-0.01
321.618	0.09
321.829	0.1
322.041	0.06
322.252	0.11
322.463	0.11
322.674	0.06
322.885	0.02
323.096	0.03
323.307	0.06
323.518	0.04
323.729	0.03
323.94	0.05
324.151	0.06
324.362	0.1
324.573	0.05
324.784	0.06
324.995	0.13
325.206	0.08
325.417	0.05
325.628	0.04
325.838	0.03
326.049	0.1
326.26	0.08
326.471	0.06
326.682	0.07
326.892	0.05
327.103	0.01
327.314	-0
327.525	0.16
327.735	0.08
327.946	0.06
328.157	0.03
328.368	0.06
328.578	0.06
328.789	0.11
328.999	0.05
329.21	0.03
329.421	0.07
329.631	0.01
329.842	0.02
330.052	0.07
330.263	0.14
330.473	0.06
330.684	0.01
330.894	0.04
331.105	0.09
331.315	0.04
331.526	0.01
331.736	0.13
331.947	0.09
332.157	0.11
332.367	-0.03
332.578	0.07
332.788	0.11
332.999	0.1
333.209	0.03
333.419	0.02
333.629	0.09
333.84	0.06
334.05	0.05
334.26	0.12
334.47	0.05
334.681	0.09
334.891	0.03
335.101	0.08
335.311	0.15
335.521	0.06
335.732	-0
335.942	0.1
336.152	0.08
336.362	0.07
336.572	0.07
336.782	0.09
336.992	0.02
337.202	0.03
337.412	0
337.622	0.1
337.832	0.03
338.042	0.04
338.252	0.05
338.462	0.05
338.672	0.09
338.882	0.02
339.092	0.04
339.302	0.13
339.511	0.12
339.721	0.02
339.931	0.06
340.141	0.12
340.351	0.14
340.561	0.08
340.77	0.07
340.98	0.05
341.19	0.1
341.4	0.06
341.609	0.04
341.819	0.04
342.029	0.01
342.238	0.06
342.448	0.01
342.658	0.08
342.867	0.08
343.077	0.04
343.286	0.08
343.496	0.08
343.706	0.12
343.915	0.03
344.125	0.09
344.334	0.09
344.544	0.01
344.753	0.06
344.963	0.02
345.172	0.03
345.381	0.05
345.591	0.02
345.8	0.07
346.01	0.11
346.219	0.09
346.428	-0.07
346.638	0.07
346.847	0.04
347.056	0.15
347.266	0.02
347.475	0.08
347.684	0.13
347.893	0.06
348.103	0.07
348.312	0.05
348.521	0.07
348.73	0.04
348.94	0.07
349.149	-0
349.358	0.03
349.567	0.05
349.776	0.01
349.985	0.06
350.194	0.13
350.403	0.1
350.612	-0
350.821	0.04
351.03	0.06
351.239	0.02
351.448	0.07
351.657	0.05
351.866	0.14
352.075	0.03
352.284	0.12
352.493	0
352.702	0.07
352.911	0.08
353.12	0.08
353.329	0.03
353.538	0.06
353.746	0.07
353.955	0.01
354.164	0.07
354.373	0.07
354.582	0.08
354.79	0.05
354.999	0.1
355.208	0.04
355.416	0.1
355.625	0
355.834	0.07
356.042	0.08
356.251	0.05
356.46	0.03
356.668	0.06
356.877	0.17
357.085	0.12
357.294	0.01
357.503	0.09
357.711	0.04
357.92	0.21
358.128	0.06
358.337	0.03
358.545	0.11
358.754	0.06
358.962	0.08
359.17	0.05
359.379	0.06
359.587	0.13
359.796	0.05
360.004	0.13
360.212	0.06
360.421	0.14
360.629	0.07
360.837	0.05
361.046	0.09
361.254	0.2
361.462	0.06
361.67	0.04
361.879	0.1
362.087	0.12
362.295	0.03
362.503	0.05
362.711	0.01
362.92	0.02
363.128	0.08
363.336	0.03
363.544	-0.02
363.752	0.06
363.96	-0.01
364.168	0.01
364.376	0.03
364.584	0.04
364.792	0.11
365	0.08
365.208	0.06
365.416	0.1
365.624	0.1
365.832	0.06
366.04	0.12
366.248	0.08
366.456	0.09
366.664	0.09
366.872	0.06
367.079	0.06
367.287	0.04
367.495	0.06
367.703	0.07
367.911	0.03
368.118	0.09
368.326	0.08
368.534	0.07
368.742	0.13
368.949	0.04
369.157	0.04
369.365	0.1
369.572	0.05
369.78	-0.03
369.988	0.09
370.195	0.08
370.403	0.1
370.61	0.04
370.818	0.08
371.026	0.14
371.233	0.04
371.441	0.1
371.648	0
371.856	0.11
372.063	0.02
372.271	0.05
372.478	0.05
372.685	0.03
372.893	0.12
373.1	0.05
373.308	0.04
373.515	0.17
373.722	0.07
373.93	0.06
374.137	0.1
374.344	0.13
374.552	0.1
374.759	0.1
374.966	0.09
375.173	0.08
375.381	0.1
375.588	0.09
375.795	0.02
376.002	0.04
376.209	0.03
376.417	0.06
376.624	0.1
376.831	0.06
377.038	0.08
377.245	-0.02
377.452	0.03
377.659	0.07
377.866	0.05
378.073	0.04
378.28	0.06
378.487	0.12
378.694	0.1
378.901	0.09
379.108	0.06
379.315	0.07
379.522	0.15
379.729	0.07
379.936	0.03
380.143	0.1
380.35	0.05
380.557	0.07
380.763	0.04
380.97	0.07
381.177	0.12
381.384	0.09
381.591	0.08
381.797	0.1
382.004	0.1
382.211	0.1
382.418	0.07
382.624	0.1
382.831	0.11
383.038	0.06
383.244	0.11
383.451	0.07
383.658	0.08
383.864	0.06
384.071	0.05
384.277	0.08
384.484	0.05
384.69	0.09
384.897	0.07
385.103	0.05
385.31	0.02
385.516	0.04
385.723	0.06
385.929	0.05
386.136	0.04
386.342	0.11
386.549	0.06
386.755	0.12
386.961	0.13
387.168	0.07
387.374	0.1
387.58	0.1
387.787	0.11
387.993	0.09
388.199	0.09
388.406	0.05
388.612	0.07
388.818	0.02
389.024	0.08
389.231	0.06
389.437	0.18
389.643	0.13
389.849	0.07
390.055	0.08
390.261	0.1
390.467	0.07
390.674	0.05
390.88	0.04
391.086	0.11
391.292	0.02
391.498	0.13
391.704	0.11
391.91	0.06
392.116	0.05
392.322	-0.02
392.528	0.09
392.734	0.04
392.94	0.04
393.146	0.09
393.352	0.11
393.557	0.09
393.763	0.08
393.969	0.1
394.175	0.07
394.381	0.08
394.587	0.01
394.792	0.06
394.998	0.13
395.204	0.17
395.41	0.04
395.615	0.1
395.821	0.09
396.027	0.08
396.233	0.04
396.438	0.09
396.644	0.2
396.85	0.12
397.055	0.07
397.261	0.08
397.466	0.08
397.672	0.12
397.878	0.14
398.083	0.12
398.289	0.03
398.494	0.17
398.7	0.12
398.905	0.03
399.111	0.16
399.316	0.04
399.522	0.1
399.727	0.08
399.932	0.11
400.138	0.05
400.343	0.11
400.549	0.07
400.754	0.1
400.959	0.1
401.165	0.13
401.37	0.1
401.575	0.19
401.78	0.13
401.986	0.08
402.191	0.07
402.396	0.08
402.601	0.15
402.807	0.13
403.012	0.1
403.217	0.17
403.422	0.11
403.627	0.08
403.832	0.08
404.037	0.17
404.243	0.12
404.448	0.1
404.653	0.12
404.858	0.13
405.063	0.17
405.268	0.14
405.473	0.06
405.678	0.08
405.883	0.25
406.088	0.16
406.293	0.1
406.498	0.12
406.703	0.17
406.907	0.13
407.112	0.05
407.317	0.14
407.522	0.16
407.727	0.09
407.932	0.15
408.136	0.21
408.341	0.16
408.546	0.17
408.751	0.14
408.956	0.12
409.16	0.19
409.365	0.15
409.57	0.14
409.774	0.18
409.979	0.22
410.184	0.17
410.388	0.13
410.593	0.26
410.798	0.22
411.002	0.21
411.207	0.25
411.411	0.26
411.616	0.17
411.82	0.19
412.025	0.25
412.229	0.2
412.434	0.28
412.638	0.26
412.843	0.23
413.047	0.27
413.252	0.28
413.456	0.23
413.66	0.34
413.865	0.27
414.069	0.36
414.273	0.28
414.478	0.28
414.682	0.36
414.886	0.32
415.091	0.32
415.295	0.26
415.499	0.42
415.703	0.38
415.908	0.46
416.112	0.34
416.316	0.51
416.52	0.45
416.724	0.41
416.929	0.4
417.133	0.62
417.337	0.5
417.541	0.5
417.745	0.52
417.949	0.61
418.153	0.7
418.357	0.6
418.561	0.81
418.765	0.75
418.969	0.81
419.173	0.78
419.377	0.76
419.581	0.93
419.785	0.86
419.989	0.84
420.193	0.97
420.397	0.97
420.601	1.05
420.804	1.11
421.008	1.07
421.212	1.17
421.416	1.13
421.62	1.12
421.823	1.19
422.027	1.28
422.231	1.29
422.435	1.25
422.638	1.35
422.842	1.44
423.046	1.39
423.249	1.56
423.453	1.52
423.657	1.66
423.86	1.71
424.064	1.72
424.268	1.87
424.471	1.81
424.675	2
424.878	2.05
425.082	2.12
425.285	2.27
425.489	2.14
425.692	2.3
425.896	2.29
426.099	2.46
426.303	2.49
426.506	2.53
426.71	2.68
426.913	2.88
427.116	3.01
427.32	2.96
427.523	2.98
427.726	3.15
427.93	3.22
428.133	3.45
428.336	3.51
428.54	3.61
428.743	3.72
428.946	3.92
429.149	4.02
429.353	4.02
429.556	4.08
429.759	4.1
429.962	4.17
430.165	4.27
430.368	4.14
430.571	4.17
430.775	4.32
430.978	4.27
431.181	4.27
431.384	4.42
431.587	4.38
431.79	4.71
431.993	4.69
432.196	4.88
432.399	5.05
432.602	5.23
432.805	5.18
433.008	5.56
433.211	5.42
433.414	5.7
433.616	5.7
433.819	5.72
434.022	5.81
434.225	6.07
434.428	6.14
434.631	6.4
434.833	6.26
435.036	6.42
435.239	6.63
435.442	6.7
435.645	6.68
435.847	6.86
436.05	7.17
436.253	7.29
436.455	7.4
436.658	7.28
436.861	7.56
437.063	7.68
437.266	7.73
437.468	7.91
437.671	8.37
437.874	8.37
438.076	8.32
438.279	8.58
438.481	8.8
438.684	9.37
438.886	9.31
439.089	9.56
439.291	9.61
439.494	10.09
439.696	10.21
439.899	10.75
440.101	11.12
440.303	11.34
440.506	12.04
440.708	11.95
440.91	12.2
441.113	12.53
441.315	12.78
441.517	12.79
441.72	13.46
441.922	13.2
442.124	13.54
442.326	13.73
442.529	14.11
442.731	14.26
442.933	14.76
443.135	14.67
443.337	14.84
443.539	15.43
443.742	15.34
443.944	16.15
444.146	16.07
444.348	16.18
444.55	16.18
444.752	16.46
444.954	16.69
445.156	16.86
445.358	17.29
445.56	17.74
445.762	17.65
445.964	18.19
446.166	18.09
446.368	18.4
446.57	18.35
446.772	18.38
446.974	18.04
447.175	18.59
447.377	18.16
447.579	18.85
447.781	18.71
447.983	18.46
448.184	18.05
448.386	18.62
448.588	18.16
448.79	18.22
448.991	18.72
449.193	18.66
449.395	18.13
449.597	17.56
449.798	17.6
450	17.24
450.202	16.97
450.403	17.19
450.605	17.07
450.806	16.67
451.008	16.38
451.21	16.36
451.411	15.75
451.613	14.93
451.814	15.15
452.016	15.08
452.217	14.31
452.419	14.27
452.62	13.88
452.821	13.64
453.023	13.34
453.224	12.98
453.426	12.59
453.627	11.67
453.828	11.78
454.03	11.83
454.231	11.79
454.432	11.55
454.634	11.21
454.835	10.83
455.036	10.76
455.238	10.37
455.439	9.96
455.64	9.76
455.841	9.59
456.042	9.52
456.244	9.19
456.445	9.04
456.646	8.68
456.847	8.57
457.048	8.33
457.249	8.43
457.45	8.14
457.651	7.63
457.852	7.48
458.054	7.1
458.255	6.99
458.456	7.12
458.657	6.98
458.858	6.47
459.058	6.36
459.259	6.52
459.46	6.15
459.661	6.2
459.862	6.19
460.063	6.11
460.264	5.89
460.465	5.77
460.666	5.73
460.866	5.45
461.067	5.1
461.268	5.24
461.469	5.07
461.67	5.07
461.87	4.88
462.071	4.84
462.272	4.83
462.473	4.66
462.673	4.86
462.874	4.71
463.075	4.73
463.275	4.65
463.476	4.69
463.676	4.65
463.877	4.42
464.078	4.42
464.278	4.41
464.479	4.24
464.679	4.15
464.88	4.09
465.08	3.99
465.281	3.82
465.481	3.65
465.682	3.45
465.882	3.47
466.083	3.39
466.283	3.3
466.483	3.13
466.684	2.97
466.884	2.88
467.085	2.92
467.285	2.91
467.485	2.79
467.686	2.69
467.886	2.62
468.086	2.5
468.286	2.43
468.487	2.5
468.687	2.34
468.887	2.33
469.087	2.35
469.287	2.25
469.488	2.11
469.688	2.18
469.888	2.14
470.088	2.06
470.288	1.98
470.488	1.93
470.688	1.78
470.888	1.77
471.088	1.58
471.288	1.72
471.488	1.69
471.688	1.64
471.888	1.54
472.088	1.65
472.288	1.57
472.488	1.44
472.688	1.36
472.888	1.45
473.088	1.38
473.288	1.3
473.488	1.21
473.688	1.41
473.887	1.3
474.087	1.23
474.287	1.27
474.487	1.17
474.687	1.24
474.886	1.09
475.086	1.07
475.286	1.1
475.486	1.02
475.685	1.04
475.885	0.99
476.085	0.97
476.284	1.02
476.484	0.94
476.684	0.94
476.883	0.97
477.083	0.92
477.282	0.83
477.482	0.91
477.681	0.86
477.881	0.81
478.08	0.77
478.28	0.75
478.479	0.81
478.679	0.83
478.878	0.69
479.078	0.72
479.277	0.73
479.477	0.7
479.676	0.7
479.875	0.67
480.075	0.57
480.274	0.67
480.473	0.67
480.673	0.62
480.872	0.66
481.071	0.61
481.271	0.6
481.47	0.53
481.669	0.55
481.868	0.5
482.067	0.51
482.267	0.52
482.466	0.47
482.665	0.42
482.864	0.43
483.063	0.45
483.262	0.48
483.461	0.5
483.661	0.49
483.86	0.45
484.059	0.45
484.258	0.44
484.457	0.42
484.656	0.36
484.855	0.45
485.054	0.33
485.253	0.35
485.452	0.35
485.651	0.35
485.849	0.36
486.048	0.31
486.247	0.29
486.446	0.37
486.645	0.28
486.844	0.29
487.043	0.31
487.241	0.31
487.44	0.25
487.639	0.27
487.838	0.3
488.037	0.27
488.235	0.33
488.434	0.28
488.633	0.2
488.831	0.24
489.03	0.27
489.229	0.23
489.427	0.23
489.626	0.3
489.825	0.29
490.023	0.2
490.222	0.16
490.42	0.22
490.619	0.23
490.817	0.2
491.016	0.18
491.214	0.23
491.413	0.2
491.611	0.18
491.81	0.16
492.008	0.2
492.207	0.19
492.405	0.19
492.604	0.13
492.802	0.17
493	0.18
493.199	0.13
493.397	0.17
493.595	0.15
493.794	0.14
493.992	0.19
494.19	0.14
494.388	0.17
494.587	0.1
494.785	0.14
494.983	0.12
495.181	0.15
495.379	0.14
495.578	0.1
495.776	0.14
495.974	0.14
496.172	0.13
496.37	0.11
496.568	0.1
496.766	0.08
496.964	0.16
497.162	0.13
497.36	0.07
497.558	0.14
497.756	0.12
497.954	0.12
498.152	0.09
498.35	0.11
498.548	0.09
498.746	0.1
498.944	0.08
499.142	0.11
499.34	0.07
499.538	0.09
499.736	0.07
499.933	0.14
500.131	0.13
500.329	0.11
500.527	0.13
500.725	0.12
500.922	0.13
501.12	0.11
501.318	0.1
501.516	0.05
501.713	0.11
501.911	0.07
502.109	0.08
502.306	0.06
502.504	0.07
502.701	0.06
502.899	0.08
503.097	0.12
503.294	0.1
503.492	0.06
503.689	0.09
503.887	0.1
504.084	0.12
504.282	0.07
504.479	0.02
504.677	0.08
504.874	0.05
505.072	0.05
505.269	0.05
505.466	0.1
505.664	0.08
505.861	0.05
506.059	0.04
506.256	0.09
506.453	0.02
506.651	0.11
506.848	0.09
507.045	0.07
507.242	0.07
507.44	0.06
507.637	0.06
507.834	0.04
508.031	0.07
508.229	0.04
508.426	0.06
508.623	0.08
508.82	0.05
509.017	0.04
509.214	0.04
509.411	0.06
509.608	0.04
509.805	0.05
510.003	0.03
510.2	0.04
510.397	0.07
510.594	0.04
510.791	0.04
510.988	0.05
511.184	0.09
511.381	0.06
511.578	0.04
511.775	0.07
511.972	0.03
512.169	0.04
512.366	0.07
512.563	0.05
512.76	0.01
512.956	0.08
513.153	0.04
513.35	0.05
513.547	0.01
513.744	0.01
513.94	0
514.137	0.05
514.334	0.05
514.53	0.05
514.727	0.06
514.924	0.1
515.12	0.03
515.317	0.01
515.514	0.04
515.71	0.03
515.907	0.05
516.103	0.04
516.3	0.08
516.497	0.05
516.693	0.06
516.89	0.05
517.086	0.02
517.283	0.07
517.479	0.06
517.676	0.03
517.872	0.03
518.068	0.02
518.265	0.02
518.461	0.03
518.658	0.01
518.854	0.05
519.05	0.03
519.247	-0
519.443	0.04
519.639	0.06
519.836	0.03
520.032	0.02
520.228	0.05
520.424	0.08
520.621	0.06
520.817	0.04
521.013	0.05
521.209	0.05
521.405	0.09
521.601	0.03
521.798	0.03
521.994	0.1
522.19	0.02
522.386	0.01
522.582	0.05
522.778	0.04
522.974	0.01
523.17	0.05
523.366	0.05
523.562	0.06
523.758	0.01
523.954	0.01
524.15	0.02
524.346	0.05
524.542	0.01
524.738	0.02
524.934	0.02
525.129	0.05
525.325	0.05
525.521	0.02
525.717	0.08
525.913	0.04
526.109	0.05
526.304	0.02
526.5	0.05
526.696	0.06
526.892	0.04
527.087	0.04
527.283	0.03
527.479	0.04
527.674	0.02
527.87	0.02
528.066	0.02
528.261	0.07
528.457	0.05
528.653	0.03
528.848	0.01
529.044	0.05
529.239	0.04
529.435	0.07
529.63	0.03
529.826	0.07
530.021	0.05
530.217	0.04
530.412	0.03
530.608	0.02
530.803	0.02
530.999	0.03
531.194	-0
531.389	0.05
531.585	-0.01
531.78	0.04
531.975	0.03
532.171	0.06
532.366	0.02
532.561	0.03
532.757	0.01
532.952	0.04
533.147	0.07
533.342	0.02
533.538	0.02
533.733	0.08
533.928	0.04
534.123	0.03
534.318	0.01
534.513	0.03
534.709	0.03
534.904	0
535.099	0.04
535.294	0.04
535.489	0.02
535.684	0.01
535.879	0.02
536.074	0.03
536.269	-0
536.464	0.04
536.659	0.03
536.854	0.01
537.049	0.05
537.244	0.03
537.439	0.02
537.634	0.05
537.828	0.03
538.023	0.02
538.218	-0
538.413	0.02
538.608	-0.04
538.803	0.02
538.997	0.01
539.192	0.06
539.387	0.04
539.582	0.03
539.776	0.05
539.971	0.03
540.166	0.01
540.36	0
540.555	0.05
540.75	0.03
540.944	0.05
541.139	-0.02
541.334	0.01
541.528	0.06
541.723	0.05
541.917	0.02
542.112	-0.02
542.306	0.04
542.501	0.02
542.695	0.04
542.89	-0
543.084	0.04
543.279	0.01
543.473	0.02
543.668	0.03
543.862	0.02
544.056	0.04
544.251	0.03
544.445	0.03
544.64	0.01
544.834	0.02
545.028	0.02
545.222	0.02
545.417	0.06
545.611	0.03
545.805	0.03
546	0.01
546.194	0.03
546.388	0.02
546.582	0.05
546.776	0.01
546.97	0.02
547.165	0.02
547.359	0.06
547.553	0.01
547.747	0.03
547.941	0.04
548.135	0.02
548.329	0.04
548.523	0.04
548.717	0.04
548.911	0.03
549.105	0.01
549.299	0.03
549.493	0.06
549.687	0.02
549.881	0.03
550.075	0.02
550.269	0.01
550.463	0.04
550.657	0.01
550.85	0.02
551.044	0
551.238	0.04
551.432	0.02
551.626	0
551.82	0.01
552.013	0
552.207	0.03
552.401	0.05
552.594	0.04
552.788	0.02
552.982	0
553.176	0.01
553.369	0.02
553.563	0.04
553.756	-0.02
553.95	0.02
554.144	0.01
554.337	0.04
554.531	0.04
554.724	0.02
554.918	0.02
555.111	0.05
555.305	0.02
555.498	0.09
555.692	0.06
555.885	0.02
556.079	0.05
556.272	0.01
556.466	0.05
556.659	0.02
556.852	0.04
557.046	-0.01
557.239	0.03
557.432	-0.02
557.626	-0.01
557.819	0.04
558.012	0.06
558.206	0.04
558.399	0.02
558.592	0.03
558.785	0.01
558.979	0.06
559.172	0.04
559.365	0.05
559.558	0.06
559.751	0.01
559.944	0.03
560.138	0.01
560.331	0.04
560.524	-0
560.717	0.03
560.91	0.02
561.103	0.04
561.296	0.02
561.489	0.02
561.682	0.02
561.875	0.07
562.068	0.03
562.261	0.03
562.454	0.06
562.647	0.03
562.84	0.03
563.032	0.02
563.225	0.01
563.418	-0.02
563.611	0.02
563.804	0.05
563.997	0.01
564.19	-0.01
564.382	0.02
564.575	0.02
564.768	0.03
564.961	0.01
565.153	0.01
565.346	0.04
565.539	0.03
565.731	0.05
565.924	0.06
566.117	0.05
566.309	0.02
566.502	0.02
566.695	0.01
566.887	0.01
567.08	0.01
567.272	0
567.465	-0.02
567.657	0.03
567.85	0.03
568.042	0.03
568.235	0.04
568.427	0.03
568.62	0.01
568.812	0.03
569.005	0.03
569.197	-0.01
569.389	0.02
569.582	0.02
569.774	0.04
569.966	-0.01
570.159	-0.01
570.351	0.04
570.543	-0.01
570.736	0.01
570.928	-0
571.12	0.03
571.312	-0.01
571.505	-0.02
571.697	0.04
571.889	-0.01
572.081	-0
572.273	0
572.465	0.06
572.658	0.01
572.85	0.02
573.042	-0
573.234	0.01
573.426	0.05
573.618	0.02
573.81	0.02
574.002	0.05
574.194	0.05
574.386	-0.03
574.578	-0.05
574.77	-0.01
574.962	0.04
575.154	-0.02
575.346	0
575.538	0.03
575.729	-0.03
575.921	0.01
576.113	0.01
576.305	0.05
576.497	0.01
576.689	0.02
576.88	-0.01
577.072	0.04
577.264	0
577.456	0.03
577.647	-0.04
577.839	0.02
578.031	0.06
578.223	-0.03
578.414	-0.02
578.606	0.04
578.798	0.04
578.989	0.01
579.181	0.01
579.372	-0.01
579.564	0.01
579.755	0.03
579.947	0.02
580.139	0.05
580.33	-0.06
580.522	-0
580.713	-0.05
580.905	0.03
581.096	0.03
581.287	0
581.479	0.01
581.67	0.05
581.862	0.04
582.053	0
582.244	-0.02
582.436	0.01
582.627	0.05
582.818	-0.01
583.01	-0.01
583.201	0.05
583.392	0.04
583.583	-0.01
583.775	-0.01
583.966	-0
584.157	0.01
584.348	0.01
584.54	-0.02
584.731	0.03
584.922	0.01
585.113	-0.02
585.304	0.02
585.495	0.03
585.686	0.02
585.877	0.02
586.068	0.02
586.259	0.03
586.45	0.04
586.641	-0.03
586.832	-0.05
587.023	-0
587.214	-0.01
587.405	0.02
587.596	-0.03
587.787	0.04
587.978	0.05
588.169	-0.04
588.36	-0.01
588.551	0.02
588.742	0.02
588.932	0
589.123	0.01
589.314	0.03
589.505	0.01
589.696	0.05
589.886	-0.01
590.077	-0.01
590.268	0.03
590.458	-0.03
590.649	-0.03
590.84	0.05
591.03	0.01
591.221	-0.02
591.412	-0.02
591.602	0.04
591.793	0.05
591.984	-0.01
592.174	0.03
592.365	0.1
592.555	-0.01
592.746	0.04
592.936	0.03
593.127	0.06
593.317	0.06
593.508	-0
593.698	0.03
593.889	0.02
594.079	0.04
594.269	-0.02
594.46	0.03
594.65	0.03
594.84	0.02
595.031	-0.02
595.221	0
595.411	-0.03
595.602	0.02
595.792	0.01
595.982	-0.01
596.172	0.07
596.363	0.02
596.553	0.01
596.743	0.02
596.933	0.02
597.123	0.03
597.314	0
597.504	0
597.694	0.04
597.884	0.04
598.074	-0
598.264	0.01
598.454	0.05
598.644	0.03
598.834	-0
599.024	-0.05
599.214	-0.01
599.404	0.05
599.594	0
599.784	-0
599.974	0.06
600.164	0.05
600.354	-0
600.544	-0.04
600.734	0.01
600.924	0.08
601.114	0.01
601.303	0.01
601.493	0.02
601.683	0.01
601.873	-0
602.063	-0.02
602.252	0.05
602.442	-0.05
602.632	-0
602.821	-0.05
603.011	0.02
603.201	0
603.39	-0.03
603.58	-0.01
603.77	0.03
603.959	0.04
604.149	0.01
604.339	0.01
604.528	0.06
604.718	0.05
604.907	-0
605.097	0.01
605.286	-0.01
605.476	0.02
605.665	0.05
605.855	-0
606.044	0.07
606.234	0.05
606.423	0.01
606.612	-0.03
606.802	0.02
606.991	0.04
607.181	0
607.37	-0
607.559	0.01
607.749	-0.03
607.938	0
608.127	0.01
608.316	0.01
608.506	0.03
608.695	-0
608.884	-0.02
609.073	0
609.263	0.01
609.452	0.05
609.641	0.01
609.83	-0.05
610.019	0.03
610.208	-0.02
610.397	-0.01
610.586	0.07
610.775	0
610.965	-0.03
611.154	0
611.343	0.02
611.532	-0.01
611.721	-0.03
611.91	-0.01
612.099	0.03
612.287	0
612.476	-0.02
612.665	0.01
612.854	0.02
613.043	0.05
613.232	0.02
613.421	-0.05
613.61	0.01
613.798	-0.03
613.987	0.02
614.176	0.03
614.365	0.05
614.554	0.03
614.742	0.05
614.931	-0
615.12	0.06
615.309	0.01
615.497	0.05
615.686	-0.01
615.875	-0.01
616.063	0.03
616.252	-0.01
616.44	-0
616.629	0.04
616.818	0.06
617.006	-0.01
617.195	0.03
617.383	0.02
617.572	0.06
617.76	0
617.949	-0.02
618.137	0
618.326	0.03
618.514	0.01
618.703	0.01
618.891	0.09
619.079	-0.07
619.268	0.03
619.456	0.01
619.644	0.07
619.833	0.01
620.021	-0.02
620.209	-0.02
620.398	0.04
620.586	0.03
620.774	0.01
620.962	0.02
621.151	0.08
621.339	0
621.527	-0.03
621.715	-0.01
621.903	-0.01
622.092	-0.05
622.28	0.04
622.468	0.02
622.656	0.01
622.844	0.03
623.032	-0.01
623.22	-0.03
623.408	0.05
623.596	0.01
623.784	0.02
623.972	-0.02
624.16	0.01
624.348	0.09
624.536	0
624.724	-0.03
624.912	0.06
625.1	0.04
625.288	-0.04
625.476	-0.03
625.664	0.05
625.851	-0.02
626.039	-0
626.227	0.02
626.415	-0.04
626.603	-0.08
626.79	0.01
626.978	-0.03
627.166	0
627.354	0
627.541	-0
627.729	-0.05
627.917	0
628.104	0.06
628.292	0.03
628.48	0.04
628.667	0.02
628.855	0.04
629.042	0.04
629.23	0.01
629.418	-0
629.605	0.02
629.793	-0.02
629.98	-0
630.168	0.01
630.355	0.04
630.543	0.02
630.73	-0.04
630.917	0.07
631.105	0.08
631.292	-0.01
631.48	0
631.667	0.07
631.854	0
632.042	0.01
632.229	-0.05
632.416	0.03
632.604	0.02
632.791	-0.05
632.978	0.05
633.165	0.02
633.353	0.06
633.54	0.04
633.727	-0.07
633.914	-0.02
634.101	-0.06
634.289	0.07
634.476	-0.04
634.663	-0.02
634.85	0.02
635.037	-0.03
635.224	-0.06
635.411	0.07
635.598	0.06
635.785	0.01
635.972	-0.02
636.159	0.06
636.346	-0.04
636.533	-0
636.72	-0.01
636.907	0
637.094	0.05
637.281	-0
637.468	0.02
637.655	-0
637.842	-0.02
638.029	0.01
638.215	0.05
638.402	-0.02
638.589	-0.03
638.776	-0.01
638.963	-0.03
639.149	0.06
639.336	0.1
639.523	0.01
639.709	0.01
639.896	0.01
640.083	0.06
640.27	0.03
640.456	0.01
640.643	0.01
640.829	-0.05
641.016	0
641.203	-0.03
641.389	0.03
641.576	0
641.762	-0
641.949	-0.01
642.135	0.05
642.322	0.01
642.508	-0.01
642.695	-0
642.881	-0.01
643.068	-0.02
643.254	0.01
643.441	0.03
643.627	-0.02
643.813	-0.03
644	0
644.186	-0.06
644.372	0.02
644.559	0.04
644.745	-0.02
644.931	-0.02
645.118	-0
645.304	0.01
645.49	-0
645.676	-0.03
645.862	0.04
646.049	0.06
646.235	0
646.421	0.06
646.607	0.06
646.793	-0.03
646.979	-0.05
647.165	0.02
647.352	0.02
647.538	0.06
647.724	-0.02
647.91	0.01
648.096	0.05
648.282	0.06
648.468	-0.01
648.654	0.01
648.84	0.07
649.026	-0
649.212	-0
649.397	0
649.583	-0.03
649.769	0.03
649.955	0.05
650.141	0.01
650.327	0.05
650.513	-0.03
650.698	0.02
650.884	-0.05
651.07	0.03
651.256	0.04
651.442	-0
651.627	0.02
651.813	0
651.999	0.02
652.184	0.04
652.37	-0.03
652.556	0
652.741	0.08
652.927	-0.06
653.113	0.04
653.298	0.02
653.484	-0.02
653.669	-0.07
653.855	0.01
654.04	0.04
654.226	-0
654.412	-0.02
654.597	-0.06
654.782	0.01
654.968	0.05
655.153	0.02
655.339	-0.01
655.524	-0.06
655.71	0.01
655.895	-0.01
656.08	-0.02
656.266	0.08
656.451	0.02
656.636	-0.08
656.822	-0.02
657.007	-0.05
657.192	-0.01
657.378	-0.05
657.563	0.02
657.748	0.05
657.933	0.01
658.118	-0.04
658.304	-0.02
658.489	0.03
658.674	0.06
658.859	-0.02
659.044	0.04
659.229	0.01
659.414	-0.02
659.599	-0
659.785	-0.07
659.97	-0.01
660.155	0.04
660.34	0.01
660.525	-0
660.71	0.01
660.895	0.05
661.08	-0.03
661.264	-0.01
661.449	0.06
661.634	0.05
661.819	0
662.004	0
662.189	-0.04
662.374	-0.02
662.559	-0.02
662.743	-0.07
662.928	-0.01
663.113	0
663.298	-0.06
663.483	-0.01
663.667	-0.01
663.852	-0.04
664.037	0.04
664.221	-0.01
664.406	0.03
664.591	0.04
664.775	-0.01
664.96	-0.06
665.145	-0.03
665.329	0.05
665.514	-0.04
665.698	0.01
665.883	-0.08
666.068	0.06
666.252	-0.02
666.437	-0.03
666.621	0.05
666.806	0.04
666.99	0.01
667.174	-0.04
667.359	0.08
667.543	0.04
667.728	-0.03
667.912	-0.06
668.096	0.03
668.281	0.01
668.465	-0.02
668.649	-0.01
668.834	-0.02
669.018	0.02
669.202	-0
669.387	-0.07
669.571	0.07
669.755	-0.02
669.939	0.01
670.124	-0.04
670.308	0.11
670.492	0.03
670.676	0
670.86	0.02
671.044	-0.04
671.228	0.04
671.413	-0.05
671.597	-0.02
671.781	-0.03
671.965	0.02
672.149	-0
672.333	0.01
672.517	-0.02
672.701	0.05
672.885	0.01
673.069	-0.08
673.253	0.04
673.437	0.01
673.621	-0.03
673.804	-0
673.988	0.04
674.172	-0.01
674.356	-0.05
674.54	-0.01
674.724	0.07
674.908	-0.02
675.091	0.09
675.275	0.01
675.459	0.05
675.643	-0.02
675.826	0.01
676.01	0.02
676.194	0.03
676.377	0.06
676.561	0.01
676.745	0.05
676.928	0.02
677.112	0.04
677.296	-0.02
677.479	-0.02
677.663	-0.01
677.846	0.09
678.03	-0.04
678.213	0.02
678.397	0.01
678.58	0.01
678.764	-0.03
678.947	-0.06
679.131	-0.03
679.314	0.08
679.498	-0.01
679.681	-0.01
679.865	0.09
680.048	0.03
680.231	0
680.415	-0
680.598	-0.01
680.781	0.01
680.965	-0.03
681.148	0.06
681.331	-0
681.514	0.07
681.698	-0.02
681.881	0.02
682.064	0.03
682.247	0
682.43	-0.03
682.614	0.04
682.797	0.07
682.98	0.02
683.163	0.02
683.346	0.07
683.529	0
683.712	-0.01
683.895	0.08
684.078	-0.09
684.261	-0.02
684.444	0.06
684.627	0.02
684.81	-0.05
684.993	0
685.176	0.01
685.359	-0.04
685.542	-0.03
685.725	0.06
685.908	0.03
686.091	-0
686.274	0.08
686.457	0.07
686.639	0.02
686.822	0.06
687.005	0.01
687.188	0.03
687.371	0.11
687.553	0.02
687.736	0.01
687.919	0.07
688.102	0.11
688.284	0.02
688.467	0.02
688.65	-0
688.832	0.02
689.015	-0.01
689.197	-0.02
689.38	0.11
689.563	0.07
689.745	-0.01
689.928	-0.02
690.11	-0.03
690.293	0.02
690.475	-0.08
690.658	0
690.84	-0.01
691.023	-0.02
691.205	-0.02
691.388	-0.01
691.57	0.05
691.752	0.03
691.935	-0.08
692.117	0
692.3	0.03
692.482	-0.01
692.664	0.06
692.847	0.01
693.029	0.03
693.211	0.04
693.393	-0.02
693.576	-0.04
693.758	0.02
693.94	-0
694.122	-0.05
694.304	0.05
694.487	-0.04
694.669	0.09
694.851	-0.05
695.033	0.01
695.215	-0.05
695.397	-0.04
695.579	0.03
695.761	0
695.943	-0.07
696.125	0.07
696.308	0.04
696.49	-0.09
696.671	0.14
696.853	0.02
697.035	0.12
697.217	0.04
697.399	0.03
697.581	-0.03
697.763	0.03
697.945	0.03
698.127	0.02
698.309	0.14
698.491	0.06
698.672	0.04
698.854	0.06
699.036	0.1
699.218	-0.02
699.399	0.09
699.581	0.07
699.763	0.06
699.945	0
700.126	-0.06
700.308	-0.02
700.49	0.02
700.671	-0.06
700.853	-0.03
701.035	-0.06
701.216	0.02
701.398	-0.03
701.579	-0.02
701.761	0.13
701.943	-0.05
702.124	-0.08
702.306	0.05
702.487	0.18
702.669	0.03
702.85	-0.03
703.031	0.01
703.213	0.15
703.394	0.05
703.576	0.02
703.757	0.09
703.938	0.14
704.12	0.2
704.301	0.03
704.483	-0.09
704.664	0.05
704.845	0.1
705.026	0.09
705.208	0.02
705.389	0.04
705.57	0.01
705.751	-0
705.933	0.01
706.114	0.04
706.295	0.01
706.476	-0.1
706.657	0.14
706.838	0.05
707.02	0.07
707.201	-0.04
707.382	-0
707.563	0.07
707.744	-0.05
707.925	-0.05
708.106	-0.03
708.287	0.06
708.468	0.12
708.649	-0.03
708.83	0.02
709.011	0.02
709.192	0.02
709.373	-0.07
709.554	0.01
709.734	0.06
709.915	0.08
710.096	0.01
710.277	-0.12
710.458	-0.04
710.639	0.05
710.819	-0.04
711	0.01
711.181	0.04
711.362	0.09
711.542	0.05
711.723	-0.02
711.904	0.02
712.085	0.05
712.265	0.04
712.446	-0
712.627	-0.01
712.807	0.02
712.988	0.01
713.168	-0.06
713.349	0.07
713.53	-0.16
713.71	-0.05
713.891	-0.06
714.071	0.07
714.252	-0.04
714.432	-0.03
714.613	-0.09
714.793	0.06
714.974	0.14
715.154	0.08
715.334	-0.01
715.515	0.16
715.695	-0.06
715.876	-0.02
716.056	-0.01
716.236	-0.01
716.417	0
716.597	0
716.777	0.18
716.957	-0
717.138	0.08
717.318	0.02
717.498	-0.06
717.678	0.06
717.859	0.07
718.039	-0.11
718.219	0.02
718.399	0.06
718.579	-0.06
718.759	-0.09
718.939	0.07
719.12	0.03
719.3	0.03
719.48	-0.12
719.66	-0.05
719.84	0.09
720.02	-0.04
720.2	-0.01
720.38	-0.02
720.56	0.15
720.74	-0.05
720.92	0.03
721.1	0.1
721.279	0.11
721.459	-0
721.639	-0.07
721.819	0.1
721.999	-0.03
722.179	0.06
722.359	-0.02
722.538	-0.02
722.718	0
722.898	0.07
723.078	0.04
723.257	-0.01
723.437	0
723.617	0.02
723.797	-0.06
723.976	0
724.156	0.08
724.336	0.02
724.515	0.15
724.695	-0.1
724.874	-0.04
725.054	0.08
725.234	-0.11
725.413	0.06
725.593	0.03
725.772	0.08
725.952	-0.04
726.131	-0.05
726.311	0.02
726.49	-0.04
726.67	-0.08
726.849	0.06
727.028	0.11
727.208	0.01
727.387	0.13
727.567	-0.14
727.746	-0.04
727.925	0.02
728.105	-0.04
728.284	-0.01
728.463	-0.09
728.643	0.04
728.822	-0.04
729.001	-0.05
729.18	-0.01
729.359	0.08
729.539	0.05
729.718	-0.01
729.897	0.03
730.076	-0.01
730.255	-0.06
730.434	0.06
730.614	-0.02
730.793	0.16
730.972	0.04
731.151	0.05
731.33	0.14
731.509	0.06
731.688	0.04
731.867	-0.03
732.046	-0.11
732.225	0.22
732.404	-0.04
732.583	-0.07
732.762	-0.09
732.941	0.12
733.12	-0.06
733.298	-0.01
733.477	0.11
733.656	0.02
733.835	-0.12
734.014	0.06
734.193	-0.04
734.371	0.04
734.55	0
734.729	-0.07
734.908	0.01
735.086	0.04
735.265	0.09
735.444	-0.15
735.623	-0.12
735.801	-0.12
735.98	-0.01
736.159	-0.03
736.337	0.06
736.516	0
736.694	0.05
736.873	-0.05
737.052	0.1
737.23	0.12
737.409	-0.04
737.587	0.22
737.766	-0.13
737.944	-0.1
738.123	0.03
738.301	0.06
738.479	0.07
738.658	0.08
738.836	-0.13
739.015	-0
739.193	0.16
739.371	-0.11
739.55	0.07
739.728	-0.1
739.906	0.06
740.085	0.16
740.263	-0
740.441	-0.12
740.62	0.19
740.798	0.02
740.976	-0.06
741.154	-0.04
741.332	0.16
741.511	-0.01
741.689	0.04
741.867	0.06
742.045	-0.03
742.223	0.01
742.401	-0.02
742.579	0.04
742.757	0.07
742.935	-0.15
743.114	0.03
743.292	-0.02
743.47	0.1
743.648	0.03
743.826	-0.08
744.004	0.05
744.181	0.17
744.359	-0.03
744.537	0.03
744.715	0.08
744.893	-0.03
745.071	0.02
745.249	-0.05
745.427	-0.08
745.605	0.06
745.782	0.06
745.96	0.13
746.138	0.06
746.316	0.13
746.493	-0.01
746.671	-0.03
746.849	0.07
747.027	0.09
747.204	-0.01
747.382	0.08
747.56	-0.12
747.737	-0.14
747.915	0
748.093	0.13
748.27	-0.07
748.448	0.04
748.625	-0.14
748.803	-0.05
748.98	-0.03
749.158	0.02
749.335	0.21
749.513	0.05
749.69	-0
749.868	0.07
750.045	0.1
750.223	0.02
750.4	-0.18
750.578	0.29
750.755	0.06
750.932	-0.17
751.11	0.12
751.287	-0.11
751.464	0.17
751.642	-0.14
751.819	0.12
751.996	0.01
752.173	-0.18
752.351	-0.1
752.528	-0.01
752.705	0.03
752.882	-0.06
753.06	0.12
753.237	0.08
753.414	0.12
753.591	0.22
753.768	0.02
753.945	-0.02
754.122	-0.02
754.299	0.13
754.476	-0.06
754.654	0.01
754.831	0.03
755.008	0.03
755.185	0.06
755.362	-0.18
755.539	0.07
755.716	-0.04
755.892	-0
756.069	-0.14
756.246	-0.02
756.423	0.22
756.6	0.17
756.777	-0.08
756.954	0.07
757.131	-0.01
757.307	-0.12
757.484	-0.09
757.661	0.08
757.838	0.08
758.015	-0.08
758.191	0.14
758.368	0.03
758.545	0.13
758.721	0.04
758.898	-0.01
759.075	0.04
759.251	0.15
759.428	0.02
759.605	-0.16
759.781	-0.01
759.958	0.18
760.134	0.04
760.311	0.07
760.488	0.19
760.664	0.13
760.841	-0.03
761.017	-0.02
761.194	0.1
761.37	0.13
761.547	0.02
761.723	-0.09
761.899	0.22
762.076	-0.03
762.252	-0.04
762.429	0.04
762.605	0.05
762.781	0.08
762.958	0.06
763.134	-0.07
763.31	0.06
763.486	0.17
763.663	-0.14
763.839	0.11
764.015	-0.17
764.191	-0.08
764.368	0.03
764.544	-0.09
764.72	0.02
764.896	0.13
765.072	-0
765.248	-0.07
765.425	-0.09
765.601	0.07
765.777	-0.09
765.953	-0.25
766.129	-0.11
766.305	-0.1
766.481	0.05
766.657	-0.12
766.833	0.09
767.009	-0.07
767.185	-0.08
767.361	0.07
767.537	-0.13
767.713	0.26
767.889	-0.05
768.065	0.1
768.24	0.07
768.416	0.2
768.592	0.09
768.768	-0.07
768.944	0.13
769.12	-0.15
769.295	-0.07
769.471	0.02
769.647	0.02
769.823	0.19
769.998	0.03
770.174	-0
770.35	0.49
770.525	0.23
770.701	-0.04
770.877	0.1
771.052	0.01
771.228	0.3
771.403	0.03
771.579	0.12
771.755	0.27
771.93	-0.04
772.106	-0.09
772.281	-0.09
772.457	0.17
772.632	-0.08
772.808	-0.15
772.983	-0.06
773.159	-0.14
773.334	0.31
773.509	0.08
773.685	-0.18
773.86	0.42
774.036	0.23
774.211	0.13
774.386	-0.09
774.562	0.08
774.737	0.34
774.912	-0.15
775.087	0.11
775.263	0.1
775.438	0.13
775.613	-0.05
775.788	-0.02
775.964	0.17
776.139	0.36
776.314	-0.22
776.489	0.15
776.664	-0.02
776.839	-0.1
777.014	0.19
777.19	0.15
777.365	0.41
777.54	0.21
777.715	-0.11
777.89	-0.01
778.065	-0.08
778.24	0.09
778.415	-0.03
778.59	-0.15
778.765	-0.04
778.94	0.14
779.115	-0.05
779.289	-0.14
779.464	0.15
779.639	0.19
779.814	-0.19
779.989	-0.13
780.164	0.15
780.339	0.14
780.513	-0.06
780.688	-0.12
780.863	0.15
781.038	0.18
781.212	-0.17
781.387	-0.02
781.562	0.35
781.737	0.07
781.911	0.23
782.086	-0.1
782.261	0.08
782.435	0.27
782.61	-0.05
782.784	-0.07
782.959	0.2
783.134	-0.08
783.308	-0.19
783.483	-0.16
783.657	0.37
783.832	0.21
784.006	-0.37
784.181	0.12
784.355	0.18
784.53	-0.12
784.704	-0.23
784.878	0.35
785.053	0.12
785.227	0.34
785.402	0.33
785.576	-0.21
785.75	0.16
785.925	-0.08
786.099	-0.01
786.273	0.28
786.448	0.14
786.622	0.24
786.796	0.1
786.97	-0.1
787.145	0.61
787.319	-0.09
787.493	-0.22
787.667	-0.46
787.841	-0.01
788.015	0.23
788.19	-0.09
788.364	0.11
788.538	0.23
788.712	0.15
788.886	0.13
789.06	0.18
789.234	0.41
789.408	-0.35
789.582	0.01
789.756	-0
789.93	-0.27
790.104	0.05
790.278	-0.08
790.452	-0.18
790.626	0.06
790.8	-0.25
790.973	0.22
791.147	0.33
791.321	0.31
791.495	0.2
791.669	0.18
791.843	0.18
792.016	0.06
792.19	0.57
792.364	-0.2
792.538	0.53
792.711	0.14
792.885	-0.15
793.059	-0.08
793.233	-0.27
793.406	0.33
793.58	0.02
793.754	0.15
793.927	-0.03
794.101	0.35
794.274	0.05
794.448	0.12
794.622	-0.15
794.795	0.22
794.969	0.02
795.142	0.35
795.316	0.03
795.489	-0.18
795.663	0.4
795.836	0.01
796.009	-0.1
796.183	0.25
796.356	0.07
796.53	-0.04
796.703	0.05
796.876	0.5
797.05	-0.18
797.223	-0.12
797.396	0.05
797.57	0.13
797.743	0.52
797.916	-0.12
798.09	-0.06
798.263	-0.09
798.436	0.13
798.609	-0.11
798.782	-0.16
798.956	0.18
799.129	0.1
799.302	-0.28
799.475	-0.14
799.648	-0.03
799.821	0.09
799.994	-0.02
800.167	-0.39
800.34	0.27
800.514	0.21
800.687	-0.26
800.86	-0.08
801.033	0.16
801.206	0.07
801.379	-0.07
801.551	0.4
801.724	0.2
801.897	0.35
802.07	0.03
802.243	-0.52
802.416	0.14
802.589	-0.16
802.762	0.35
802.935	0.14
803.107	0.15
803.28	0.24
803.453	0.2
803.626	-0.38
803.798	0.04
803.971	0.05
804.144	-0.08
804.317	-0
804.489	0.2
804.662	0.13
804.835	0.48
805.007	-0.26
805.18	0.68
805.353	-0.09
805.525	-0.05
805.698	-0.06
805.87	0.53
806.043	0.14
806.215	-0.48
806.388	-0.32
806.56	0.4
806.733	0.49
806.905	-0.12
807.078	-0.38
807.25	-0.18
807.423	0.02
807.595	-0.14
807.768	0.04
807.94	0.53
808.112	0.23
808.285	-0.07
808.457	-0.24
808.629	-0.23
808.802	0.11
808.974	0.14
809.146	0.02
809.318	-0.55
809.491	0.04
809.663	0.52
809.835	-0.41
810.007	0.33
810.18	0.03
810.352	-0.28
810.524	0.26
810.696	0.43
810.868	0.31
811.04	0.14
811.212	-0.03
811.384	0.67
811.556	0.25
811.728	0.11
811.901	0.65
812.073	-0.08
812.245	0.89
812.417	0.01
812.589	-0.79
812.76	-0.03
812.932	-0
813.104	-0.09
813.276	-0.24
813.448	0.2
813.62	-0.04
813.792	-0.02
813.964	-0.09
814.136	0.4
814.307	0.17
814.479	-0.4
814.651	-0.22
814.823	0.69
814.995	0.37
815.166	0.22
815.338	-0.47
815.51	-0.53
815.681	0.5
815.853	0.19
816.025	0.21
816.196	0.32
816.368	-0.02
816.54	-0.36
816.711	-0.51
816.883	0.43
817.054	0.45
817.226	-1.02
817.398	0.25
817.569	-0.35
817.741	0.04
817.912	-0.18
818.084	0.12
818.255	0.37
818.426	-0.2
818.598	0.18
818.769	-0.3
818.941	0.4
819.112	0.78
819.283	-0.16
819.455	-0.34
819.626	0.2
819.798	0.49
819.969	-0.07
820.14	-0.07
820.311	-0.13
820.483	0.21
820.654	0.3
820.825	0.14
820.996	-0.19
821.168	0.05
821.339	-0.26
821.51	-0.38
821.681	-0.04
821.852	0.2
822.023	-0.27
822.195	-0.65
822.366	0.57
822.537	0.1
822.708	-0.08
822.879	-0.51
823.05	0.41
823.221	-0.13
823.392	0.15
823.563	0.26
823.734	0.24
823.905	-0.22
824.076	-0.06
824.247	-0.75
824.418	-0.27
824.589	0.78
824.759	0.4
824.93	-0.67
825.101	-0.89
825.272	0.98
825.443	0.72
825.614	0.63
825.784	-0.92
825.955	1.08
826.126	0.94
826.297	0.15
826.467	0.95
826.638	0.91
826.809	-1.09
826.98	-0.12
827.15	0.59
827.321	0.13
827.492	0.43
827.662	0.18
827.833	0.94
828.003	0.17
828.174	-0.41
828.345	-0.7
828.515	0.99
828.686	0.6
828.856	-0.41
829.027	-0.54
829.197	0.44
829.368	0.01
829.538	-0.35
829.709	-0.44
829.879	0.26
830.049	0.43
830.22	-0.56
830.39	-0.59
830.56	0.62
830.731	-0.2
830.901	-0.85
831.072	-0.34
831.242	-0.13
831.412	-0.02
831.582	0.22
831.753	-0.69
831.923	0.7
832.093	-0.13
832.263	0.3
832.434	-0.44
832.604	0.03
832.774	0.45
832.944	-0.49
833.114	0.02
833.284	0.19
833.454	-0.47
833.624	-0.6
833.795	-0.01
833.965	1.21
834.135	0.84
834.305	-1.32
834.475	-0.32
834.645	-0.15
834.815	-0.01
834.985	-0.98
835.155	-0.23
835.325	0.02
835.494	0.25
835.664	0.23
835.834	-0.29
836.004	-0.3
836.174	0.5
836.344	0.27
836.514	-0.92
836.684	0.23
836.853	0.09
837.023	0.11
837.193	-0.32
837.363	0.8
837.532	0.26
837.702	-0.57
837.872	-0.46
838.041	0.74
838.211	1.88
838.381	-0.93
838.55	-0.22
838.72	1.83
838.89	1.08
839.059	0.41
839.229	-0.83
839.398	1.8
839.568	0.95
839.738	-0.06
839.907	0.79
840.077	0.53
840.246	-0.58
840.416	-0.14
840.585	-0.46
840.755	1.05
840.924	0.77
841.093	-0.34
841.263	-0.01
841.432	0.19
841.602	-1.01
841.771	-0.5
841.94	0.19
842.11	1.85
842.279	1.72
842.448	-0.42
842.617	-0.37
842.787	1.59
842.956	-0.53
843.125	-0.25
843.294	0.35
843.464	0.66
843.633	0.23
843.802	-1.18
843.971	-0.2
844.14	1.32
844.309	0.88
844.479	-0.51
844.648	-0.78
844.817	0.2
844.986	0.34
845.155	-0.95
845.324	0.09
845.493	0.06
845.662	-0.22
845.831	0.92
846	0.85
846.169	-0.22
846.338	0.49
846.507	0.46
846.676	-0.01
846.844	-0.19
847.013	0.24
847.182	0.12
847.351	-0.28
847.52	0.65
847.689	0.33
847.858	1.02
848.026	-0.72
848.195	-0.98
848.364	-0.06
848.533	-1.36
848.701	-0.53
848.87	0.14
849.039	0.74
849.207	0.74
849.376	0.44
849.545	1.2
849.713	0.05
849.882	-0.6
850.051	-0.2
850.219	0.99
850.388	-0.26
850.556	-1.04
850.725	-0.51
850.893	0.34
851.062	-0.53
851.23	0.63
851.399	-1.42
851.567	-0.12
851.736	-0.39
851.904	-0.68
852.073	-0.3
852.241	1.52
852.41	0.46
852.578	-0.14
852.746	-0.89
852.915	-0.23
853.083	0.2
853.251	-1.63
853.42	0.15
853.588	1.08
853.756	1.52
853.924	-0.21
854.093	-1.11
854.261	-0.4
854.429	-0.64
854.597	0.57
854.765	-1.66
854.934	1.48
855.102	1.16
855.27	-1.43
855.438	1.24
855.606	0.51
855.774	0.83
855.942	-1.08
856.11	-1.88
856.278	0.35
856.446	1.32
856.614	0.78
856.782	0.14
856.95	0.91
857.118	0.81
857.286	0.87
857.454	-1.16
857.622	1.06
857.79	1.2
857.958	-0.66
858.126	1.4
858.294	-2.65
858.462	0.92
858.629	-0.46
858.797	-0.22
858.965	0.86
859.133	-0.17
859.301	0.25
859.468	0.71
859.636	0.14
859.804	1.49
859.971	1.8
860.139	-1.43
860.307	1.31
860.474	0.6
860.642	-1.34
860.81	-0.13
860.977	-0.1
861.145	0.46
861.313	0.23
861.48	0.43
861.648	2.25
861.815	-0.71
861.983	-2.53
862.15	-0.65
862.318	1.62
862.485	1.04
862.653	-1.51
862.82	-1.12
862.988	2.64
863.155	1.7
863.322	-0.42
863.49	-1.69
863.657	-0.66
863.824	2.39
863.992	0.84
864.159	-0.29
864.326	2.34
864.494	-1.24
864.661	2.65
864.828	-0.43
864.996	2.4
865.163	2.51
865.33	-1.34
865.497	-2.43
865.664	0.27
865.832	-1.22
865.999	-0.16
866.166	-0.98
866.333	-0.94
866.5	-1.5
866.667	0.09
866.834	-0.44
867.001	1.18
867.168	-2.31
867.335	0.35
867.502	-2.16
867.669	1.52
867.836	3.35
868.003	0.12
868.17	1.1
868.337	1.73
868.504	2.69
868.671	-2.23
868.838	0.1
869.005	0.58
869.172	1.01
869.339	-0.41
869.505	-0.18
869.672	-1.17
869.839	2.26
870.006	0.47
870.173	-1.77
870.339	0.86
870.506	3.74
870.673	0.06
870.84	1.23
871.006	-1.52
871.173	-0.45
871.34	0.52
871.506	-1.43
871.673	-0.05
871.839	-0.49
872.006	0.24
872.173	-1.84
872.339	0.26
872.506	2.38
872.672	-0.7
872.839	-0.98
873.005	2.03
873.172	4.43
873.338	3.23
873.505	-0.69
873.671	-0.61
873.838	1
874.004	-1.98
874.171	-1.34
874.337	0.49
874.503	2.06
874.67	-0.35
874.836	-1.85
875.002	1.73
875.169	2.05
875.335	0.1
875.501	0.03
875.668	2.23
875.834	0.32
876	-0.34
876.166	1.57
876.332	1.27
876.499	3.86
876.665	-2.78
876.831	-0.39
876.997	1.72
877.163	0.77
877.329	0.09
877.495	-0.73
877.662	1.9
877.828	0.89
877.994	-0.21
878.16	-3.13
878.326	-0.87
878.492	1.05
878.658	-1.13
878.824	0.05
878.99	1.89
879.156	-1.33
879.322	2.39
879.487	0.58
879.653	0.48
879.819	0.22
879.985	-2.53
880.151	-1.12
880.317	-0.08
880.483	-0.88
880.648	1.06
880.814	-1.91
880.98	1.07
881.146	-2.57
881.312	-2.12
881.477	-0.47
881.643	-1.06
881.809	0.56
881.974	0.54
882.14	-3.4
882.306	0.88
882.471	3.22
882.637	-2.3
882.803	1.1
882.968	5.53
883.134	2.43
883.299	-0.9
883.465	0.05
883.63	0.78
883.796	1.25
883.961	0.66
884.127	0.15
884.292	-3.53
884.458	-1.2
884.623	-1.2
