Data from Apollo_Calib_20240827__AbsoluteIrradiance__194__02-23-01-423.txt Node

Date: Wed Aug 28 02:23:01 BST 2024
User: biology
Spectrometer: FLMT08252
Trigger mode: 0
Integration Time (sec): 5.000000E-1
Scans to average: 5
Electric dark correction enabled: true
Nonlinearity correction enabled: false
Boxcar width: 0
XAxis mode: Wavelengths
Number of Pixels in Spectrum: 3648
>>>>>Begin Spectral Data<<<<<
179.588	-0
179.809	-0
180.03	-0
180.251	-0
180.473	-0
180.694	0
180.915	0
181.136	-0
181.357	0
181.578	0
181.799	-0
182.02	-0
182.241	0
182.462	-0
182.683	0
182.904	-0
183.125	-0
183.346	0
183.567	0
183.788	-0
184.009	-0
184.23	0
184.451	-0
184.672	-0
184.892	-0
185.113	0
185.334	0
185.555	-0
185.776	-0
185.996	0
186.217	0
186.438	0
186.659	-0
186.879	0
187.1	0
187.321	-0
187.541	-0
187.762	0
187.983	0
188.203	-0
188.424	-0
188.644	0
188.865	0
189.086	-0
189.306	-0
189.527	0
189.747	0
189.968	-0
190.188	0
190.409	0
190.629	0
190.849	-0
191.07	-0
191.29	0
191.511	0
191.731	-0
191.951	-0
192.172	0
192.392	0
192.612	0
192.833	-0
193.053	0
193.273	0
193.493	-0
193.714	0
193.934	0
194.154	0
194.374	0
194.594	0
194.815	0
195.035	-0
195.255	0
195.475	-0
195.695	0
195.915	0
196.135	0
196.355	0
196.575	0
196.795	0
197.015	-0
197.235	-0
197.455	-0
197.675	0
197.895	0
198.115	-0
198.335	0
198.555	-0
198.775	0
198.995	0
199.214	0
199.434	0
199.654	-0
199.874	0
200.094	0.83
200.313	-0.42
200.533	-0.31
200.753	-0.48
200.973	0.75
201.192	1.21
201.412	-0.75
201.632	0.03
201.851	1.04
202.071	-0.47
202.291	-0.41
202.51	-0.41
202.73	0.81
202.95	-0.13
203.169	-0.33
203.389	-0.16
203.608	0.2
203.828	-0.33
204.047	0.33
204.267	0.56
204.486	0.02
204.706	0.49
204.925	0.09
205.145	-0.42
205.364	0.41
205.583	0.92
205.803	-0.29
206.022	-0.35
206.242	0.04
206.461	-0.05
206.68	-0.19
206.9	-0.13
207.119	0.7
207.338	0.44
207.557	-0.09
207.777	-0.21
207.996	0.02
208.215	0.62
208.434	-0.14
208.654	-0.46
208.873	0.43
209.092	0.61
209.311	-0.08
209.53	-0.15
209.749	0.11
209.968	-0.07
210.187	-0.05
210.407	-0.25
210.626	0.15
210.845	0.36
211.064	-0.07
211.283	-0.35
211.502	0.21
211.721	-0.15
211.94	0.13
212.159	0.27
212.377	0.44
212.596	0.43
212.815	-0.02
213.034	0.04
213.253	0.11
213.472	0.15
213.691	-0.04
213.91	-0.25
214.128	-0.16
214.347	0.57
214.566	-0.36
214.785	-0.34
215.003	0.2
215.222	0.08
215.441	-0.11
215.66	-0.14
215.878	0.09
216.097	0.23
216.316	-0.09
216.534	-0.01
216.753	0.1
216.972	-0.09
217.19	0.11
217.409	-0.09
217.627	-0.19
217.846	-0
218.064	0.12
218.283	-0.15
218.501	0.51
218.72	0.37
218.938	-0.14
219.157	-0.03
219.375	0.16
219.594	-0
219.812	-0.14
220.031	-0.18
220.249	0.25
220.467	0.32
220.686	-0.02
220.904	-0.1
221.122	-0.05
221.341	0.46
221.559	0.16
221.777	-0.11
221.995	0.11
222.214	0.15
222.432	-0.13
222.65	0.03
222.868	0.04
223.086	0.1
223.305	0.08
223.523	-0.02
223.741	0.26
223.959	-0.09
224.177	-0.42
224.395	-0.07
224.613	0.13
224.831	0.3
225.049	-0.01
225.267	0.06
225.485	-0.08
225.703	0.1
225.921	0.09
226.139	-0.05
226.357	0.22
226.575	0.21
226.793	-0.11
227.011	0.7
227.229	0.19
227.447	0.26
227.665	-0.09
227.883	-0.22
228.1	0.09
228.318	0.12
228.536	-0.12
228.754	-0.15
228.972	0.06
229.189	0.07
229.407	-0.06
229.625	-0.06
229.843	0.3
230.06	0.12
230.278	-0.07
230.496	0.02
230.713	0.14
230.931	0.24
231.149	-0.02
231.366	-0.14
231.584	0.01
231.801	0.37
232.019	-0.03
232.236	-0.12
232.454	-0.04
232.671	0.18
232.889	-0
233.106	-0.07
233.324	-0
233.541	0.01
233.759	-0.01
233.976	-0.14
234.194	-0.06
234.411	0.03
234.628	-0.17
234.846	-0.03
235.063	0.06
235.28	0.12
235.498	0.08
235.715	-0.09
235.932	0.1
236.149	0.08
236.367	-0.02
236.584	0.16
236.801	-0.01
237.018	0.04
237.236	0.06
237.453	-0.14
237.67	0.18
237.887	-0.01
238.104	-0.03
238.321	-0.14
238.538	-0.02
238.755	0.17
238.973	-0.14
239.19	-0.01
239.407	0.09
239.624	0.12
239.841	-0.1
240.058	-0.09
240.275	0.17
240.492	0.02
240.709	0.05
240.925	-0.04
241.142	0.02
241.359	-0.16
241.576	-0.05
241.793	-0.06
242.01	0.04
242.227	0.1
242.444	0.04
242.66	0.11
242.877	0.03
243.094	-0.11
243.311	0.04
243.527	-0
243.744	0.07
243.961	0.16
244.178	-0.06
244.394	-0.03
244.611	0.17
244.828	0.25
245.044	-0.04
245.261	0.01
245.477	0.03
245.694	0.2
245.911	-0.11
246.127	0.07
246.344	0.13
246.56	0.08
246.777	-0.03
246.993	0.04
247.21	0.1
247.426	0.09
247.643	-0.03
247.859	-0.1
248.076	-0.11
248.292	0.26
248.508	-0
248.725	0.01
248.941	0.09
249.157	0.13
249.374	-0.1
249.59	0.05
249.806	0.02
250.023	0.18
250.239	-0.05
250.455	-0.05
250.671	0.11
250.888	0.09
251.104	0.06
251.32	-0.04
251.536	-0.03
251.752	0.03
251.969	0.02
252.185	0.09
252.401	0.24
252.617	0.07
252.833	0.01
253.049	0.05
253.265	-0.01
253.481	0.03
253.697	0.04
253.913	-0.06
254.129	0.12
254.345	0.09
254.561	-0.02
254.777	0.02
254.993	0.04
255.209	0.06
255.425	0.03
255.641	-0.03
255.857	0.22
256.073	-0.01
256.288	-0.04
256.504	-0.03
256.72	0.06
256.936	0.14
257.152	-0.05
257.367	-0.04
257.583	0.01
257.799	0.12
258.015	-0.01
258.23	-0.04
258.446	0.13
258.662	0.02
258.877	-0.09
259.093	-0.07
259.309	0.05
259.524	0.08
259.74	-0.04
259.955	-0.11
260.171	0.01
260.387	0.12
260.602	0.1
260.818	0.08
261.033	0.03
261.249	-0.02
261.464	-0.05
261.68	-0.04
261.895	0.03
262.11	0.13
262.326	0.01
262.541	-0.09
262.757	0.11
262.972	0.01
263.187	-0.02
263.403	-0
263.618	0.12
263.833	0.06
264.049	-0.03
264.264	0
264.479	0.09
264.694	0.11
264.91	-0.06
265.125	0.05
265.34	0.14
265.555	0.21
265.77	0.07
265.986	-0.02
266.201	0.01
266.416	0.06
266.631	-0
266.846	0.02
267.061	0.13
267.276	0.09
267.491	-0.11
267.706	0.04
267.921	0.09
268.136	0.05
268.351	-0
268.566	-0.02
268.781	0.11
268.996	0.1
269.211	-0.02
269.426	-0.09
269.641	-0.07
269.856	0.06
270.071	-0.06
270.285	-0.08
270.5	0.09
270.715	0.12
270.93	0.07
271.145	0.01
271.359	0.12
271.574	-0.01
271.789	-0.01
272.004	0.02
272.218	-0.02
272.433	0.08
272.648	-0.05
272.862	0.04
273.077	0.01
273.292	0
273.506	-0.04
273.721	-0.02
273.936	0.05
274.15	0.13
274.365	-0.05
274.579	0.05
274.794	0.07
275.008	0.07
275.223	-0.07
275.437	0.02
275.652	0.09
275.866	0.09
276.081	-0.02
276.295	0.07
276.509	0
276.724	0.01
276.938	0.01
277.153	0.01
277.367	0.08
277.581	-0.05
277.796	-0.02
278.01	-0.04
278.224	0.07
278.438	0.23
278.653	-0.07
278.867	-0.07
279.081	-0.14
279.295	0.02
279.51	0.05
279.724	-0.12
279.938	0.02
280.152	0.04
280.366	-0.01
280.58	-0.02
280.794	0.12
281.008	0.07
281.222	0.08
281.437	0.11
281.651	0.03
281.865	0.14
282.079	0.03
282.293	-0.1
282.507	-0.01
282.721	0.04
282.935	0.06
283.148	-0.06
283.362	-0.01
283.576	0
283.79	0.01
284.004	0
284.218	0.1
284.432	0.01
284.646	0.04
284.859	-0.02
285.073	-0.01
285.287	0.08
285.501	0.02
285.714	0.01
285.928	0.04
286.142	0.02
286.356	-0.01
286.569	-0.01
286.783	0.14
286.997	0.09
287.21	0.02
287.424	0
287.637	-0.01
287.851	0.02
288.065	0.06
288.278	-0
288.492	0.04
288.705	-0.01
288.919	0.03
289.132	-0.05
289.346	0.06
289.559	-0.04
289.773	-0.02
289.986	0.02
290.2	0.03
290.413	0.07
290.626	-0.04
290.84	-0.02
291.053	0.01
291.267	0.09
291.48	0.03
291.693	0.04
291.906	-0.04
292.12	0.02
292.333	-0.02
292.546	-0.04
292.76	0.11
292.973	0.01
293.186	0.03
293.399	0.01
293.612	0.06
293.826	0.04
294.039	0.03
294.252	-0.02
294.465	0.04
294.678	0.06
294.891	0.01
295.104	-0.02
295.317	0.01
295.53	-0.01
295.743	0.01
295.956	0
296.169	0.03
296.382	0.09
296.595	0.02
296.808	-0.02
297.021	0.13
297.234	0.08
297.447	-0
297.66	0.07
297.873	0.07
298.086	0.04
298.299	-0.05
298.511	-0.05
298.724	0.04
298.937	-0.01
299.15	-0.02
299.363	0.05
299.575	0.08
299.788	0.08
300.001	-0.02
300.213	-0.02
300.426	0.02
300.639	0.02
300.852	-0.01
301.064	0.09
301.277	0.11
301.489	0.06
301.702	0.08
301.915	-0
302.127	0.04
302.34	0.06
302.552	0.08
302.765	0.05
302.977	0.04
303.19	0.02
303.402	-0.01
303.615	0.01
303.827	0.01
304.04	0.01
304.252	0.06
304.464	-0
304.677	0.12
304.889	0.04
305.102	0.01
305.314	0.02
305.526	0.11
305.739	0.06
305.951	-0.04
306.163	0.02
306.375	0.11
306.588	-0.01
306.8	-0.02
307.012	-0.01
307.224	0.02
307.436	0.12
307.649	-0.07
307.861	0.04
308.073	0.06
308.285	0.01
308.497	-0
308.709	-0.01
308.921	0.02
309.133	0.07
309.346	0
309.558	0.01
309.77	0.07
309.982	0.09
310.194	0.06
310.406	0.02
310.617	0.13
310.829	0.03
311.041	0.09
311.253	0.01
311.465	-0.01
311.677	0.01
311.889	0.02
312.101	-0.02
312.313	0.05
312.524	0.14
312.736	-0.01
312.948	0.01
313.16	0.12
313.372	0.1
313.583	0.05
313.795	0.02
314.007	0.05
314.218	0.09
314.43	0.05
314.642	0.01
314.853	-0.07
315.065	0.06
315.277	0.03
315.488	0.05
315.7	0.08
315.912	0.07
316.123	0.03
316.335	0
316.546	0.15
316.758	0.02
316.969	0.02
317.181	0.02
317.392	0.06
317.604	0.08
317.815	-0.02
318.026	-0.02
318.238	0.01
318.449	0.08
318.661	-0.07
318.872	-0.03
319.083	-0
319.295	0.07
319.506	0.02
319.717	0.01
319.929	0.07
320.14	0.05
320.351	0.07
320.562	0
320.774	0.05
320.985	0.03
321.196	0.04
321.407	-0.04
321.618	0.07
321.829	0.05
322.041	0.08
322.252	0.01
322.463	0.05
322.674	0.04
322.885	-0.02
323.096	0.02
323.307	0.03
323.518	0.05
323.729	-0.01
323.94	0.03
324.151	-0
324.362	0.01
324.573	0.05
324.784	0.01
324.995	0.09
325.206	0.04
325.417	0.01
325.628	0.03
325.838	0.03
326.049	0.06
326.26	0.05
326.471	-0.02
326.682	0.03
326.892	0.08
327.103	-0.03
327.314	-0.04
327.525	0.12
327.735	0.04
327.946	0
328.157	-0.03
328.368	0.04
328.578	-0.01
328.789	0.05
328.999	0.02
329.21	0.04
329.421	0.06
329.631	0.03
329.842	0.03
330.052	0.1
330.263	0.07
330.473	0.03
330.684	0.03
330.894	0.07
331.105	0.11
331.315	0.04
331.526	-0.03
331.736	0.11
331.947	0.04
332.157	0.09
332.367	0.03
332.578	0.06
332.788	0.11
332.999	0.07
333.209	0.03
333.419	-0.05
333.629	0.04
333.84	0.08
334.05	0.05
334.26	0.15
334.47	0.05
334.681	0.08
334.891	0.01
335.101	0.07
335.311	0.14
335.521	0.02
335.732	-0.01
335.942	0.14
336.152	0.09
336.362	0.11
336.572	0.05
336.782	0.06
336.992	0.03
337.202	0.05
337.412	0.04
337.622	0.07
337.832	0.08
338.042	0.02
338.252	0.07
338.462	0.01
338.672	0.05
338.882	0.06
339.092	0.07
339.302	0.16
339.511	0.03
339.721	-0.02
339.931	0.02
340.141	0.1
340.351	0.08
340.561	0.04
340.77	0.08
340.98	0.02
341.19	0.06
341.4	0.02
341.609	0.01
341.819	0.08
342.029	-0.03
342.238	0.03
342.448	0.01
342.658	0.04
342.867	0.05
343.077	0.05
343.286	0.05
343.496	0.09
343.706	0.1
343.915	0.03
344.125	0.03
344.334	0.08
344.544	-0
344.753	-0.01
344.963	0.02
345.172	0.02
345.381	0.04
345.591	0.04
345.8	0.04
346.01	0.13
346.219	0.07
346.428	-0.01
346.638	0.03
346.847	0.05
347.056	0.07
347.266	-0.01
347.475	0.06
347.684	0.09
347.893	0.02
348.103	0.07
348.312	0.06
348.521	-0.02
348.73	0.09
348.94	0.06
349.149	0.03
349.358	0.03
349.567	-0.01
349.776	0
349.985	0.02
350.194	0.07
350.403	0.11
350.612	-0.01
350.821	0.01
351.03	0.06
351.239	-0.01
351.448	0.04
351.657	0.03
351.866	0.13
352.075	0.02
352.284	-0.03
352.493	0.01
352.702	0.11
352.911	0.07
353.12	0.07
353.329	0.02
353.538	0.07
353.746	0.07
353.955	0.01
354.164	0.03
354.373	0.03
354.582	0.13
354.79	0.05
354.999	0.06
355.208	0.05
355.416	0.1
355.625	-0
355.834	0
356.042	0.04
356.251	0
356.46	0.01
356.668	0.08
356.877	0.13
357.085	0.09
357.294	-0.04
357.503	0.12
357.711	0.03
357.92	0.14
358.128	0.08
358.337	0.01
358.545	0.09
358.754	0.04
358.962	0.05
359.17	0.06
359.379	0.08
359.587	0.1
359.796	0.05
360.004	0.12
360.212	0.09
360.421	0.09
360.629	0.03
360.837	0.06
361.046	0.08
361.254	0.18
361.462	0.05
361.67	0.01
361.879	0.06
362.087	0.11
362.295	0.06
362.503	0.02
362.711	0.02
362.92	0.04
363.128	0.05
363.336	0.05
363.544	0.04
363.752	0.05
363.96	0.02
364.168	0.06
364.376	0.09
364.584	0.03
364.792	0.12
365	0.11
365.208	0.05
365.416	0.07
365.624	0.08
365.832	0.07
366.04	0.09
366.248	0.08
366.456	0.05
366.664	0.06
366.872	0.05
367.079	0.05
367.287	0.06
367.495	0.03
367.703	0.04
367.911	0.05
368.118	0.05
368.326	0.04
368.534	0.03
368.742	0.13
368.949	0.01
369.157	0.05
369.365	0.1
369.572	0.03
369.78	0.03
369.988	0.1
370.195	0.11
370.403	0.1
370.61	0.03
370.818	0.04
371.026	0.13
371.233	0.05
371.441	0.08
371.648	0.08
371.856	0.07
372.063	0.08
372.271	0.02
372.478	0.02
372.685	0.02
372.893	0.1
373.1	0.09
373.308	0.05
373.515	0.15
373.722	0.11
373.93	0.06
374.137	0.12
374.344	0.14
374.552	0.1
374.759	0.11
374.966	0.08
375.173	0.08
375.381	0.13
375.588	0.08
375.795	0.04
376.002	0.06
376.209	0.08
376.417	0.07
376.624	0.05
376.831	0.11
377.038	0.05
377.245	0.07
377.452	0.07
377.659	0.09
377.866	0.09
378.073	0.06
378.28	0.09
378.487	0.09
378.694	0.12
378.901	0.08
379.108	0.1
379.315	0.14
379.522	0.2
379.729	0.11
379.936	0.06
380.143	0.09
380.35	0.11
380.557	0.14
380.763	0.14
380.97	0.15
381.177	0.14
381.384	0.15
381.591	0.11
381.797	0.15
382.004	0.17
382.211	0.19
382.418	0.13
382.624	0.16
382.831	0.18
383.038	0.14
383.244	0.16
383.451	0.18
383.658	0.16
383.864	0.15
384.071	0.14
384.277	0.29
384.484	0.18
384.69	0.23
384.897	0.16
385.103	0.16
385.31	0.2
385.516	0.22
385.723	0.15
385.929	0.26
386.136	0.23
386.342	0.26
386.549	0.32
386.755	0.33
386.961	0.3
387.168	0.34
387.374	0.32
387.58	0.39
387.787	0.37
387.993	0.37
388.199	0.36
388.406	0.36
388.612	0.37
388.818	0.39
389.024	0.37
389.231	0.53
389.437	0.57
389.643	0.53
389.849	0.56
390.055	0.59
390.261	0.59
390.467	0.68
390.674	0.66
390.88	0.67
391.086	0.74
391.292	0.67
391.498	0.83
391.704	0.89
391.91	0.87
392.116	0.88
392.322	0.85
392.528	1.09
392.734	1.05
392.94	1.15
393.146	1.18
393.352	1.23
393.557	1.22
393.763	1.38
393.969	1.42
394.175	1.47
394.381	1.51
394.587	1.63
394.792	1.7
394.998	1.93
395.204	1.99
395.41	1.98
395.615	2.13
395.821	2.24
396.027	2.35
396.233	2.6
396.438	2.64
396.644	2.89
396.85	2.9
397.055	3.07
397.261	3.2
397.466	3.46
397.672	3.47
397.878	3.68
398.083	3.76
398.289	3.93
398.494	4
398.7	4.22
398.905	4.22
399.111	4.66
399.316	4.6
399.522	4.86
399.727	5.06
399.932	5.23
400.138	5.4
400.343	5.75
400.549	5.81
400.754	6.29
400.959	6.53
401.165	6.81
401.37	6.99
401.575	7.62
401.78	7.7
401.986	7.96
402.191	8.19
402.396	8.53
402.601	8.92
402.807	9.26
403.012	9.5
403.217	10.18
403.422	10.2
403.627	10.75
403.832	11.18
404.037	11.47
404.243	11.37
404.448	11.88
404.653	12.12
404.858	12.42
405.063	12.39
405.268	12.91
405.473	13.11
405.678	13.31
405.883	13.93
406.088	13.96
406.293	13.91
406.498	14.37
406.703	14.24
406.907	14.65
407.112	15.08
407.317	15.66
407.522	15.71
407.727	15.8
407.932	15.91
408.136	16.28
408.341	15.97
408.546	15.99
408.751	15.98
408.956	15.93
409.16	16.17
409.365	16.05
409.57	15.53
409.774	15.69
409.979	15.47
410.184	15.22
410.388	15.07
410.593	15.12
410.798	15.03
411.002	14.98
411.207	14.53
411.411	14.42
411.616	13.96
411.82	13.95
412.025	13.61
412.229	13.42
412.434	12.9
412.638	12.56
412.843	12.37
413.047	11.99
413.252	11.45
413.456	11.62
413.66	11.12
413.865	10.86
414.069	10.54
414.273	10.33
414.478	9.97
414.682	9.76
414.886	9.42
415.091	9.11
415.295	8.9
415.499	8.83
415.703	8.37
415.908	8.35
416.112	7.93
416.316	8
416.52	7.67
416.724	7.42
416.929	7.24
417.133	7.25
417.337	6.96
417.541	6.8
417.745	6.69
417.949	6.52
418.153	6.46
418.357	6.24
418.561	6.3
418.765	5.99
418.969	5.93
419.173	5.92
419.377	5.66
419.581	5.73
419.785	5.51
419.989	5.25
420.193	5.32
420.397	5.15
420.601	5.16
420.804	5.07
421.008	4.83
421.212	4.72
421.416	4.54
421.62	4.39
421.823	4.2
422.027	4.27
422.231	3.9
422.435	3.81
422.638	3.67
422.842	3.63
423.046	3.45
423.249	3.46
423.453	3.29
423.657	3.26
423.86	3.13
424.064	3.11
424.268	3
424.471	2.86
424.675	2.9
424.878	2.8
425.082	2.7
425.285	2.74
425.489	2.59
425.692	2.56
425.896	2.37
426.099	2.47
426.303	2.33
426.506	2.23
426.71	2.34
426.913	2.26
427.116	2.2
427.32	2.12
427.523	2.04
427.726	2.06
427.93	1.87
428.133	2
428.336	1.93
428.54	1.85
428.743	1.86
428.946	1.89
429.149	1.78
429.353	1.77
429.556	1.68
429.759	1.64
429.962	1.49
430.165	1.61
430.368	1.44
430.571	1.36
430.775	1.37
430.978	1.31
431.181	1.36
431.384	1.28
431.587	1.22
431.79	1.26
431.993	1.17
432.196	1.18
432.399	1.2
432.602	1.27
432.805	1.15
433.008	1.21
433.211	1.05
433.414	1.16
433.616	1.15
433.819	1.08
434.022	1
434.225	1.17
434.428	1.05
434.631	1.23
434.833	1.02
435.036	0.99
435.239	1.01
435.442	1
435.645	0.96
435.847	0.93
436.05	0.93
436.253	0.91
436.455	0.8
436.658	0.8
436.861	0.92
437.063	0.82
437.266	0.77
437.468	0.79
437.671	0.93
437.874	0.77
438.076	0.73
438.279	0.73
438.481	0.76
438.684	0.73
438.886	0.78
439.089	0.62
439.291	0.7
439.494	0.71
439.696	0.64
439.899	0.6
440.101	0.71
440.303	0.61
440.506	0.66
440.708	0.62
440.91	0.72
441.113	0.59
441.315	0.68
441.517	0.51
441.72	0.62
441.922	0.53
442.124	0.5
442.326	0.53
442.529	0.59
442.731	0.48
442.933	0.64
443.135	0.5
443.337	0.49
443.539	0.51
443.742	0.48
443.944	0.5
444.146	0.38
444.348	0.43
444.55	0.4
444.752	0.41
444.954	0.34
445.156	0.45
445.358	0.39
445.56	0.47
445.762	0.33
445.964	0.38
446.166	0.34
446.368	0.39
446.57	0.43
446.772	0.36
446.974	0.32
447.175	0.39
447.377	0.33
447.579	0.33
447.781	0.27
447.983	0.37
448.184	0.29
448.386	0.34
448.588	0.25
448.79	0.28
448.991	0.27
449.193	0.27
449.395	0.31
449.597	0.36
449.798	0.32
450	0.33
450.202	0.27
450.403	0.29
450.605	0.34
450.806	0.28
451.008	0.23
451.21	0.28
451.411	0.27
451.613	0.29
451.814	0.24
452.016	0.35
452.217	0.26
452.419	0.28
452.62	0.24
452.821	0.32
453.023	0.33
453.224	0.31
453.426	0.26
453.627	0.26
453.828	0.28
454.03	0.25
454.231	0.31
454.432	0.2
454.634	0.33
454.835	0.2
455.036	0.2
455.238	0.3
455.439	0.35
455.64	0.17
455.841	0.19
456.042	0.33
456.244	0.27
456.445	0.17
456.646	0.15
456.847	0.15
457.048	0.26
457.249	0.3
457.45	0.44
457.651	0.19
457.852	0.26
458.054	0.2
458.255	0.2
458.456	0.27
458.657	0.23
458.858	0.19
459.058	0.25
459.259	0.28
459.46	0.22
459.661	0.19
459.862	0.35
460.063	0.24
460.264	0.27
460.465	0.2
460.666	0.35
460.866	0.23
461.067	0.17
461.268	0.19
461.469	0.17
461.67	0.24
461.87	0.23
462.071	0.17
462.272	0.12
462.473	0.25
462.673	0.23
462.874	0.19
463.075	0.18
463.275	0.24
463.476	0.25
463.676	0.25
463.877	0.27
464.078	0.22
464.278	0.26
464.479	0.22
464.679	0.21
464.88	0.21
465.08	0.35
465.281	0.16
465.481	0.19
465.682	0.21
465.882	0.25
466.083	0.22
466.283	0.14
466.483	0.21
466.684	0.14
466.884	0.16
467.085	0.17
467.285	0.26
467.485	0.14
467.686	0.22
467.886	0.17
468.086	0.24
468.286	0.16
468.487	0.22
468.687	0.17
468.887	0.17
469.087	0.2
469.287	0.19
469.488	0.11
469.688	0.21
469.888	0.26
470.088	0.21
470.288	0.21
470.488	0.21
470.688	0.09
470.888	0.16
471.088	0.16
471.288	0.23
471.488	0.18
471.688	0.22
471.888	0.16
472.088	0.24
472.288	0.19
472.488	0.14
472.688	0.18
472.888	0.21
473.088	0.15
473.288	0.17
473.488	0.17
473.688	0.26
473.887	0.17
474.087	0.11
474.287	0.17
474.487	0.15
474.687	0.15
474.886	0.11
475.086	0.14
475.286	0.15
475.486	0.17
475.685	0.15
475.885	0.08
476.085	0.12
476.284	0.17
476.484	0.12
476.684	0.15
476.883	0.2
477.083	0.18
477.282	0.11
477.482	0.18
477.681	0.18
477.881	0.15
478.08	0.1
478.28	0.09
478.479	0.14
478.679	0.22
478.878	0.08
479.078	0.1
479.277	0.1
479.477	0.13
479.676	0.15
479.875	0.13
480.075	0.05
480.274	0.15
480.473	0.13
480.673	0.06
480.872	0.18
481.071	0.12
481.271	0.1
481.47	0.07
481.669	0.09
481.868	0.07
482.067	0.07
482.267	0.09
482.466	0.09
482.665	0.05
482.864	0.03
483.063	0.07
483.262	0.11
483.461	0.12
483.661	0.09
483.86	0.08
484.059	0.1
484.258	0.1
484.457	0.11
484.656	0.07
484.855	0.14
485.054	0.03
485.253	0.06
485.452	0.06
485.651	0.1
485.849	0.09
486.048	0.06
486.247	0.06
486.446	0.09
486.645	0.05
486.844	0.04
487.043	0.08
487.241	0.11
487.44	0.07
487.639	0.07
487.838	0.1
488.037	0.07
488.235	0.15
488.434	0.08
488.633	0.06
488.831	0.08
489.03	0.11
489.229	0.1
489.427	0.08
489.626	0.14
489.825	0.13
490.023	0.09
490.222	0.08
490.42	0.09
490.619	0.09
490.817	0.09
491.016	0.08
491.214	0.09
491.413	0.05
491.611	0.05
491.81	0.09
492.008	0.1
492.207	0.1
492.405	0.09
492.604	0.04
492.802	0.07
493	0.08
493.199	0.07
493.397	0.06
493.595	0.05
493.794	0.07
493.992	0.12
494.19	0.08
494.388	0.08
494.587	0.04
494.785	0.05
494.983	0.03
495.181	0.07
495.379	0.07
495.578	0.06
495.776	0.08
495.974	0.09
496.172	0.05
496.37	0.05
496.568	0.03
496.766	0.03
496.964	0.08
497.162	0.04
497.36	0.03
497.558	0.08
497.756	0.08
497.954	0.06
498.152	0.04
498.35	0.07
498.548	0.06
498.746	0.08
498.944	0.02
499.142	0.07
499.34	0.05
499.538	0.06
499.736	0.03
499.933	0.09
500.131	0.1
500.329	0.08
500.527	0.1
500.725	0.11
500.922	0.08
501.12	0.05
501.318	0.08
501.516	0.03
501.713	0.06
501.911	0.03
502.109	0.05
502.306	0.07
502.504	0.05
502.701	0.04
502.899	0.09
503.097	0.1
503.294	0.08
503.492	0.04
503.689	0.07
503.887	0.08
504.084	0.09
504.282	0.06
504.479	0
504.677	0.09
504.874	0.05
505.072	0.05
505.269	0.06
505.466	0.07
505.664	0.08
505.861	0.03
506.059	0.05
506.256	0.08
506.453	0.03
506.651	0.1
506.848	0.06
507.045	0.06
507.242	0.06
507.44	0.03
507.637	0.04
507.834	0.03
508.031	0.07
508.229	0.03
508.426	0.05
508.623	0.05
508.82	0.03
509.017	0.03
509.214	0.03
509.411	0.07
509.608	0.03
509.805	0.03
510.003	0.03
510.2	0.05
510.397	0.06
510.594	0.04
510.791	0.03
510.988	0.02
511.184	0.07
511.381	0.02
511.578	0.02
511.775	0.08
511.972	0.04
512.169	0.04
512.366	0.04
512.563	0.08
512.76	0.03
512.956	0.09
513.153	0.01
513.35	0.04
513.547	0.03
513.744	0.02
513.94	-0
514.137	0.05
514.334	0.05
514.53	0.04
514.727	0.05
514.924	0.09
515.12	0.03
515.317	0.02
515.514	0.02
515.71	0.01
515.907	0.04
516.103	0.04
516.3	0.05
516.497	0.06
516.693	0.08
516.89	0.05
517.086	0
517.283	0.08
517.479	0.03
517.676	0.05
517.872	0.04
518.068	0.03
518.265	0.03
518.461	0.02
518.658	0
518.854	0.04
519.05	0.01
519.247	-0.01
519.443	0.05
519.639	0.05
519.836	0.05
520.032	0.05
520.228	0.01
520.424	0.07
520.621	0.03
520.817	0.02
521.013	0.03
521.209	0.06
521.405	0.08
521.601	0.07
521.798	0.04
521.994	0.08
522.19	0.03
522.386	0
522.582	0.03
522.778	0.04
522.974	0
523.17	0.05
523.366	0.06
523.562	0.05
523.758	0.03
523.954	0.02
524.15	0.03
524.346	0.04
524.542	0.01
524.738	0.01
524.934	0.03
525.129	0.03
525.325	0.03
525.521	0
525.717	0.05
525.913	0.04
526.109	0.03
526.304	0.02
526.5	0.04
526.696	0.05
526.892	0.01
527.087	0.02
527.283	0.01
527.479	0.04
527.674	0.03
527.87	0.02
528.066	0.01
528.261	0.06
528.457	0.03
528.653	0.03
528.848	-0
529.044	0.04
529.239	0.02
529.435	0.04
529.63	0.04
529.826	0.04
530.021	0.04
530.217	0.03
530.412	0.02
530.608	0.03
530.803	0.03
530.999	0.01
531.194	-0.01
531.389	0.03
531.585	-0.01
531.78	0.01
531.975	0.04
532.171	0.05
532.366	0.03
532.561	0.03
532.757	0.01
532.952	0.02
533.147	0.04
533.342	0.01
533.538	0.01
533.733	0.05
533.928	0.03
534.123	0.01
534.318	0
534.513	0.02
534.709	0.02
534.904	0.01
535.099	0.01
535.294	0.03
535.489	0.03
535.684	0.02
535.879	-0
536.074	0.02
536.269	-0.01
536.464	0.04
536.659	0.01
536.854	0.01
537.049	0.03
537.244	0.04
537.439	0
537.634	0.04
537.828	0.03
538.023	0.02
538.218	-0.01
538.413	0.02
538.608	0.01
538.803	0.04
538.997	-0.01
539.192	0.06
539.387	0.03
539.582	0.03
539.776	0.02
539.971	0.03
540.166	0.01
540.36	-0.01
540.555	0.03
540.75	0.03
540.944	0.03
541.139	-0.02
541.334	0.01
541.528	0.01
541.723	0.04
541.917	0.01
542.112	-0.03
542.306	0.02
542.501	0.03
542.695	0.03
542.89	0
543.084	0.03
543.279	0
543.473	0.02
543.668	0.01
543.862	0.01
544.056	0.05
544.251	0.01
544.445	0.03
544.64	0.02
544.834	-0
545.028	0.02
545.222	0.02
545.417	0.04
545.611	0.04
545.805	0.01
546	0.01
546.194	0.02
546.388	-0
546.582	0.03
546.776	0.03
546.97	0.03
547.165	0.04
547.359	0.03
547.553	0.01
547.747	0.02
547.941	0.04
548.135	0.03
548.329	0.05
548.523	0.01
548.717	-0
548.911	0.01
549.105	0.03
549.299	0.01
549.493	0.06
549.687	0.04
549.881	0.02
550.075	0.03
550.269	-0.01
550.463	0.04
550.657	-0
550.85	0.01
551.044	-0
551.238	0.03
551.432	-0.01
551.626	-0.01
551.82	0.05
552.013	0.01
552.207	0.03
552.401	0.02
552.594	0.01
552.788	0.01
552.982	0.03
553.176	0.01
553.369	0.03
553.563	0.03
553.756	-0.04
553.95	-0.01
554.144	0.03
554.337	0.05
554.531	0.02
554.724	0.04
554.918	0
555.111	0.04
555.305	0.02
555.498	0.08
555.692	0.04
555.885	-0.01
556.079	0.02
556.272	-0
556.466	0.02
556.659	0.04
556.852	0.01
557.046	-0.01
557.239	0.04
557.432	-0.01
557.626	-0.01
557.819	0.03
558.012	0.05
558.206	0.02
558.399	0.03
558.592	0.02
558.785	0.01
558.979	0.04
559.172	0.01
559.365	0.01
559.558	0.03
559.751	0
559.944	-0.01
560.138	0.03
560.331	0
560.524	0
560.717	0.02
560.91	0.01
561.103	0.01
561.296	0.01
561.489	0.02
561.682	0.01
561.875	0.04
562.068	0.03
562.261	0.02
562.454	0.05
562.647	0.02
562.84	0.02
563.032	0.02
563.225	0.03
563.418	0.01
563.611	-0.02
563.804	0.03
563.997	-0.02
564.19	-0.01
564.382	0.01
564.575	0.01
564.768	0.01
564.961	-0
565.153	0
565.346	0.05
565.539	0.04
565.731	0.04
565.924	0.04
566.117	0.04
566.309	0.03
566.502	0.01
566.695	0.02
566.887	0.04
567.08	-0.01
567.272	-0
567.465	-0
567.657	0.03
567.85	0.03
568.042	0.05
568.235	0.03
568.427	0.02
568.62	0.01
568.812	0.03
569.005	-0
569.197	-0.01
569.389	0.03
569.582	0.02
569.774	0.02
569.966	-0.01
570.159	-0.02
570.351	0.04
570.543	-0.01
570.736	0.01
570.928	-0.01
571.12	0.03
571.312	0.01
571.505	-0.03
571.697	0.05
571.889	-0.01
572.081	0.01
572.273	-0.02
572.465	0.05
572.658	0.01
572.85	0.01
573.042	-0
573.234	0.01
573.426	0.04
573.618	-0.01
573.81	0.02
574.002	0.05
574.194	0.05
574.386	-0.03
574.578	-0.07
574.77	-0.01
574.962	0
575.154	-0.03
575.346	0
575.538	-0.01
575.729	-0.01
575.921	0
576.113	-0.01
576.305	0.03
576.497	0.01
576.689	-0.01
576.88	-0.01
577.072	0.04
577.264	0.01
577.456	0
577.647	-0.06
577.839	0.04
578.031	0.03
578.223	-0.01
578.414	-0.02
578.606	0.05
578.798	0.03
578.989	-0
579.181	0.01
579.372	-0.01
579.564	-0
579.755	0.02
579.947	0.02
580.139	0.02
580.33	-0.04
580.522	0
580.713	-0.05
580.905	0
581.096	0.03
581.287	0.03
581.479	0
581.67	0.02
581.862	0.04
582.053	0.01
582.244	-0.04
582.436	-0.01
582.627	0.01
582.818	-0.02
583.01	-0.04
583.201	0.02
583.392	0.03
583.583	0.04
583.775	-0.01
583.966	-0.01
584.157	-0
584.348	0.01
584.54	-0.01
584.731	0.03
584.922	0.01
585.113	-0.05
585.304	0.03
585.495	0.03
585.686	0.04
585.877	0.01
586.068	0.02
586.259	0.04
586.45	-0
586.641	-0.01
586.832	-0.03
587.023	0.01
587.214	0.01
587.405	0.04
587.596	-0
587.787	0.03
587.978	0.03
588.169	-0.01
588.36	-0.03
588.551	0.04
588.742	-0.01
588.932	0.01
589.123	0
589.314	0.03
589.505	0.03
589.696	0.02
589.886	-0.03
590.077	-0.03
590.268	0.02
590.458	-0.04
590.649	-0.03
590.84	0.03
591.03	-0
591.221	-0.02
591.412	-0.05
591.602	0.01
591.793	0.04
591.984	-0.03
592.174	-0.01
592.365	0.08
592.555	-0.03
592.746	0.02
592.936	0.02
593.127	0.01
593.317	0.08
593.508	-0.01
593.698	-0
593.889	0
594.079	0
594.269	-0
594.46	-0
594.65	0.02
594.84	0.03
595.031	-0.04
595.221	-0.02
595.411	-0.05
595.602	0.03
595.792	-0.01
595.982	-0.01
596.172	0.07
596.363	0.03
596.553	-0
596.743	-0.01
596.933	0.01
597.123	0.03
597.314	-0.02
597.504	-0.02
597.694	0.04
597.884	0.04
598.074	-0.01
598.264	-0.02
598.454	-0
598.644	0.02
598.834	-0
599.024	-0.05
599.214	-0.02
599.404	0.04
599.594	-0.02
599.784	-0.02
599.974	0.05
600.164	0.01
600.354	-0.04
600.544	-0.04
600.734	0.01
600.924	0.04
601.114	-0.01
601.303	0.01
601.493	0.02
601.683	-0.01
601.873	-0
602.063	-0.05
602.252	0.05
602.442	-0.06
602.632	-0.01
602.821	-0.03
603.011	0.04
603.201	-0
603.39	-0.02
603.58	-0.01
603.77	0.04
603.959	0.06
604.149	-0
604.339	-0.04
604.528	0.06
604.718	0.05
604.907	-0.01
605.097	-0.01
605.286	-0.02
605.476	0.02
605.665	0
605.855	-0.02
606.044	0.05
606.234	0.02
606.423	-0.02
606.612	-0.03
606.802	0.05
606.991	0.02
607.181	-0.01
607.37	-0.01
607.559	0.03
607.749	-0.03
607.938	0.02
608.127	-0.03
608.316	-0.02
608.506	0.04
608.695	-0.01
608.884	-0.02
609.073	0.03
609.263	0.05
609.452	0.02
609.641	0.01
609.83	0.01
610.019	0.01
610.208	-0.03
610.397	-0.01
610.586	0.04
610.775	-0.02
610.965	-0.01
611.154	-0.03
611.343	-0.01
611.532	-0
611.721	-0.03
611.91	-0.03
612.099	0.02
612.287	0.01
612.476	-0.02
612.665	0.03
612.854	-0.04
613.043	0.04
613.232	-0
613.421	-0.02
613.61	0.01
613.798	-0.04
613.987	0.05
614.176	0.04
614.365	0.02
614.554	0.02
614.742	0.04
614.931	-0.04
615.12	0.02
615.309	0.01
615.497	0.02
615.686	-0.03
615.875	-0.04
616.063	0.03
616.252	0
616.44	0
616.629	0.01
616.818	0.03
617.006	-0.03
617.195	-0.02
617.383	0.03
617.572	-0.02
617.76	-0.01
617.949	-0.02
618.137	0.02
618.326	0.05
618.514	-0
618.703	-0.02
618.891	0.05
619.079	-0.08
619.268	0.02
619.456	-0.03
619.644	0.01
619.833	-0.02
620.021	-0
620.209	-0.07
620.398	0.01
620.586	0
620.774	0.03
620.962	-0
621.151	0.04
621.339	0.01
621.527	-0.03
621.715	-0.04
621.903	-0.05
622.092	-0.01
622.28	0
622.468	-0
622.656	0
622.844	0.05
623.032	-0.04
623.22	-0.05
623.408	0.02
623.596	-0.02
623.784	0.02
623.972	-0.05
624.16	-0
624.348	0.06
624.536	0.01
624.724	-0.03
624.912	0.05
625.1	0.03
625.288	-0
625.476	-0.03
625.664	0
625.851	-0.06
626.039	-0
626.227	0
626.415	-0.01
626.603	-0.06
626.79	0.02
626.978	-0
627.166	0.02
627.354	-0.01
627.541	-0.03
627.729	-0.07
627.917	0.03
628.104	0.05
628.292	0.02
628.48	0
628.667	0.01
628.855	-0
629.042	0.01
629.23	-0.01
629.418	-0.03
629.605	-0.01
629.793	-0.03
629.98	-0.04
630.168	-0.02
630.355	0.02
630.543	0.01
630.73	-0.02
630.917	0.05
631.105	0.06
631.292	-0.02
631.48	0.01
631.667	0.07
631.854	-0.01
632.042	0.02
632.229	-0.06
632.416	-0.03
632.604	-0.03
632.791	-0.04
632.978	0.03
633.165	0.02
633.353	0.05
633.54	0.02
633.727	-0.1
633.914	-0.05
634.101	-0.05
634.289	0.02
634.476	-0.06
634.663	-0.06
634.85	0.04
635.037	-0.02
635.224	-0.05
635.411	0.04
635.598	0.04
635.785	0.03
635.972	-0.01
636.159	0.03
636.346	-0.02
636.533	-0
636.72	0.01
636.907	-0.03
637.094	0.02
637.281	-0.03
637.468	0.02
637.655	0.01
637.842	-0.01
638.029	-0.02
638.215	0
638.402	0.01
638.589	-0.04
638.776	-0.02
638.963	-0.03
639.149	0.02
639.336	0.05
639.523	-0.05
639.709	0.02
639.896	-0.03
640.083	0.07
640.27	0.02
640.456	0.01
640.643	0.02
640.829	-0.04
641.016	-0
641.203	-0.07
641.389	0.06
641.576	-0
641.762	-0.01
641.949	-0.05
642.135	-0
642.322	0.02
642.508	-0.06
642.695	-0.01
642.881	-0.02
643.068	0.01
643.254	-0.02
643.441	0.04
643.627	-0.01
643.813	0
644	0.04
644.186	-0.05
644.372	0.03
644.559	0.04
644.745	0
644.931	-0.05
645.118	0
645.304	-0.01
645.49	-0.02
645.676	-0.04
645.862	0.01
646.049	0.03
646.235	-0.03
646.421	0.06
646.607	0.07
646.793	-0.04
646.979	-0.04
647.165	-0.02
647.352	0.04
647.538	0.03
647.724	-0.01
647.91	-0.02
648.096	0.02
648.282	0.05
648.468	-0.03
648.654	-0.03
648.84	0.03
649.026	-0.01
649.212	-0.01
649.397	-0.04
649.583	-0.04
649.769	0.01
649.955	0
650.141	0.01
650.327	0.06
650.513	-0.08
650.698	0.03
650.884	-0.08
651.07	0
651.256	0.01
651.442	-0.02
651.627	-0.02
651.813	-0.02
651.999	-0.05
652.184	-0
652.37	-0.03
652.556	-0.03
652.741	0.05
652.927	-0.07
653.113	0.02
653.298	0.01
653.484	-0.03
653.669	-0.08
653.855	0
654.04	0.02
654.226	0
654.412	0
654.597	-0.05
654.782	0.02
654.968	0.05
655.153	-0.01
655.339	-0.01
655.524	-0.06
655.71	0.06
655.895	-0.04
656.08	-0.02
656.266	0.05
656.451	0.01
656.636	-0.04
656.822	-0.02
657.007	-0
657.192	-0.01
657.378	-0.05
657.563	0.01
657.748	-0.01
657.933	-0.02
658.118	-0.03
658.304	0.02
658.489	0.04
658.674	0.01
658.859	-0.07
659.044	-0.01
659.229	-0.02
659.414	-0.02
659.599	0
659.785	-0.06
659.97	0.01
660.155	0.03
660.34	0
660.525	-0.02
660.71	-0.02
660.895	0.04
661.08	-0.04
661.264	-0.03
661.449	0.05
661.634	0.07
661.819	0
662.004	0.02
662.189	-0.07
662.374	-0.01
662.559	-0.03
662.743	-0.05
662.928	-0.02
663.113	-0
663.298	-0.08
663.483	-0.03
663.667	0
663.852	-0.07
664.037	0.03
664.221	-0.03
664.406	-0
664.591	-0.02
664.775	-0.01
664.96	-0.03
665.145	-0.01
665.329	0.04
665.514	-0.02
665.698	-0.03
665.883	-0.06
666.068	0.05
666.252	-0
666.437	-0.03
666.621	-0.03
666.806	0.04
666.99	-0.01
667.174	-0.04
667.359	0.09
667.543	-0.04
667.728	-0.01
667.912	-0.06
668.096	-0.01
668.281	-0.02
668.465	-0.03
668.649	-0.01
668.834	-0
669.018	-0.04
669.202	-0.05
669.387	-0.05
669.571	0.04
669.755	-0.02
669.939	0
670.124	0.01
670.308	0.07
670.492	0.01
670.676	-0.01
670.86	-0.04
671.044	-0.05
671.228	0.04
671.413	-0.08
671.597	-0.02
671.781	-0.04
671.965	0.01
672.149	-0.05
672.333	-0
672.517	-0.05
672.701	0.03
672.885	-0.07
673.069	-0.09
673.253	0.04
673.437	-0.03
673.621	-0.03
673.804	-0.01
673.988	-0
674.172	0.01
674.356	-0.08
674.54	-0.01
674.724	0.09
674.908	-0.04
675.091	0.01
675.275	-0.02
675.459	0.02
675.643	-0.03
675.826	-0.02
676.01	-0.06
676.194	-0.02
676.377	0.01
676.561	-0.01
676.745	-0.02
676.928	0.02
677.112	0.04
677.296	-0.06
677.479	-0.03
677.663	-0.07
677.846	0.02
678.03	-0.03
678.213	-0.02
678.397	-0.01
678.58	-0.04
678.764	-0.04
678.947	-0.08
679.131	-0.03
679.314	-0.03
679.498	0.02
679.681	-0.04
679.865	0.05
680.048	-0.01
680.231	0.01
680.415	-0.06
680.598	-0.02
680.781	-0.04
680.965	-0.02
681.148	0
681.331	-0.03
681.514	-0.02
681.698	-0.03
681.881	-0.01
682.064	-0.01
682.247	0.02
682.43	-0.07
682.614	0.06
682.797	0.03
682.98	0.06
683.163	-0.05
683.346	-0.01
683.529	-0.05
683.712	-0.04
683.895	0.02
684.078	-0.06
684.261	-0.01
684.444	0
684.627	0.04
684.81	-0.07
684.993	-0.02
685.176	0.04
685.359	-0
685.542	-0.06
685.725	0.06
685.908	0
686.091	-0.05
686.274	0.02
686.457	0
686.639	0
686.822	0.07
687.005	-0.02
687.188	0.09
687.371	0.07
687.553	-0.03
687.736	0.01
687.919	0.05
688.102	0.08
688.284	-0.03
688.467	-0.02
688.65	-0.07
688.832	-0.1
689.015	0.01
689.197	-0.08
689.38	0.11
689.563	0.12
689.745	-0.02
689.928	-0.03
690.11	-0.05
690.293	0.03
690.475	-0.06
690.658	0
690.84	0.03
691.023	-0.05
691.205	0.02
691.388	-0.02
691.57	0.04
691.752	-0.02
691.935	-0.09
692.117	0.01
692.3	-0.03
692.482	0.06
692.664	-0.03
692.847	-0.03
693.029	0.07
693.211	0.01
693.393	0.01
693.576	-0
693.758	-0.01
693.94	-0.07
694.122	-0.02
694.304	-0.04
694.487	-0.04
694.669	0.08
694.851	-0.08
695.033	-0.03
695.215	-0.06
695.397	-0.03
695.579	-0
695.761	-0.03
695.943	-0.08
696.125	0.09
696.308	0.04
696.49	-0.12
696.671	0.11
696.853	-0.01
697.035	0.14
697.217	-0.02
697.399	0.01
697.581	-0.01
697.763	-0.01
697.945	-0.04
698.127	-0.02
698.309	0.02
698.491	-0.04
698.672	0.04
698.854	0.07
699.036	0.06
699.218	-0.04
699.399	0.05
699.581	0.09
699.763	0.01
699.945	-0.06
700.126	-0.04
700.308	0.04
700.49	-0.07
700.671	-0.11
700.853	-0.09
701.035	-0.07
701.216	0
701.398	-0.07
701.579	-0
701.761	0.02
701.943	-0.04
702.124	-0.04
702.306	-0.02
702.487	0.14
702.669	-0.05
702.85	-0.05
703.031	-0.05
703.213	0.07
703.394	0.02
703.576	-0.03
703.757	0.06
703.938	0.03
704.12	0.15
704.301	0.01
704.483	-0.04
704.664	-0.02
704.845	0.15
705.026	0.04
705.208	-0.03
705.389	0
705.57	0.04
705.751	-0.01
705.933	0.01
706.114	0.04
706.295	-0.02
706.476	-0.12
706.657	0.05
706.838	0.02
707.02	0.03
707.201	-0.06
707.382	-0.02
707.563	0.06
707.744	0.02
707.925	-0.1
708.106	-0.06
708.287	0.06
708.468	0.06
708.649	0.04
708.83	0.05
709.011	-0.05
709.192	0.03
709.373	-0.12
709.554	-0.03
709.734	-0.06
709.915	0.05
710.096	-0.02
710.277	-0.11
710.458	-0.01
710.639	0.03
710.819	-0.14
711	-0.06
711.181	0.09
711.362	0.04
711.542	0.05
711.723	-0.05
711.904	0.03
712.085	-0.01
712.265	0.04
712.446	-0.08
712.627	-0.04
712.807	-0.01
712.988	-0.01
713.168	-0.09
713.349	0.08
713.53	-0.13
713.71	-0.07
713.891	-0.06
714.071	-0.06
714.252	-0.06
714.432	-0.05
714.613	-0.12
714.793	0.01
714.974	0.05
715.154	-0.01
715.334	0.01
715.515	0.13
715.695	-0.09
715.876	-0.04
716.056	-0.04
716.236	-0.12
716.417	-0.01
716.597	-0.05
716.777	0.11
716.957	0.02
717.138	-0.04
717.318	-0.04
717.498	-0.09
717.678	0.03
717.859	0.04
718.039	-0.16
718.219	0.03
718.399	0.08
718.579	-0.09
718.759	-0.14
718.939	-0
719.12	0.04
719.3	0.03
719.48	-0.14
719.66	-0.18
719.84	0.09
720.02	-0
720.2	-0.06
720.38	-0
720.56	0.06
720.74	-0.04
720.92	0.01
721.1	0.06
721.279	0.13
721.459	0.06
721.639	-0.13
721.819	0
721.999	-0.01
722.179	0.05
722.359	-0.06
722.538	-0.05
722.718	-0.03
722.898	-0.06
723.078	-0.03
723.257	-0.01
723.437	0.04
723.617	-0.04
723.797	-0.01
723.976	-0
724.156	0.04
724.336	0.1
724.515	0.08
724.695	-0.14
724.874	-0.02
725.054	0.02
725.234	-0.08
725.413	-0.05
725.593	-0.03
725.772	-0.02
725.952	0.03
726.131	-0.03
726.311	-0.06
726.49	0.03
726.67	-0.09
726.849	-0.08
727.028	0.04
727.208	-0.01
727.387	-0.04
727.567	-0.1
727.746	-0.01
727.925	-0.07
728.105	-0.09
728.284	-0.04
728.463	-0.11
728.643	0.08
728.822	-0.13
729.001	-0.07
729.18	-0.06
729.359	0.05
729.539	-0.08
729.718	-0.05
729.897	0.09
730.076	-0.01
730.255	-0.11
730.434	0.05
730.614	0
730.793	0.08
730.972	-0.11
731.151	0.03
731.33	0.1
731.509	0.11
731.688	-0.01
731.867	-0.1
732.046	-0.14
732.225	0.16
732.404	-0.14
732.583	-0.12
732.762	-0.02
732.941	0.06
733.12	0.02
733.298	-0.05
733.477	0.02
733.656	-0.17
733.835	-0.21
734.014	0.07
734.193	-0.06
734.371	0.08
734.55	0.02
734.729	-0.12
734.908	0
735.086	0.03
735.265	0.09
735.444	-0.18
735.623	-0.18
735.801	-0.14
735.98	-0.07
736.159	-0.11
736.337	0.1
736.516	0
736.694	0.01
736.873	-0.11
737.052	0.12
737.23	0.04
737.409	-0.11
737.587	0.2
737.766	-0.17
737.944	-0.1
738.123	0.01
738.301	-0.01
738.479	-0.09
738.658	0.06
738.836	-0.2
739.015	-0.04
739.193	0.16
739.371	-0.12
739.55	-0.12
739.728	-0.07
739.906	0.07
740.085	0.01
740.263	-0.07
740.441	-0.15
740.62	0.22
740.798	0.07
740.976	-0.14
741.154	-0.13
741.332	0.14
741.511	-0.09
741.689	0.04
741.867	0.04
742.045	-0.03
742.223	0.01
742.401	-0.13
742.579	-0.01
742.757	-0.1
742.935	-0.11
743.114	0.01
743.292	-0.03
743.47	-0.09
743.648	-0.07
743.826	-0.07
744.004	0.01
744.181	0.09
744.359	-0.04
744.537	-0.01
744.715	-0.09
744.893	-0.09
745.071	0.03
745.249	-0.17
745.427	-0.01
745.605	0.03
745.782	-0.16
745.96	0.11
746.138	0.03
746.316	0.11
746.493	-0.05
746.671	-0.01
746.849	-0.07
747.027	0.17
747.204	-0.05
747.382	0.04
747.56	-0.15
747.737	0.06
747.915	-0.08
748.093	0.01
748.27	-0.06
748.448	-0.09
748.625	-0.21
748.803	0.02
748.98	-0.05
749.158	0.06
749.335	0.13
749.513	-0.04
749.69	0.04
749.868	-0.05
750.045	-0.03
750.223	-0.2
750.4	-0.21
750.578	0.13
750.755	-0.05
750.932	-0.15
751.11	0.16
751.287	-0.17
751.464	0.11
751.642	-0.14
751.819	-0.02
751.996	0.01
752.173	-0.06
752.351	-0.13
752.528	-0
752.705	-0.08
752.882	-0.1
753.06	0.02
753.237	-0.01
753.414	0.12
753.591	0.19
753.768	0.09
753.945	-0.06
754.122	-0.13
754.299	0.05
754.476	-0.14
754.654	0.02
754.831	0.07
755.008	0.07
755.185	-0.07
755.362	-0.11
755.539	0.05
755.716	-0.15
755.892	-0.07
756.069	-0.1
756.246	-0.07
756.423	-0.02
756.6	0.13
756.777	-0.12
756.954	0.05
757.131	-0.12
757.307	-0.09
757.484	-0.06
757.661	-0.05
757.838	0.02
758.015	-0.14
758.191	-0.05
758.368	-0.01
758.545	0.22
758.721	-0.02
758.898	-0.05
759.075	0.05
759.251	0.12
759.428	0.09
759.605	-0.15
759.781	-0.01
759.958	0.04
760.134	-0.04
760.311	-0.14
760.488	0.2
760.664	0.08
760.841	-0.04
761.017	-0.15
761.194	0.04
761.37	0.1
761.547	0.05
761.723	0.07
761.899	0.09
762.076	-0.06
762.252	-0.17
762.429	-0.04
762.605	0.03
762.781	-0
762.958	0.1
763.134	-0.11
763.31	0.03
763.486	0.1
763.663	-0.11
763.839	0.05
764.015	-0.23
764.191	-0.01
764.368	0.06
764.544	-0.14
764.72	0.05
764.896	0.16
765.072	-0.03
765.248	-0.08
765.425	-0.1
765.601	0.04
765.777	-0
765.953	-0.25
766.129	-0.18
766.305	-0.01
766.481	-0.02
766.657	-0.05
766.833	0.24
767.009	-0.14
767.185	-0.04
767.361	-0.08
767.537	-0.08
767.713	0.09
767.889	-0.12
768.065	0.05
768.24	-0.25
768.416	0.17
768.592	-0
768.768	-0.17
768.944	-0.02
769.12	-0.03
769.295	-0.08
769.471	-0.03
769.647	-0.06
769.823	0.08
769.998	-0.18
770.174	-0.17
770.35	0.33
770.525	0.28
770.701	-0.07
770.877	-0.03
771.052	-0.18
771.228	0.29
771.403	0.14
771.579	0.08
771.755	0.27
771.93	-0.11
772.106	-0.18
772.281	-0.15
772.457	-0.02
772.632	-0.13
772.808	-0.29
772.983	-0.03
773.159	-0.25
773.334	0.14
773.509	0.04
773.685	-0.15
773.86	0.29
774.036	0.22
774.211	-0.09
774.386	-0.12
774.562	-0.01
774.737	0.31
774.912	-0.15
775.087	0.02
775.263	-0.03
775.438	-0.17
775.613	-0.08
775.788	0.05
775.964	0.16
776.139	0.42
776.314	-0.22
776.489	0.1
776.664	-0.09
776.839	-0.23
777.014	0.15
777.19	0.08
777.365	0.24
777.54	0.2
777.715	0.1
777.89	-0.03
778.065	-0.05
778.24	0.09
778.415	-0.05
778.59	-0.12
778.765	-0.08
778.94	0.02
779.115	-0.19
779.289	-0.14
779.464	-0.1
779.639	-0.23
779.814	-0.15
779.989	-0.07
780.164	0.27
780.339	0.02
780.513	0.02
780.688	-0.08
780.863	-0.1
781.038	-0.04
781.212	-0.16
781.387	0.03
781.562	0.16
781.737	0.11
781.911	0.01
782.086	-0.29
782.261	-0.09
782.435	0.32
782.61	-0.13
782.784	-0.12
782.959	0.22
783.134	-0.18
783.308	-0.23
783.483	0.1
783.657	0.28
783.832	-0.04
784.006	-0.31
784.181	-0.07
784.355	0.19
784.53	-0
784.704	-0.4
784.878	0.21
785.053	0.15
785.227	0.21
785.402	0.56
785.576	-0.3
785.75	-0.22
785.925	-0.04
786.099	-0.15
786.273	0.02
786.448	0.25
786.622	-0.05
786.796	-0.15
786.97	-0.27
787.145	0.56
787.319	-0.25
787.493	-0.2
787.667	-0.32
787.841	-0.08
788.015	0.19
788.19	-0.16
788.364	-0.02
788.538	0.17
788.712	-0.01
788.886	0.01
789.06	0.09
789.234	0.18
789.408	-0.24
789.582	-0.22
789.756	-0.02
789.93	-0.2
790.104	0.01
790.278	0.07
790.452	-0.14
790.626	0.14
790.8	-0.07
790.973	0.12
791.147	-0.01
791.321	0.24
791.495	0.27
791.669	-0.01
791.843	0.05
792.016	0.04
792.19	0.34
792.364	-0.31
792.538	0.55
792.711	0.22
792.885	-0.12
793.059	-0.22
793.233	-0.65
793.406	0.09
793.58	-0.02
793.754	0
793.927	-0.14
794.101	0.17
794.274	0.16
794.448	0.28
794.622	-0.27
794.795	0.22
794.969	0.03
795.142	0.22
795.316	-0.04
795.489	-0.29
795.663	0.42
795.836	0.04
796.009	0.08
796.183	0.32
796.356	0.09
796.53	0.06
796.703	-0.07
796.876	0.4
797.05	-0.26
797.223	-0.13
797.396	0.03
797.57	-0.13
797.743	0.43
797.916	-0.05
798.09	-0.39
798.263	0.03
798.436	0.11
798.609	-0.13
798.782	-0.22
798.956	0.01
799.129	0.06
799.302	-0.45
799.475	-0.26
799.648	-0.23
799.821	-0.14
799.994	-0.02
800.167	-0.38
800.34	-0.09
800.514	0.04
800.687	-0.09
800.86	-0.28
801.033	-0.18
801.206	0.02
801.379	-0.23
801.551	0.15
801.724	0.24
801.897	0.44
802.07	-0.2
802.243	-0.54
802.416	-0.08
802.589	-0.14
802.762	0.23
802.935	-0.17
803.107	0.12
803.28	0.11
803.453	0.05
803.626	0.1
803.798	-0.02
803.971	-0.27
804.144	-0.23
804.317	0.05
804.489	0.39
804.662	0.02
804.835	0.11
805.007	-0.48
805.18	0.45
805.353	-0.1
805.525	-0.34
805.698	-0.2
805.87	0.1
806.043	0.16
806.215	-0.35
806.388	-0.28
806.56	0.04
806.733	0.17
806.905	-0.04
807.078	0.06
807.25	-0.44
807.423	0.04
807.595	0.02
807.768	0.05
807.94	0.36
808.112	0.28
808.285	-0.4
808.457	-0.17
808.629	-0.23
808.802	0.22
808.974	-0.05
809.146	0.06
809.318	-0.5
809.491	-0.3
809.663	0.34
809.835	-0.37
810.007	0.14
810.18	0.14
810.352	-0.43
810.524	-0.11
810.696	0.13
810.868	0.23
811.04	-0.4
811.212	-0.25
811.384	0.54
811.556	0.15
811.728	-0.3
811.901	0.62
812.073	-0.09
812.245	0.5
812.417	0.21
812.589	-0.66
812.76	-0.2
812.932	-0.02
813.104	0.09
813.276	-0.49
813.448	0.26
813.62	-0.3
813.792	-0.05
813.964	-0.05
814.136	0.1
814.307	-0.17
814.479	-0.28
814.651	-0.14
814.823	0.54
814.995	-0.13
815.166	0.21
815.338	-0.16
815.51	-0.55
815.681	0.46
815.853	0.26
816.025	-0.32
816.196	0.3
816.368	0.2
816.54	-0.59
816.711	-0.54
816.883	-0.04
817.054	0.96
817.226	-0.68
817.398	0.08
817.569	-0.1
817.741	0.27
817.912	-0.49
818.084	-0.48
818.255	0.32
818.426	-0.16
818.598	-0.53
818.769	-0.38
818.941	0.48
819.112	0.16
819.283	0.22
819.455	-0.43
819.626	-0.12
819.798	0.02
819.969	0.05
820.14	0.21
820.311	-0
820.483	0.23
820.654	0.26
820.825	-0.11
820.996	0.08
821.168	-0.57
821.339	-0.07
821.51	-0.6
821.681	-0.4
821.852	-0.21
822.023	-0.56
822.195	-0.83
822.366	0.37
822.537	-0.25
822.708	0.19
822.879	-0.37
823.05	0.41
823.221	-0.31
823.392	0.23
823.563	0.31
823.734	-0.29
823.905	-0.21
824.076	-0.36
824.247	-0.54
824.418	-0.41
824.589	0.73
824.759	-0.16
824.93	-0.12
825.101	-0.67
825.272	0.42
825.443	0.37
825.614	0.35
825.784	-1.08
825.955	1.09
826.126	0.18
826.297	0.33
826.467	1.06
826.638	0.82
826.809	-0.87
826.98	-0.35
827.15	0.15
827.321	-0.01
827.492	0.64
827.662	0.39
827.833	0.85
828.003	-0.27
828.174	-0.94
828.345	-0.88
828.515	0.65
828.686	0.38
828.856	-0.26
829.027	-0.16
829.197	-0.28
829.368	0.49
829.538	-0.3
829.709	-0.06
829.879	0.26
830.049	-0.22
830.22	-0.08
830.39	0.02
830.56	0.6
830.731	-0.35
830.901	-0.62
831.072	-0.24
831.242	0.34
831.412	0.03
831.582	-0.07
831.753	-0.96
831.923	-0.09
832.093	-0.38
832.263	-0.01
832.434	-0.9
832.604	-0.31
832.774	1.12
832.944	-0.3
833.114	-0.1
833.284	0.43
833.454	-0.91
833.624	-0.74
833.795	-0.38
833.965	0.69
834.135	0.52
834.305	-0.97
834.475	-0.65
834.645	-0.42
834.815	-0.29
834.985	-0.73
835.155	-0.69
835.325	0.78
835.494	0.12
835.664	-0.67
835.834	-1.1
836.004	0.45
836.174	-0.37
836.344	-0.21
836.514	-0.3
836.684	-0.39
836.853	0.11
837.023	-0.14
837.193	-0.16
837.363	0.8
837.532	0.1
837.702	-0.48
837.872	-0.74
838.041	0.46
838.211	1.22
838.381	-0.89
838.55	-0.45
838.72	1.78
838.89	1.19
839.059	-0.21
839.229	-1.22
839.398	1.35
839.568	-0.04
839.738	-0.42
839.907	0.94
840.077	0.38
840.246	-0.72
840.416	-0.9
840.585	-0.73
840.755	1.03
840.924	0.99
841.093	-1.08
841.263	-0.6
841.432	-0.09
841.602	-0.19
841.771	-1.33
841.94	-0.41
842.11	1.35
842.279	0.89
842.448	-0.04
842.617	-0.87
842.787	1.11
842.956	-0.64
843.125	-0.13
843.294	-0.06
843.464	1.27
843.633	0.35
843.802	-1.52
843.971	0.23
844.14	-0.01
844.309	0.74
844.479	-1.24
844.648	-0.94
844.817	-0.55
844.986	0.53
845.155	-0.53
845.324	-0.53
845.493	-0.84
845.662	-0.96
845.831	-0.03
846	0.79
846.169	-0.73
846.338	0.9
846.507	0.24
846.676	0.04
846.844	-1.1
847.013	0.91
847.182	-0.04
847.351	-0.6
847.52	-0.37
847.689	0.67
847.858	-0.12
848.026	-0.61
848.195	0.25
848.364	0.65
848.533	-0.92
848.701	-0.06
848.87	0.12
849.039	1.54
849.207	0.53
849.376	1.2
849.545	1.6
849.713	-0.33
849.882	-0.38
850.051	-0.94
850.219	0.55
850.388	0.78
850.556	-0.47
850.725	-1.44
850.893	0.43
851.062	-0.48
851.23	0.66
851.399	-2.39
851.567	-0.16
851.736	-0.8
851.904	-0.52
852.073	0.32
852.241	0.73
852.41	-0.71
852.578	-0.21
852.746	-0.89
852.915	0.59
853.083	-0.39
853.251	-0.3
853.42	-0.8
853.588	0.52
853.756	1.02
853.924	-1.61
854.093	-0.99
854.261	-1.11
854.429	-0.97
854.597	0.11
854.765	-0.43
854.934	-0.09
855.102	0.95
855.27	-1.2
855.438	0.71
855.606	1.44
855.774	2.54
855.942	-1.58
856.11	-2.11
856.278	0.4
856.446	0.5
856.614	-0.63
856.782	-0.6
856.95	0.59
857.118	1.05
857.286	-0.52
857.454	-0.74
857.622	0.26
857.79	-0.1
857.958	-1.01
858.126	-1.42
858.294	-1.72
858.462	0.56
858.629	-1.85
858.797	-1.24
858.965	0.64
859.133	-0.68
859.301	0.43
859.468	0.02
859.636	0.29
859.804	2.51
859.971	0.42
860.139	-0.64
860.307	1.25
860.474	-0.67
860.642	-1.12
860.81	-1.78
860.977	1.55
861.145	1.55
861.313	-1.14
861.48	-0.29
861.648	0.83
861.815	-0.68
861.983	-3.09
862.15	-0.02
862.318	0.49
862.485	1.2
862.653	-0.75
862.82	0.44
862.988	2.14
863.155	0.71
863.322	-2.01
863.49	-1.33
863.657	-0.17
863.824	1.94
863.992	0.99
864.159	-0.26
864.326	1.49
864.494	-2.02
864.661	2.36
864.828	-2.24
864.996	1.17
865.163	0.81
865.33	-1.27
865.497	-3.43
865.664	-1.2
865.832	-2.14
865.999	-0.93
866.166	-2.92
866.333	0.01
866.5	-0.37
866.667	-1.21
866.834	-0.31
867.001	1.48
867.168	-1.9
867.335	-1.36
867.502	-2.08
867.669	-0.02
867.836	2.64
868.003	-0.97
868.17	1.23
868.337	-1.12
868.504	4.32
868.671	-2.24
868.838	-1.93
869.005	0.13
869.172	-0.32
869.339	-0.42
869.505	-1.13
869.672	-0.63
869.839	2.3
870.006	-0.69
870.173	-1.21
870.339	0.56
870.506	3.02
870.673	-1.19
870.84	-0.7
871.006	0.05
871.173	-0.22
871.34	-0.09
871.506	-1.82
871.673	0.35
871.839	-2.97
872.006	0.84
872.173	-1.52
872.339	0.44
872.506	1.66
872.672	-1.01
872.839	-1.01
873.005	2.01
873.172	2.97
873.338	0.69
873.505	0.39
873.671	0.28
873.838	0.09
874.004	-1
874.171	-1.96
874.337	0.16
874.503	0.25
874.67	-0.47
874.836	-0.51
875.002	0.99
875.169	1
875.335	-0.43
875.501	-0.9
875.668	2.53
875.834	0.89
876	-0.03
876.166	1.42
876.332	0.8
876.499	2.3
876.665	0.01
876.831	-0.67
876.997	2.06
877.163	1.09
877.329	-1.93
877.495	0.15
877.662	-0.14
877.828	-1
877.994	-1.69
878.16	-3.93
878.326	-0.64
878.492	0.25
878.658	-0.2
878.824	0.51
878.99	0.84
879.156	-1.39
879.322	2.77
879.487	-0.72
879.653	0.72
879.819	-0.92
879.985	0.71
880.151	0.4
880.317	2.49
880.483	-1.32
880.648	1.89
880.814	-3.44
880.98	1.3
881.146	-3.15
881.312	-0.76
881.477	-2.68
881.643	0.23
881.809	0.1
881.974	1.59
882.14	-2.72
882.306	0.23
882.471	1.7
882.637	-1.5
882.803	1.02
882.968	2.79
883.134	4.83
883.299	-1.1
883.465	-0.18
883.63	1.15
883.796	1.03
883.961	0.67
884.127	0.36
884.292	-4.82
884.458	-3.28
884.623	-3.27
