Data from Apollo_Calib_20240827__AbsoluteIrradiance__364__05-13-03-134.txt Node

Date: Wed Aug 28 05:13:03 BST 2024
User: biology
Spectrometer: FLMT08252
Trigger mode: 0
Integration Time (sec): 5.000000E-1
Scans to average: 5
Electric dark correction enabled: true
Nonlinearity correction enabled: false
Boxcar width: 0
XAxis mode: Wavelengths
Number of Pixels in Spectrum: 3648
>>>>>Begin Spectral Data<<<<<
179.588	-0
179.809	-0
180.03	-0
180.251	-0
180.473	-0
180.694	0
180.915	0
181.136	0
181.357	0
181.578	-0
181.799	-0
182.02	0
182.241	-0
182.462	-0
182.683	0
182.904	-0
183.125	-0
183.346	0
183.567	0
183.788	0
184.009	-0
184.23	0
184.451	0
184.672	-0
184.892	-0
185.113	0
185.334	0
185.555	0
185.776	0
185.996	0
186.217	0
186.438	0
186.659	-0
186.879	0
187.1	-0
187.321	0
187.541	-0
187.762	0
187.983	0
188.203	0
188.424	0
188.644	0
188.865	0
189.086	0
189.306	0
189.527	0
189.747	0
189.968	-0
190.188	0
190.409	0
190.629	0
190.849	0
191.07	0
191.29	0
191.511	0
191.731	0
191.951	-0
192.172	0
192.392	0
192.612	0
192.833	0
193.053	0
193.273	0
193.493	0
193.714	0
193.934	0
194.154	0
194.374	0
194.594	0
194.815	0
195.035	0
195.255	0
195.475	0
195.695	0
195.915	0
196.135	0
196.355	0
196.575	0
196.795	0
197.015	0
197.235	0
197.455	-0
197.675	0
197.895	0
198.115	0
198.335	0
198.555	0
198.775	0
198.995	0
199.214	0
199.434	0
199.654	0
199.874	0
200.094	2.51
200.313	1.07
200.533	0.23
200.753	0.01
200.973	1.62
201.192	0.98
201.412	-0.38
201.632	0.18
201.851	1.6
202.071	0.52
202.291	0.23
202.51	0.32
202.73	0.81
202.95	0.81
203.169	0
203.389	0.48
203.608	0.77
203.828	0.55
204.047	0.59
204.267	0.62
204.486	0.76
204.706	0.99
204.925	0.31
205.145	0.25
205.364	1.14
205.583	1.58
205.803	0.2
206.022	-0.06
206.242	0.76
206.461	0.74
206.68	0.25
206.9	0.4
207.119	0.88
207.338	1.11
207.557	0.37
207.777	0.27
207.996	0.38
208.215	1.13
208.434	0.46
208.654	-0.03
208.873	0.5
209.092	0.83
209.311	0.26
209.53	0.22
209.749	0.15
209.968	0.12
210.187	0.29
210.407	-0
210.626	0.44
210.845	0.53
211.064	0.36
211.283	0.01
211.502	0.48
211.721	0.42
211.94	0.29
212.159	0.52
212.377	0.76
212.596	0.7
212.815	0.62
213.034	0.33
213.253	0.58
213.472	0.58
213.691	0.25
213.91	0.07
214.128	0.25
214.347	0.51
214.566	-0.33
214.785	-0.21
215.003	0.5
215.222	0.45
215.441	0.32
215.66	-0.22
215.878	0.27
216.097	0.63
216.316	-0.07
216.534	0.12
216.753	0.48
216.972	0.33
217.19	0.29
217.409	0.11
217.627	-0.01
217.846	0.27
218.064	0.27
218.283	0.12
218.501	0.65
218.72	0.58
218.938	-0.03
219.157	0.14
219.375	0.37
219.594	0.46
219.812	0.04
220.031	0.14
220.249	0.66
220.467	0.55
220.686	0.26
220.904	0.02
221.122	0.22
221.341	0.76
221.559	0.25
221.777	0.03
221.995	0.28
222.214	0.4
222.432	0.05
222.65	0.31
222.868	0.28
223.086	0.36
223.305	0.42
223.523	0.18
223.741	0.54
223.959	0.07
224.177	-0.04
224.395	0.23
224.613	0.3
224.831	0.41
225.049	0.01
225.267	0.15
225.485	0.2
225.703	0.04
225.921	0.26
226.139	0.19
226.357	0.44
226.575	0.22
226.793	0.16
227.011	0.86
227.229	0.39
227.447	0.33
227.665	0.09
227.883	0.04
228.1	0.21
228.318	0.23
228.536	-0.09
228.754	-0.06
228.972	0.33
229.189	0.3
229.407	0.04
229.625	0.19
229.843	0.43
230.06	0.32
230.278	0.1
230.496	0.2
230.713	0.21
230.931	0.32
231.149	0.09
231.366	-0.01
231.584	0.1
231.801	0.61
232.019	0.12
232.236	-0.08
232.454	0.05
232.671	0.25
232.889	0.15
233.106	0.06
233.324	0.19
233.541	0.09
233.759	0.28
233.976	0.13
234.194	0.28
234.411	0.23
234.628	0.14
234.846	0.02
235.063	0.22
235.28	0.23
235.498	0.21
235.715	0.05
235.932	0.37
236.149	0.22
236.367	0.08
236.584	0.21
236.801	0.09
237.018	0.23
237.236	0.16
237.453	-0
237.67	0.25
237.887	0.15
238.104	0.25
238.321	0.08
238.538	0.13
238.755	0.23
238.973	0.04
239.19	0.12
239.407	0.27
239.624	0.25
239.841	0.04
240.058	0.11
240.275	0.29
240.492	0.22
240.709	0.18
240.925	0.16
241.142	0.12
241.359	0.04
241.576	0.01
241.793	0.12
242.01	0.13
242.227	0.2
242.444	0.23
242.66	0.25
242.877	0.29
243.094	0.08
243.311	0.19
243.527	0.06
243.744	0.26
243.961	0.28
244.178	0.07
244.394	0.12
244.611	0.29
244.828	0.29
245.044	0.04
245.261	0.09
245.477	0.15
245.694	0.19
245.911	0.06
246.127	0.16
246.344	0.27
246.56	0.19
246.777	0.03
246.993	0.2
247.21	0.19
247.426	0.33
247.643	0.14
247.859	0.01
248.076	0.18
248.292	0.39
248.508	0.06
248.725	0.15
248.941	0.24
249.157	0.24
249.374	0.05
249.59	0.16
249.806	0.19
250.023	0.41
250.239	0.12
250.455	0.1
250.671	0.07
250.888	0.23
251.104	0.21
251.32	0.12
251.536	0.1
251.752	0.08
251.969	0.2
252.185	0.12
252.401	0.38
252.617	0.19
252.833	0.1
253.049	0.11
253.265	0.14
253.481	0.16
253.697	0.08
253.913	0.06
254.129	0.15
254.345	0.19
254.561	0.09
254.777	0.1
254.993	0.19
255.209	0.17
255.425	0.07
255.641	0.1
255.857	0.31
256.073	0.12
256.288	-0.04
256.504	0.04
256.72	0.14
256.936	0.27
257.152	0.11
257.367	0
257.583	0.17
257.799	0.28
258.015	0.07
258.23	0.01
258.446	0.33
258.662	0.13
258.877	0.07
259.093	0.04
259.309	0.21
259.524	0.19
259.74	0.09
259.955	0.02
260.171	0.19
260.387	0.14
260.602	0.22
260.818	0.15
261.033	0.1
261.249	0.13
261.464	0.11
261.68	0.04
261.895	0.19
262.11	0.19
262.326	0.05
262.541	0.04
262.757	0.22
262.972	0.13
263.187	0.14
263.403	0.1
263.618	0.1
263.833	0.2
264.049	0.1
264.264	0.17
264.479	0.15
264.694	0.26
264.91	0.04
265.125	0.12
265.34	0.19
265.555	0.33
265.77	0.21
265.986	0.09
266.201	0.19
266.416	0.25
266.631	0.11
266.846	0.14
267.061	0.25
267.276	0.17
267.491	0.02
267.706	0.12
267.921	0.1
268.136	0.16
268.351	0.15
268.566	0.07
268.781	0.2
268.996	0.18
269.211	0.11
269.426	0.06
269.641	0.1
269.856	0.2
270.071	0.1
270.285	0.04
270.5	0.24
270.715	0.2
270.93	0.07
271.145	0.1
271.359	0.18
271.574	0.08
271.789	0.17
272.004	0.08
272.218	0.12
272.433	0.18
272.648	0.06
272.862	0.21
273.077	0.1
273.292	0.21
273.506	0.08
273.721	0.14
273.936	0.16
274.15	0.19
274.365	0.1
274.579	0.18
274.794	0.16
275.008	0.15
275.223	0.05
275.437	0.13
275.652	0.23
275.866	0.16
276.081	0.14
276.295	0.18
276.509	0.1
276.724	0.17
276.938	0.18
277.153	0.14
277.367	0.22
277.581	0.1
277.796	0.13
278.01	0.05
278.224	0.22
278.438	0.28
278.653	0.06
278.867	0.09
279.081	0.21
279.295	0.1
279.51	0.15
279.724	0.08
279.938	0.18
280.152	0.17
280.366	0.04
280.58	0.12
280.794	0.26
281.008	0.19
281.222	0.13
281.437	0.25
281.651	0.16
281.865	0.27
282.079	0.16
282.293	0.05
282.507	0.07
282.721	0.17
282.935	0.13
283.148	0.02
283.362	0.08
283.576	0.09
283.79	0.1
284.004	0.08
284.218	0.18
284.432	0.07
284.646	0.15
284.859	0.08
285.073	0.08
285.287	0.15
285.501	0.1
285.714	0.13
285.928	0.09
286.142	0.14
286.356	0.1
286.569	0.12
286.783	0.18
286.997	0.14
287.21	0.13
287.424	0.11
287.637	0.1
287.851	0.12
288.065	0.16
288.278	0.11
288.492	0.12
288.705	0.14
288.919	0.14
289.132	0.08
289.346	0.19
289.559	0.05
289.773	0.06
289.986	0.07
290.2	0.11
290.413	0.19
290.626	0.06
290.84	0.13
291.053	0.09
291.267	0.16
291.48	0.16
291.693	0.11
291.906	0.1
292.12	0.09
292.333	0.07
292.546	0.1
292.76	0.22
292.973	0.16
293.186	0.15
293.399	0.13
293.612	0.16
293.826	0.13
294.039	0.14
294.252	0.12
294.465	0.16
294.678	0.18
294.891	0.11
295.104	0.07
295.317	0.1
295.53	0.15
295.743	0.12
295.956	0.1
296.169	0.23
296.382	0.16
296.595	0.12
296.808	0.1
297.021	0.21
297.234	0.14
297.447	0.12
297.66	0.16
297.873	0.19
298.086	0.18
298.299	0.06
298.511	0.09
298.724	0.13
298.937	0.09
299.15	0.1
299.363	0.14
299.575	0.17
299.788	0.13
300.001	0.08
300.213	0.08
300.426	0.12
300.639	0.09
300.852	0.07
301.064	0.18
301.277	0.18
301.489	0.17
301.702	0.17
301.915	0.11
302.127	0.09
302.34	0.16
302.552	0.14
302.765	0.08
302.977	0.16
303.19	0.09
303.402	0.12
303.615	0.11
303.827	0.1
304.04	0.13
304.252	0.12
304.464	0.09
304.677	0.24
304.889	0.16
305.102	0.12
305.314	0.1
305.526	0.15
305.739	0.14
305.951	0.08
306.163	0.08
306.375	0.2
306.588	0.11
306.8	0.09
307.012	0.04
307.224	0.16
307.436	0.16
307.649	0.02
307.861	0.14
308.073	0.14
308.285	0.12
308.497	0.12
308.709	0.1
308.921	0.15
309.133	0.2
309.346	0.12
309.558	0.14
309.77	0.18
309.982	0.2
310.194	0.2
310.406	0.07
310.617	0.21
310.829	0.15
311.041	0.15
311.253	0.08
311.465	0.12
311.677	0.11
311.889	0.14
312.101	0.1
312.313	0.17
312.524	0.19
312.736	0.08
312.948	0.11
313.16	0.22
313.372	0.15
313.583	0.13
313.795	0.15
314.007	0.05
314.218	0.2
314.43	0.1
314.642	0.07
314.853	0.09
315.065	0.18
315.277	0.12
315.488	0.16
315.7	0.16
315.912	0.17
316.123	0.12
316.335	0.1
316.546	0.29
316.758	0.12
316.969	0.07
317.181	0.17
317.392	0.1
317.604	0.14
317.815	0.06
318.026	0.09
318.238	0.12
318.449	0.16
318.661	0.03
318.872	0.11
319.083	0.11
319.295	0.12
319.506	0.13
319.717	0.17
319.929	0.17
320.14	0.15
320.351	0.15
320.562	0.09
320.774	0.1
320.985	0.13
321.196	0.11
321.407	0.07
321.618	0.18
321.829	0.16
322.041	0.17
322.252	0.12
322.463	0.13
322.674	0.16
322.885	0.08
323.096	0.09
323.307	0.09
323.518	0.12
323.729	0.1
323.94	0.09
324.151	0.12
324.362	0.13
324.573	0.14
324.784	0.09
324.995	0.2
325.206	0.19
325.417	0.1
325.628	0.1
325.838	0.13
326.049	0.16
326.26	0.18
326.471	0.08
326.682	0.11
326.892	0.11
327.103	0.06
327.314	0.11
327.525	0.22
327.735	0.11
327.946	0.15
328.157	0.08
328.368	0.17
328.578	0.1
328.789	0.15
328.999	0.14
329.21	0.08
329.421	0.17
329.631	0.09
329.842	0.08
330.052	0.12
330.263	0.16
330.473	0.14
330.684	0.13
330.894	0.09
331.105	0.08
331.315	0.15
331.526	0.05
331.736	0.19
331.947	0.13
332.157	0.14
332.367	0.08
332.578	0.18
332.788	0.24
332.999	0.17
333.209	0.11
333.419	0.07
333.629	0.17
333.84	0.14
334.05	0.11
334.26	0.19
334.47	0.1
334.681	0.17
334.891	0.1
335.101	0.13
335.311	0.24
335.521	0.16
335.732	0.07
335.942	0.21
336.152	0.15
336.362	0.09
336.572	0.14
336.782	0.15
336.992	0.12
337.202	0.12
337.412	0.11
337.622	0.16
337.832	0.12
338.042	0.1
338.252	0.07
338.462	0.11
338.672	0.13
338.882	0.06
339.092	0.04
339.302	0.22
339.511	0.2
339.721	0.12
339.931	0.06
340.141	0.18
340.351	0.21
340.561	0.12
340.77	0.12
340.98	0.11
341.19	0.14
341.4	0.11
341.609	0.07
341.819	0.1
342.029	0.02
342.238	0.14
342.448	0.15
342.658	0.15
342.867	0.13
343.077	0.12
343.286	0.13
343.496	0.15
343.706	0.19
343.915	0.06
344.125	0.08
344.334	0.14
344.544	0.06
344.753	0.1
344.963	0.1
345.172	0.07
345.381	0.08
345.591	0.08
345.8	0.12
346.01	0.2
346.219	0.14
346.428	0.03
346.638	0.15
346.847	0.11
347.056	0.18
347.266	0.09
347.475	0.12
347.684	0.19
347.893	0.17
348.103	0.12
348.312	0.1
348.521	0.11
348.73	0.17
348.94	0.12
349.149	0.09
349.358	0.07
349.567	0.09
349.776	0.04
349.985	0.1
350.194	0.15
350.403	0.11
350.612	0.08
350.821	0.14
351.03	0.14
351.239	0.08
351.448	0.13
351.657	0.1
351.866	0.19
352.075	0.1
352.284	0.17
352.493	0.09
352.702	0.17
352.911	0.11
353.12	0.13
353.329	0.09
353.538	0.13
353.746	0.12
353.955	0.1
354.164	0.14
354.373	0.09
354.582	0.19
354.79	0.12
354.999	0.15
355.208	0.15
355.416	0.21
355.625	0.09
355.834	0.13
356.042	0.14
356.251	0.1
356.46	0.09
356.668	0.14
356.877	0.22
357.085	0.18
357.294	0.01
357.503	0.11
357.711	0.17
357.92	0.3
358.128	0.18
358.337	0.1
358.545	0.19
358.754	0.1
358.962	0.11
359.17	0.09
359.379	0.12
359.587	0.19
359.796	0.1
360.004	0.15
360.212	0.16
360.421	0.17
360.629	0.12
360.837	0.13
361.046	0.16
361.254	0.22
361.462	0.13
361.67	0.1
361.879	0.11
362.087	0.18
362.295	0.15
362.503	0.07
362.711	0.09
362.92	0.12
363.128	0.06
363.336	0.08
363.544	0.07
363.752	0.12
363.96	0.1
364.168	0.1
364.376	0.13
364.584	0.11
364.792	0.15
365	0.14
365.208	0.13
365.416	0.16
365.624	0.17
365.832	0.12
366.04	0.18
366.248	0.11
366.456	0.17
366.664	0.12
366.872	0.13
367.079	0.09
367.287	0.12
367.495	0.15
367.703	0.14
367.911	0.12
368.118	0.17
368.326	0.14
368.534	0.1
368.742	0.17
368.949	0.08
369.157	0.1
369.365	0.13
369.572	0.12
369.78	0.05
369.988	0.16
370.195	0.13
370.403	0.18
370.61	0.11
370.818	0.1
371.026	0.2
371.233	0.09
371.441	0.14
371.648	0.16
371.856	0.14
372.063	0.18
372.271	0.09
372.478	0.13
372.685	0.1
372.893	0.16
373.1	0.11
373.308	0.11
373.515	0.2
373.722	0.15
373.93	0.08
374.137	0.16
374.344	0.18
374.552	0.17
374.759	0.17
374.966	0.16
375.173	0.1
375.381	0.23
375.588	0.12
375.795	0.06
376.002	0.11
376.209	0.1
376.417	0.1
376.624	0.11
376.831	0.16
377.038	0.12
377.245	0.06
377.452	0.11
377.659	0.11
377.866	0.08
378.073	0.09
378.28	0.11
378.487	0.18
378.694	0.15
378.901	0.16
379.108	0.16
379.315	0.16
379.522	0.19
379.729	0.15
379.936	0.1
380.143	0.15
380.35	0.18
380.557	0.12
380.763	0.12
380.97	0.13
381.177	0.17
381.384	0.16
381.591	0.11
381.797	0.13
382.004	0.14
382.211	0.15
382.418	0.1
382.624	0.18
382.831	0.17
383.038	0.11
383.244	0.14
383.451	0.16
383.658	0.18
383.864	0.12
384.071	0.1
384.277	0.19
384.484	0.12
384.69	0.18
384.897	0.14
385.103	0.13
385.31	0.1
385.516	0.15
385.723	0.09
385.929	0.13
386.136	0.09
386.342	0.19
386.549	0.12
386.755	0.21
386.961	0.16
387.168	0.11
387.374	0.14
387.58	0.19
387.787	0.16
387.993	0.2
388.199	0.14
388.406	0.14
388.612	0.16
388.818	0.11
389.024	0.12
389.231	0.14
389.437	0.27
389.643	0.2
389.849	0.14
390.055	0.16
390.261	0.17
390.467	0.19
390.674	0.14
390.88	0.14
391.086	0.22
391.292	0.11
391.498	0.21
391.704	0.15
391.91	0.18
392.116	0.11
392.322	0.07
392.528	0.14
392.734	0.13
392.94	0.17
393.146	0.15
393.352	0.17
393.557	0.16
393.763	0.16
393.969	0.2
394.175	0.16
394.381	0.17
394.587	0.15
394.792	0.13
394.998	0.2
395.204	0.24
395.41	0.17
395.615	0.19
395.821	0.19
396.027	0.21
396.233	0.17
396.438	0.19
396.644	0.23
396.85	0.22
397.055	0.17
397.261	0.2
397.466	0.24
397.672	0.25
397.878	0.25
398.083	0.17
398.289	0.16
398.494	0.24
398.7	0.19
398.905	0.11
399.111	0.21
399.316	0.15
399.522	0.2
399.727	0.17
399.932	0.2
400.138	0.17
400.343	0.19
400.549	0.22
400.754	0.22
400.959	0.22
401.165	0.19
401.37	0.23
401.575	0.29
401.78	0.23
401.986	0.18
402.191	0.18
402.396	0.23
402.601	0.25
402.807	0.22
403.012	0.21
403.217	0.26
403.422	0.21
403.627	0.19
403.832	0.17
404.037	0.25
404.243	0.27
404.448	0.18
404.653	0.27
404.858	0.25
405.063	0.31
405.268	0.19
405.473	0.2
405.678	0.25
405.883	0.39
406.088	0.3
406.293	0.2
406.498	0.23
406.703	0.31
406.907	0.27
407.112	0.24
407.317	0.29
407.522	0.34
407.727	0.22
407.932	0.3
408.136	0.37
408.341	0.28
408.546	0.33
408.751	0.3
408.956	0.32
409.16	0.33
409.365	0.35
409.57	0.33
409.774	0.38
409.979	0.41
410.184	0.38
410.388	0.36
410.593	0.47
410.798	0.43
411.002	0.39
411.207	0.42
411.411	0.45
411.616	0.43
411.82	0.47
412.025	0.5
412.229	0.43
412.434	0.56
412.638	0.53
412.843	0.53
413.047	0.61
413.252	0.59
413.456	0.58
413.66	0.62
413.865	0.59
414.069	0.7
414.273	0.63
414.478	0.65
414.682	0.7
414.886	0.67
415.091	0.72
415.295	0.66
415.499	0.83
415.703	0.82
415.908	0.91
416.112	0.86
416.316	1
416.52	0.93
416.724	0.95
416.929	1
417.133	1.2
417.337	1.05
417.541	1.1
417.745	1.16
417.949	1.31
418.153	1.26
418.357	1.28
418.561	1.44
418.765	1.48
418.969	1.57
419.173	1.57
419.377	1.62
419.581	1.8
419.785	1.78
419.989	1.79
420.193	1.88
420.397	1.99
420.601	2.06
420.804	2.17
421.008	2.15
421.212	2.28
421.416	2.37
421.62	2.31
421.823	2.4
422.027	2.56
422.231	2.56
422.435	2.62
422.638	2.72
422.842	2.75
423.046	2.82
423.249	3
423.453	3.06
423.657	3.25
423.86	3.26
424.064	3.38
424.268	3.6
424.471	3.6
424.675	3.89
424.878	3.96
425.082	4.09
425.285	4.34
425.489	4.29
425.692	4.44
425.896	4.44
426.099	4.66
426.303	4.84
426.506	5.01
426.71	5.27
426.913	5.57
427.116	5.73
427.32	5.7
427.523	5.8
427.726	6.17
427.93	6.26
428.133	6.64
428.336	6.81
428.54	7.01
428.743	7.26
428.946	7.57
429.149	7.63
429.353	7.76
429.556	7.85
429.759	7.89
429.962	8.09
430.165	8.39
430.368	8.03
430.571	8.18
430.775	8.17
430.978	8.18
431.181	8.33
431.384	8.59
431.587	8.72
431.79	9.17
431.993	9.01
432.196	9.28
432.399	9.82
432.602	10.06
432.805	10.23
433.008	10.89
433.211	10.75
433.414	11.14
433.616	11.21
433.819	11.16
434.022	11.52
434.225	11.69
434.428	11.78
434.631	12.29
434.833	12.2
435.036	12.41
435.239	12.72
435.442	12.95
435.645	13.12
435.847	13.27
436.05	13.79
436.253	14.25
436.455	14.18
436.658	14.05
436.861	14.54
437.063	14.82
437.266	14.76
437.468	15.34
437.671	15.83
437.874	16.01
438.076	15.93
438.279	16.61
438.481	16.77
438.684	17.83
438.886	17.43
439.089	17.97
439.291	18.15
439.494	18.71
439.696	19.29
439.899	19.94
440.101	20.58
440.303	21.09
440.506	22.25
440.708	21.91
440.91	22.56
441.113	23.09
441.315	23.49
441.517	23.48
441.72	24.38
441.922	24.06
442.124	24.15
442.326	24.73
442.529	25.47
442.731	25.54
442.933	26.3
443.135	26.05
443.337	26.36
443.539	27.42
443.742	26.96
443.944	28.32
444.146	28.16
444.348	28.13
444.55	28.14
444.752	28.92
444.954	29.03
445.156	28.94
445.358	29.81
445.56	30.47
445.762	30.59
445.964	31.15
446.166	30.88
446.368	31.05
446.57	31.13
446.772	30.81
446.974	30.46
447.175	31.33
447.377	30.65
447.579	31.78
447.781	31.47
447.983	30.84
448.184	30.49
448.386	31.12
448.588	30.51
448.79	30.46
448.991	31.15
449.193	31.16
449.395	29.97
449.597	29.29
449.798	29.29
450	28.63
450.202	28.44
450.403	28.58
450.605	28.26
450.806	27.77
451.008	27.71
451.21	27.06
451.411	26.35
451.613	24.97
451.814	25.4
452.016	25.39
452.217	24.12
452.419	23.94
452.62	23.37
452.821	22.92
453.023	22.51
453.224	21.94
453.426	21.21
453.627	19.87
453.828	19.93
454.03	20.14
454.231	20.16
454.432	19.76
454.634	19.17
454.835	18.73
455.036	18.61
455.238	17.81
455.439	17.08
455.64	16.77
455.841	16.47
456.042	16.59
456.244	16
456.445	15.59
456.646	15.02
456.847	14.96
457.048	14.7
457.249	14.64
457.45	13.94
457.651	13.31
457.852	12.98
458.054	12.34
458.255	12.39
458.456	12.37
458.657	12.2
458.858	11.56
459.058	11.26
459.259	11.42
459.46	10.87
459.661	10.86
459.862	10.69
460.063	10.67
460.264	10.36
460.465	9.99
460.666	9.97
460.866	9.55
461.067	9.04
461.268	9.16
461.469	8.93
461.67	8.84
461.87	8.51
462.071	8.55
462.272	8.37
462.473	8.19
462.673	8.47
462.874	8.23
463.075	8.04
463.275	7.99
463.476	8.13
463.676	7.98
463.877	7.74
464.078	7.59
464.278	7.67
464.479	7.43
464.679	7.21
464.88	7.03
465.08	6.9
465.281	6.6
465.481	6.32
465.682	6.03
465.882	6.1
466.083	5.86
466.283	5.71
466.483	5.51
466.684	5.16
466.884	5.06
467.085	5.1
467.285	5.21
467.485	4.94
467.686	4.75
467.886	4.7
468.086	4.46
468.286	4.41
468.487	4.44
468.687	4.24
468.887	4.09
469.087	4.26
469.287	4.06
469.488	3.8
469.688	3.88
469.888	3.78
470.088	3.76
470.288	3.62
470.488	3.5
470.688	3.31
470.888	3.27
471.088	3.04
471.288	3.16
471.488	3.08
471.688	3.01
471.888	2.9
472.088	3
472.288	2.86
472.488	2.76
472.688	2.59
472.888	2.64
473.088	2.59
473.288	2.47
473.488	2.43
473.688	2.54
473.887	2.36
474.087	2.29
474.287	2.29
474.487	2.18
474.687	2.18
474.886	2.07
475.086	2.05
475.286	2.04
475.486	1.94
475.685	1.92
475.885	1.84
476.085	1.88
476.284	1.85
476.484	1.87
476.684	1.77
476.883	1.85
477.083	1.66
477.282	1.6
477.482	1.65
477.681	1.63
477.881	1.5
478.08	1.48
478.28	1.39
478.479	1.47
478.679	1.46
478.878	1.31
479.078	1.34
479.277	1.35
479.477	1.3
479.676	1.34
479.875	1.25
480.075	1.19
480.274	1.17
480.473	1.25
480.673	1.14
480.872	1.16
481.071	1.12
481.271	1.12
481.47	1.02
481.669	1.03
481.868	0.99
482.067	0.99
482.267	0.95
482.466	0.94
482.665	0.88
482.864	0.92
483.063	0.84
483.262	0.9
483.461	0.89
483.661	0.9
483.86	0.82
484.059	0.86
484.258	0.8
484.457	0.76
484.656	0.77
484.855	0.79
485.054	0.67
485.253	0.69
485.452	0.67
485.651	0.7
485.849	0.65
486.048	0.63
486.247	0.6
486.446	0.66
486.645	0.59
486.844	0.58
487.043	0.55
487.241	0.58
487.44	0.5
487.639	0.53
487.838	0.53
488.037	0.5
488.235	0.57
488.434	0.5
488.633	0.46
488.831	0.51
489.03	0.52
489.229	0.47
489.427	0.44
489.626	0.48
489.825	0.49
490.023	0.44
490.222	0.41
490.42	0.45
490.619	0.42
490.817	0.38
491.016	0.38
491.214	0.4
491.413	0.36
491.611	0.36
491.81	0.33
492.008	0.37
492.207	0.35
492.405	0.35
492.604	0.29
492.802	0.32
493	0.31
493.199	0.29
493.397	0.3
493.595	0.3
493.794	0.26
493.992	0.32
494.19	0.29
494.388	0.31
494.587	0.26
494.785	0.28
494.983	0.23
495.181	0.27
495.379	0.28
495.578	0.25
495.776	0.27
495.974	0.27
496.172	0.25
496.37	0.24
496.568	0.21
496.766	0.21
496.964	0.26
497.162	0.24
497.36	0.18
497.558	0.24
497.756	0.24
497.954	0.2
498.152	0.2
498.35	0.21
498.548	0.2
498.746	0.21
498.944	0.15
499.142	0.17
499.34	0.15
499.538	0.18
499.736	0.13
499.933	0.23
500.131	0.24
500.329	0.18
500.527	0.2
500.725	0.22
500.922	0.19
501.12	0.18
501.318	0.2
501.516	0.15
501.713	0.18
501.911	0.16
502.109	0.12
502.306	0.16
502.504	0.14
502.701	0.13
502.899	0.15
503.097	0.21
503.294	0.16
503.492	0.14
503.689	0.14
503.887	0.16
504.084	0.19
504.282	0.16
504.479	0.09
504.677	0.15
504.874	0.11
505.072	0.13
505.269	0.12
505.466	0.16
505.664	0.16
505.861	0.11
506.059	0.1
506.256	0.15
506.453	0.1
506.651	0.16
506.848	0.14
507.045	0.12
507.242	0.13
507.44	0.08
507.637	0.14
507.834	0.13
508.031	0.15
508.229	0.09
508.426	0.12
508.623	0.14
508.82	0.11
509.017	0.07
509.214	0.1
509.411	0.1
509.608	0.1
509.805	0.1
510.003	0.09
510.2	0.1
510.397	0.12
510.594	0.09
510.791	0.08
510.988	0.11
511.184	0.11
511.381	0.11
511.578	0.04
511.775	0.15
511.972	0.1
512.169	0.08
512.366	0.11
512.563	0.13
512.76	0.11
512.956	0.11
513.153	0.09
513.35	0.1
513.547	0.07
513.744	0.08
513.94	0.07
514.137	0.1
514.334	0.12
514.53	0.07
514.727	0.1
514.924	0.15
515.12	0.06
515.317	0.06
515.514	0.07
515.71	0.05
515.907	0.08
516.103	0.08
516.3	0.08
516.497	0.1
516.693	0.12
516.89	0.08
517.086	0.04
517.283	0.09
517.479	0.07
517.676	0.08
517.872	0.08
518.068	0.08
518.265	0.07
518.461	0.07
518.658	0.06
518.854	0.07
519.05	0.06
519.247	0.06
519.443	0.1
519.639	0.09
519.836	0.1
520.032	0.07
520.228	0.09
520.424	0.13
520.621	0.09
520.817	0.08
521.013	0.08
521.209	0.09
521.405	0.11
521.601	0.09
521.798	0.08
521.994	0.13
522.19	0.06
522.386	0.05
522.582	0.09
522.778	0.05
522.974	0.06
523.17	0.07
523.366	0.09
523.562	0.1
523.758	0.08
523.954	0.05
524.15	0.07
524.346	0.11
524.542	0.05
524.738	0.04
524.934	0.06
525.129	0.07
525.325	0.09
525.521	0.06
525.717	0.1
525.913	0.09
526.109	0.06
526.304	0.07
526.5	0.08
526.696	0.09
526.892	0.06
527.087	0.08
527.283	0.03
527.479	0.1
527.674	0.05
527.87	0.06
528.066	0.04
528.261	0.07
528.457	0.05
528.653	0.06
528.848	0.05
529.044	0.08
529.239	0.06
529.435	0.09
529.63	0.08
529.826	0.13
530.021	0.09
530.217	0.09
530.412	0.04
530.608	0.05
530.803	0.08
530.999	0.05
531.194	0.01
531.389	0.1
531.585	0
531.78	0.06
531.975	0.04
532.171	0.08
532.366	0.07
532.561	0.06
532.757	0.05
532.952	0.05
533.147	0.09
533.342	0.06
533.538	0.04
533.733	0.08
533.928	0.04
534.123	0.05
534.318	0.03
534.513	0.03
534.709	0.06
534.904	0.05
535.099	0.03
535.294	0.04
535.489	0.06
535.684	0.06
535.879	0.04
536.074	0.05
536.269	0.03
536.464	0.06
536.659	0.05
536.854	0.08
537.049	0.05
537.244	0.06
537.439	0.04
537.634	0.08
537.828	0.04
538.023	0.06
538.218	0.02
538.413	0.07
538.608	0.01
538.803	0.06
538.997	0.03
539.192	0.08
539.387	0.08
539.582	0.07
539.776	0.05
539.971	0.05
540.166	0.07
540.36	0.03
540.555	0.07
540.75	0.03
540.944	0.06
541.139	-0
541.334	0.05
541.528	0.08
541.723	0.09
541.917	0.05
542.112	0.01
542.306	0.06
542.501	0.05
542.695	0.06
542.89	0.03
543.084	0.06
543.279	0.05
543.473	0.07
543.668	0.06
543.862	0.07
544.056	0.08
544.251	0.04
544.445	0.07
544.64	0.05
544.834	0.03
545.028	0.06
545.222	0.05
545.417	0.08
545.611	0.06
545.805	0.07
546	0.02
546.194	0.06
546.388	0.01
546.582	0.07
546.776	0.04
546.97	0.07
547.165	0.06
547.359	0.07
547.553	0.04
547.747	0.05
547.941	0.07
548.135	0.04
548.329	0.07
548.523	0.07
548.717	0.05
548.911	0.04
549.105	0.04
549.299	0.05
549.493	0.09
549.687	0.07
549.881	0.07
550.075	0.04
550.269	0.02
550.463	0.06
550.657	0.04
550.85	0.03
551.044	0
551.238	0.06
551.432	0.03
551.626	0.01
551.82	0.07
552.013	0.03
552.207	0.04
552.401	0.07
552.594	0.06
552.788	0.07
552.982	0.04
553.176	0.02
553.369	0.07
553.563	0.06
553.756	0.01
553.95	0.01
554.144	0.06
554.337	0.08
554.531	0.05
554.724	0.07
554.918	0.04
555.111	0.08
555.305	0.04
555.498	0.12
555.692	0.07
555.885	0.02
556.079	0.07
556.272	0.04
556.466	0.07
556.659	0.07
556.852	0.06
557.046	0.06
557.239	0.08
557.432	0.04
557.626	0.04
557.819	0.05
558.012	0.06
558.206	0.05
558.399	0.06
558.592	0.08
558.785	0.06
558.979	0.07
559.172	0.07
559.365	0.08
559.558	0.08
559.751	0.05
559.944	0.08
560.138	0.01
560.331	0.05
560.524	0.02
560.717	0.04
560.91	0.04
561.103	0.07
561.296	0.06
561.489	0.05
561.682	0.05
561.875	0.1
562.068	0.07
562.261	0.04
562.454	0.08
562.647	0.07
562.84	0.05
563.032	0.05
563.225	0.04
563.418	0.03
563.611	0.05
563.804	0.07
563.997	0
564.19	0.02
564.382	0.09
564.575	0.04
564.768	0.04
564.961	0.05
565.153	0.03
565.346	0.06
565.539	0.07
565.731	0.04
565.924	0.08
566.117	0.09
566.309	0.04
566.502	0.03
566.695	0.05
566.887	0.08
567.08	0.02
567.272	0.03
567.465	0.03
567.657	0.05
567.85	0.07
568.042	0.06
568.235	0.08
568.427	0.04
568.62	0.05
568.812	0.06
569.005	0.06
569.197	-0.01
569.389	0.06
569.582	0.06
569.774	0.04
569.966	-0.01
570.159	0.01
570.351	0.06
570.543	0.01
570.736	0.06
570.928	0.03
571.12	0.06
571.312	0.03
571.505	-0
571.697	0.07
571.889	0.03
572.081	0.05
572.273	0.02
572.465	0.09
572.658	0.02
572.85	0.05
573.042	0.04
573.234	0.03
573.426	0.08
573.618	-0.01
573.81	0.05
574.002	0.09
574.194	0.1
574.386	0
574.578	-0.04
574.77	0.01
574.962	0.05
575.154	0.01
575.346	0.03
575.538	0.05
575.729	0.01
575.921	0
576.113	0.02
576.305	0.09
576.497	0.03
576.689	0.03
576.88	0.01
577.072	0.07
577.264	0.04
577.456	0.05
577.647	-0.02
577.839	0.06
578.031	0.1
578.223	-0.02
578.414	-0.01
578.606	0.05
578.798	0.04
578.989	0.03
579.181	0.03
579.372	0.04
579.564	0.04
579.755	0.06
579.947	0.05
580.139	0.06
580.33	-0.01
580.522	0.02
580.713	0.01
580.905	0.03
581.096	0.04
581.287	0.05
581.479	0.03
581.67	0.06
581.862	0.05
582.053	0.03
582.244	-0
582.436	0.04
582.627	0.05
582.818	0
583.01	0
583.201	0.06
583.392	0.05
583.583	0.05
583.775	0.03
583.966	0.05
584.157	0.02
584.348	0.02
584.54	-0.01
584.731	0.05
584.922	0.03
585.113	0.01
585.304	0.06
585.495	0.06
585.686	0.05
585.877	0.06
586.068	0.05
586.259	0.04
586.45	0.03
586.641	0.03
586.832	-0
587.023	0.06
587.214	0.02
587.405	0.05
587.596	0.02
587.787	0.06
587.978	0.03
588.169	0.01
588.36	0.03
588.551	0.05
588.742	-0
588.932	0.04
589.123	0.05
589.314	0.08
589.505	0.06
589.696	0.04
589.886	-0.01
590.077	0.01
590.268	0.06
590.458	-0.02
590.649	-0.02
590.84	0.07
591.03	-0
591.221	0
591.412	0
591.602	0.07
591.793	0.07
591.984	0
592.174	0.04
592.365	0.12
592.555	0.03
592.746	0.04
592.936	0.07
593.127	0.08
593.317	0.08
593.508	0.01
593.698	0.02
593.889	0.06
594.079	0.04
594.269	0.04
594.46	0.03
594.65	0.02
594.84	0.05
595.031	0
595.221	0.01
595.411	-0.02
595.602	0.05
595.792	0.03
595.982	0.02
596.172	0.08
596.363	0.04
596.553	0.05
596.743	0.03
596.933	0.04
597.123	0.06
597.314	0.01
597.504	0.02
597.694	0.08
597.884	0.07
598.074	0.03
598.264	-0.01
598.454	0.04
598.644	0.02
598.834	0.02
599.024	-0.02
599.214	0.01
599.404	0.06
599.594	0.01
599.784	0.04
599.974	0.09
600.164	0.06
600.354	-0
600.544	-0.01
600.734	0.03
600.924	0.06
601.114	0.01
601.303	0.04
601.493	0.04
601.683	0.03
601.873	0.05
602.063	0.01
602.252	0.08
602.442	-0.01
602.632	0.02
602.821	-0
603.011	0.05
603.201	0.02
603.39	0.01
603.58	0.01
603.77	0.02
603.959	0.05
604.149	0.04
604.339	0.04
604.528	0.09
604.718	0.05
604.907	0
605.097	0
605.286	-0.01
605.476	0.04
605.665	0.04
605.855	0.04
606.044	0.09
606.234	0.04
606.423	0.04
606.612	0.02
606.802	0.04
606.991	0.05
607.181	0.04
607.37	-0.02
607.559	0.06
607.749	-0
607.938	0.05
608.127	0.03
608.316	0.03
608.506	0.04
608.695	0.03
608.884	-0.01
609.073	-0
609.263	0.04
609.452	0.04
609.641	0.03
609.83	-0.01
610.019	0.05
610.208	0.01
610.397	0.02
610.586	0.06
610.775	0.02
610.965	0.02
611.154	-0.01
611.343	0.03
611.532	0.03
611.721	0.01
611.91	0.02
612.099	0.06
612.287	0
612.476	-0
612.665	0.06
612.854	0.01
613.043	0.06
613.232	0.04
613.421	-0.03
613.61	0.05
613.798	-0
613.987	0.03
614.176	0.02
614.365	0.07
614.554	0.05
614.742	0.06
614.931	0.02
615.12	0.06
615.309	0.03
615.497	0.01
615.686	0.01
615.875	0.03
616.063	0.06
616.252	-0.01
616.44	0.01
616.629	0.03
616.818	0.07
617.006	0.03
617.195	0.03
617.383	0.06
617.572	0.03
617.76	0.04
617.949	-0.01
618.137	0.04
618.326	0.1
618.514	0.01
618.703	-0.02
618.891	0.08
619.079	-0.05
619.268	0.05
619.456	0
619.644	0.07
619.833	0.01
620.021	0.04
620.209	-0.01
620.398	0.03
620.586	0.03
620.774	0.06
620.962	0.02
621.151	0.07
621.339	0.05
621.527	-0.01
621.715	-0.05
621.903	-0
622.092	0.01
622.28	0.04
622.468	0.03
622.656	0.04
622.844	0.05
623.032	-0.01
623.22	-0.04
623.408	0.07
623.596	0.07
623.784	0.07
623.972	0.01
624.16	0.01
624.348	0.12
624.536	0.01
624.724	0.01
624.912	0.13
625.1	0.07
625.288	-0.02
625.476	0.01
625.664	0.08
625.851	0.02
626.039	0.06
626.227	0.06
626.415	0.04
626.603	-0.02
626.79	0.02
626.978	0.01
627.166	0.06
627.354	0.06
627.541	-0.01
627.729	-0.02
627.917	0.06
628.104	0.1
628.292	0.06
628.48	0.03
628.667	0.06
628.855	0.04
629.042	0.05
629.23	0.03
629.418	0.03
629.605	0.04
629.793	0.02
629.98	0.02
630.168	0.03
630.355	0.03
630.543	0.04
630.73	-0.01
630.917	0.09
631.105	0.1
631.292	0.01
631.48	0
631.667	0.13
631.854	0.04
632.042	0.05
632.229	-0.02
632.416	0.03
632.604	0.02
632.791	-0.02
632.978	0.08
633.165	0.03
633.353	0.06
633.54	0.04
633.727	-0.02
633.914	0.03
634.101	-0.04
634.289	0.06
634.476	-0.01
634.663	-0.01
634.85	0.05
635.037	-0.01
635.224	-0.05
635.411	0.05
635.598	0.07
635.785	0.02
635.972	0.01
636.159	0.05
636.346	-0.01
636.533	0.01
636.72	0
636.907	0.03
637.094	0.06
637.281	0.03
637.468	0.06
637.655	0.04
637.842	0.07
638.029	0.01
638.215	0.06
638.402	0.03
638.589	0.01
638.776	0.01
638.963	-0
639.149	0.08
639.336	0.09
639.523	0
639.709	0.03
639.896	-0
640.083	0.11
640.27	0.02
640.456	-0.01
640.643	0.04
640.829	-0.02
641.016	0
641.203	0
641.389	0.07
641.576	0.06
641.762	0.01
641.949	0
642.135	0.04
642.322	0.07
642.508	-0.01
642.695	0.04
642.881	0.04
643.068	0.02
643.254	0.02
643.441	0.05
643.627	0.02
643.813	0.01
644	0.06
644.186	-0.01
644.372	0.05
644.559	0.07
644.745	-0.01
644.931	-0.01
645.118	0.01
645.304	0.02
645.49	-0.03
645.676	0.04
645.862	0.04
646.049	0.09
646.235	-0.01
646.421	0.08
646.607	0.1
646.793	0.04
646.979	-0
647.165	0.04
647.352	0.03
647.538	0.06
647.724	0.04
647.91	0.03
648.096	0.07
648.282	0.08
648.468	0
648.654	0.04
648.84	0.06
649.026	0.03
649.212	0.03
649.397	0.01
649.583	-0.01
649.769	0.06
649.955	0.03
650.141	0.04
650.327	0.08
650.513	0
650.698	0.05
650.884	-0.05
651.07	0.03
651.256	0.05
651.442	0.03
651.627	0.03
651.813	0.04
651.999	0
652.184	0.05
652.37	0.01
652.556	0.03
652.741	0.07
652.927	-0.04
653.113	-0.01
653.298	0.06
653.484	0.03
653.669	-0.04
653.855	0.03
654.04	0.07
654.226	0.02
654.412	0.03
654.597	0.02
654.782	0.04
654.968	0.07
655.153	0.04
655.339	0.01
655.524	0.02
655.71	0.08
655.895	0.03
656.08	-0.01
656.266	0.08
656.451	0.05
656.636	-0.01
656.822	-0
657.007	-0
657.192	0.01
657.378	-0
657.563	0.01
657.748	0.05
657.933	0.02
658.118	0
658.304	0.02
658.489	0.05
658.674	0.06
658.859	-0.02
659.044	0.06
659.229	0.07
659.414	0
659.599	0.03
659.785	-0.05
659.97	-0.01
660.155	0.08
660.34	0.03
660.525	0.02
660.71	-0
660.895	0.08
661.08	0.01
661.264	-0.01
661.449	0.1
661.634	0.03
661.819	0.04
662.004	0.05
662.189	-0.04
662.374	-0.01
662.559	0
662.743	-0.03
662.928	0.03
663.113	-0.01
663.298	-0.04
663.483	0.05
663.667	0.05
663.852	-0
664.037	0.07
664.221	0.02
664.406	0.11
664.591	0.07
664.775	0.04
664.96	-0.04
665.145	0.02
665.329	0.09
665.514	0.01
665.698	0.01
665.883	-0.07
666.068	0.09
666.252	0.03
666.437	-0.02
666.621	0.04
666.806	0.08
666.99	0.02
667.174	0
667.359	0.15
667.543	0.01
667.728	0.01
667.912	-0.01
668.096	0.06
668.281	0.02
668.465	0.02
668.649	0.05
668.834	-0.03
669.018	0.01
669.202	0
669.387	0.03
669.571	0.05
669.755	0.01
669.939	0.01
670.124	0.04
670.308	0.1
670.492	0.04
670.676	0.04
670.86	0.07
671.044	-0.02
671.228	0.08
671.413	-0.02
671.597	0.02
671.781	-0.01
671.965	0.04
672.149	-0
672.333	0.03
672.517	0.01
672.701	0.04
672.885	0.01
673.069	-0.06
673.253	0.08
673.437	0.01
673.621	-0
673.804	0.02
673.988	0.05
674.172	0.05
674.356	-0.04
674.54	0.04
674.724	0.08
674.908	0.01
675.091	0.06
675.275	0.03
675.459	0.05
675.643	0.04
675.826	0.01
676.01	0.05
676.194	0.03
676.377	0.06
676.561	0.01
676.745	0.02
676.928	0.04
677.112	0.08
677.296	-0.03
677.479	0.02
677.663	0.01
677.846	0.05
678.03	0.05
678.213	-0.01
678.397	0.05
678.58	-0.02
678.764	0.01
678.947	-0.03
679.131	-0.06
679.314	0.06
679.498	0.03
679.681	0.06
679.865	0.08
680.048	0.04
680.231	0.03
680.415	-0.01
680.598	0.03
680.781	0.02
680.965	0.02
681.148	0
681.331	0.01
681.514	0.03
681.698	0
681.881	0.04
682.064	0.01
682.247	0.06
682.43	-0.04
682.614	0.04
682.797	0.06
682.98	0.09
683.163	0.01
683.346	0.06
683.529	-0
683.712	0.02
683.895	0.08
684.078	-0.05
684.261	0.03
684.444	0.03
684.627	0.07
684.81	0.03
684.993	0.09
685.176	0.05
685.359	-0.03
685.542	0.02
685.725	0.06
685.908	0.09
686.091	0.03
686.274	0.04
686.457	0.12
686.639	-0
686.822	0.07
687.005	0.03
687.188	0.07
687.371	0.18
687.553	0.08
687.736	0.01
687.919	0.15
688.102	0.12
688.284	-0.01
688.467	0
688.65	0.02
688.832	0.04
689.015	0.06
689.197	-0.04
689.38	0.09
689.563	0.12
689.745	-0.03
689.928	0.01
690.11	0.02
690.293	0.05
690.475	-0.04
690.658	0.07
690.84	0.02
691.023	-0
691.205	0.03
691.388	0.07
691.57	0.09
691.752	0.13
691.935	-0.05
692.117	0.04
692.3	0.06
692.482	0.02
692.664	0.03
692.847	0.07
693.029	0.07
693.211	0.08
693.393	0.03
693.576	0.06
693.758	0.03
693.94	0.02
694.122	0.04
694.304	0.03
694.487	0
694.669	0.14
694.851	-0.01
695.033	0.06
695.215	0.02
695.397	-0.01
695.579	0.08
695.761	0.04
695.943	0.01
696.125	0.1
696.308	0.11
696.49	-0.08
696.671	0.14
696.853	0.06
697.035	0.17
697.217	0.06
697.399	0.05
697.581	-0.02
697.763	0.04
697.945	-0.05
698.127	0.07
698.309	0.07
698.491	0.02
698.672	0.07
698.854	0.09
699.036	0.08
699.218	0.06
699.399	0.11
699.581	0.05
699.763	0.03
699.945	-0.01
700.126	0.02
700.308	0.09
700.49	-0
700.671	-0.06
700.853	-0.03
701.035	-0.01
701.216	0.08
701.398	-0.04
701.579	0.06
701.761	0.12
701.943	0.01
702.124	0.02
702.306	0.01
702.487	0.21
702.669	0.04
702.85	-0.01
703.031	-0.01
703.213	0.12
703.394	0.12
703.576	0.05
703.757	0.15
703.938	0.1
704.12	0.2
704.301	0.03
704.483	-0
704.664	0.07
704.845	0.17
705.026	0.08
705.208	0.05
705.389	0.05
705.57	0.06
705.751	0.02
705.933	-0
706.114	0.14
706.295	0.03
706.476	-0
706.657	0.18
706.838	0.14
707.02	0.05
707.201	-0.01
707.382	0.01
707.563	0.1
707.744	-0.02
707.925	-0.05
708.106	-0.01
708.287	0.12
708.468	0.16
708.649	0.13
708.83	0.07
709.011	0
709.192	0.04
709.373	-0.05
709.554	0.03
709.734	0.08
709.915	0.07
710.096	0.03
710.277	-0.05
710.458	0.02
710.639	0.1
710.819	-0.06
711	0.02
711.181	0.14
711.362	0.1
711.542	0.03
711.723	0.01
711.904	0.11
712.085	0.07
712.265	0.06
712.446	-0.02
712.627	0.01
712.807	0.06
712.988	0.03
713.168	0.02
713.349	0.06
713.53	-0.13
713.71	-0.03
713.891	0.01
714.071	-0.01
714.252	0.02
714.432	0.02
714.613	-0.02
714.793	0.08
714.974	0.17
715.154	0.12
715.334	0.11
715.515	0.13
715.695	-0.02
715.876	0.1
716.056	-0.05
716.236	0.05
716.417	0.1
716.597	-0.06
716.777	0.15
716.957	0.09
717.138	0.06
717.318	0.03
717.498	-0.02
717.678	0.03
717.859	0.05
718.039	-0.03
718.219	0.04
718.399	0.11
718.579	-0.05
718.759	0.01
718.939	0.03
719.12	0.1
719.3	0.02
719.48	-0.03
719.66	-0.06
719.84	0.19
720.02	0.02
720.2	0.05
720.38	0.02
720.56	0.15
720.74	0.03
720.92	0.08
721.1	0.16
721.279	0.12
721.459	0.05
721.639	-0.04
721.819	0.04
721.999	0.02
722.179	0.08
722.359	-0.02
722.538	0.01
722.718	0.06
722.898	-0
723.078	-0.02
723.257	0.05
723.437	0.06
723.617	0.1
723.797	-0.04
723.976	0.07
724.156	0.07
724.336	0.14
724.515	0.06
724.695	-0.07
724.874	0.06
725.054	0.15
725.234	-0.02
725.413	0.06
725.593	0
725.772	0
725.952	0.07
726.131	0.07
726.311	0.01
726.49	0.09
726.67	-0.03
726.849	-0.03
727.028	0.03
727.208	0.08
727.387	0.02
727.567	-0.01
727.746	-0.04
727.925	0.03
728.105	-0.07
728.284	0.04
728.463	-0.04
728.643	0.14
728.822	-0.05
729.001	0.02
729.18	0.09
729.359	0.14
729.539	0.05
729.718	0.01
729.897	0.07
730.076	-0.02
730.255	-0.08
730.434	0.05
730.614	0.09
730.793	0.11
730.972	0.09
731.151	-0.08
731.33	0.16
731.509	0.1
731.688	0.1
731.867	0.08
732.046	-0.08
732.225	0.19
732.404	0.01
732.583	-0.07
732.762	0.04
732.941	0.13
733.12	0.05
733.298	-0.02
733.477	0.15
733.656	0.03
733.835	-0.05
734.014	0.11
734.193	0.07
734.371	0.09
734.55	0.09
734.729	0.04
734.908	0.1
735.086	0.12
735.265	0.14
735.444	-0.17
735.623	-0.01
735.801	-0.1
735.98	0.1
736.159	0.02
736.337	0.12
736.516	0.06
736.694	0.09
736.873	-0.01
737.052	0.25
737.23	0.19
737.409	0.07
737.587	0.3
737.766	-0.02
737.944	0.01
738.123	0.09
738.301	0.14
738.479	-0.06
738.658	0.02
738.836	-0.04
739.015	0.11
739.193	0.09
739.371	-0.08
739.55	0.08
739.728	-0.02
739.906	0.09
740.085	0.2
740.263	0.07
740.441	-0.11
740.62	0.29
740.798	0.2
740.976	0.07
741.154	-0
741.332	0.29
741.511	0.05
741.689	0.16
741.867	0.05
742.045	-0.01
742.223	0.08
742.401	-0.06
742.579	0.05
742.757	0.04
742.935	-0.1
743.114	-0.01
743.292	0.01
743.47	0.04
743.648	0.09
743.826	-0.09
744.004	0.16
744.181	0.17
744.359	-0.06
744.537	0.12
744.715	0.02
744.893	-0.03
745.071	0.07
745.249	-0.08
745.427	0.03
745.605	0
745.782	0.06
745.96	0.14
746.138	0.18
746.316	0.19
746.493	0.04
746.671	0.09
746.849	0.06
747.027	0.26
747.204	-0.14
747.382	0.09
747.56	-0.05
747.737	-0.02
747.915	0.02
748.093	0.04
748.27	0
748.448	0.01
748.625	0.01
748.803	-0.04
748.98	-0.02
749.158	0.14
749.335	0.17
749.513	0.06
749.69	0.03
749.868	0.06
750.045	0.17
750.223	0.02
750.4	-0.13
750.578	0.26
750.755	0.07
750.932	-0.08
751.11	0.19
751.287	-0.05
751.464	0.17
751.642	0.05
751.819	0.17
751.996	0.06
752.173	0.06
752.351	-0.01
752.528	0.07
752.705	-0.01
752.882	0.07
753.06	0.11
753.237	0.08
753.414	0.38
753.591	0.23
753.768	0.03
753.945	0.04
754.122	-0.01
754.299	0.16
754.476	-0.06
754.654	0.1
754.831	0.15
755.008	0.13
755.185	0.01
755.362	-0.07
755.539	0.12
755.716	-0.11
755.892	0.06
756.069	0.01
756.246	0.07
756.423	0.08
756.6	0.16
756.777	-0
756.954	0.19
757.131	0.03
757.307	-0.01
757.484	-0.11
757.661	0.06
757.838	0.05
758.015	-0
758.191	0.2
758.368	0.07
758.545	0.16
758.721	0.17
758.898	-0.11
759.075	0.11
759.251	0.11
759.428	0.15
759.605	-0.09
759.781	0.05
759.958	0.11
760.134	0.07
760.311	0.03
760.488	0.2
760.664	0.28
760.841	0.15
761.017	-0.08
761.194	0.11
761.37	0.18
761.547	0.05
761.723	0.04
761.899	0.24
762.076	-0.02
762.252	-0.06
762.429	0.04
762.605	0.14
762.781	0.03
762.958	0.09
763.134	-0.07
763.31	0.07
763.486	0.25
763.663	-0.12
763.839	0.11
764.015	-0.06
764.191	-0.03
764.368	-0
764.544	0.02
764.72	0.05
764.896	0.17
765.072	0.18
765.248	-0.01
765.425	-0
765.601	0.12
765.777	0.09
765.953	-0.24
766.129	0.01
766.305	0
766.481	0.24
766.657	0.13
766.833	0.19
767.009	-0.02
767.185	0.06
767.361	0.09
767.537	-0.13
767.713	0.14
767.889	-0.03
768.065	0.07
768.24	0.14
768.416	0.16
768.592	0
768.768	0.03
768.944	0.05
769.12	0.08
769.295	-0.07
769.471	-0.01
769.647	0.09
769.823	0.2
769.998	-0.03
770.174	-0.11
770.35	0.42
770.525	0.31
770.701	0.07
770.877	0.15
771.052	0
771.228	0.1
771.403	0.13
771.579	0.07
771.755	0.38
771.93	0.08
772.106	-0.08
772.281	-0.05
772.457	-0.01
772.632	0.09
772.808	-0.13
772.983	-0.14
773.159	-0.02
773.334	0.15
773.509	0.08
773.685	-0.05
773.86	0.44
774.036	0.21
774.211	0.17
774.386	0.01
774.562	0.07
774.737	0.34
774.912	-0.19
775.087	0.15
775.263	0.11
775.438	0.09
775.613	0.09
775.788	0.02
775.964	0.34
776.139	0.53
776.314	-0.12
776.489	0.1
776.664	0.16
776.839	-0.08
777.014	0.12
777.19	0.08
777.365	0.36
777.54	0.24
777.715	0.05
777.89	0.04
778.065	-0.1
778.24	0.13
778.415	0.11
778.59	-0.2
778.765	-0.1
778.94	-0.03
779.115	0.04
779.289	0.01
779.464	0.1
779.639	0.03
779.814	-0.2
779.989	-0.08
780.164	0.28
780.339	0.13
780.513	-0.12
780.688	-0.02
780.863	0.09
781.038	0.38
781.212	-0.03
781.387	-0.05
781.562	0.42
781.737	-0.04
781.911	0.34
782.086	-0.08
782.261	0.11
782.435	0.23
782.61	0.09
782.784	0.05
782.959	0.21
783.134	0.05
783.308	-0.08
783.483	0.13
783.657	0.41
783.832	0.33
784.006	-0.33
784.181	0.12
784.355	0.2
784.53	-0.14
784.704	-0.12
784.878	0.34
785.053	0.25
785.227	0.35
785.402	0.48
785.576	-0.06
785.75	0.25
785.925	0.1
786.099	0.1
786.273	0.08
786.448	0.14
786.622	0.3
786.796	-0.02
786.97	-0.02
787.145	0.61
787.319	-0.1
787.493	0.05
787.667	-0.36
787.841	0.34
788.015	0.22
788.19	-0.14
788.364	0.09
788.538	0.19
788.712	0.21
788.886	-0.06
789.06	0.34
789.234	0.23
789.408	-0.12
789.582	0.13
789.756	-0
789.93	-0.18
790.104	0.02
790.278	0.26
790.452	-0.07
790.626	0.21
790.8	0.01
790.973	0.17
791.147	0.36
791.321	0.35
791.495	0.35
791.669	0.47
791.843	0.11
792.016	0.04
792.19	0.67
792.364	-0.14
792.538	0.55
792.711	0.35
792.885	0.13
793.059	0.06
793.233	-0.13
793.406	0.38
793.58	0.11
793.754	0.05
793.927	0.05
794.101	0.33
794.274	-0.08
794.448	0.43
794.622	-0.05
794.795	0.5
794.969	-0.15
795.142	0.37
795.316	0.09
795.489	-0.13
795.663	0.62
795.836	-0.03
796.009	0.19
796.183	0.64
796.356	-0.07
796.53	0.11
796.703	0.04
796.876	0.47
797.05	0
797.223	-0.08
797.396	0.27
797.57	0.08
797.743	0.52
797.916	0.08
798.09	-0
798.263	0.61
798.436	0.28
798.609	-0.04
798.782	-0.14
798.956	0.44
799.129	0.08
799.302	-0.09
799.475	0.05
799.648	0.06
799.821	-0.04
799.994	0.15
800.167	-0.19
800.34	0.12
800.514	0.32
800.687	-0.11
800.86	-0.09
801.033	-0.18
801.206	0.2
801.379	-0.1
801.551	0.49
801.724	0.19
801.897	0.47
802.07	-0.03
802.243	-0.2
802.416	-0.11
802.589	-0.15
802.762	0.11
802.935	0.44
803.107	0.46
803.28	0.49
803.453	0.6
803.626	0.26
803.798	0.24
803.971	0.09
804.144	0.06
804.317	0.12
804.489	0.68
804.662	0.19
804.835	0.14
805.007	-0.32
805.18	0.62
805.353	0.14
805.525	-0.23
805.698	0.09
805.87	0.33
806.043	0.25
806.215	-0.21
806.388	-0.38
806.56	0.21
806.733	0.47
806.905	0.1
807.078	-0.06
807.25	-0.1
807.423	0.14
807.595	-0.1
807.768	0.26
807.94	0.42
808.112	0.11
808.285	0.15
808.457	0.06
808.629	0.16
808.802	0.56
808.974	0.11
809.146	-0.28
809.318	0
809.491	0.07
809.663	0.31
809.835	0.16
810.007	0.25
810.18	0.2
810.352	-0.27
810.524	-0.06
810.696	0.24
810.868	0.62
811.04	0.18
811.212	0.11
811.384	0.27
811.556	0.34
811.728	0.26
811.901	0.87
812.073	0.1
812.245	0.52
812.417	0.11
812.589	-0.68
812.76	0.13
812.932	0.14
813.104	0.49
813.276	-0.16
813.448	0.04
813.62	0.11
813.792	0.48
813.964	0.24
814.136	0.44
814.307	0.12
814.479	-0.07
814.651	-0.03
814.823	0.98
814.995	0.43
815.166	0.26
815.338	-0.7
815.51	-0.33
815.681	0.94
815.853	0.18
816.025	-0.12
816.196	0.86
816.368	0.41
816.54	-0.54
816.711	-0.62
816.883	0.51
817.054	1.13
817.226	-0.68
817.398	0.58
817.569	0.33
817.741	0.29
817.912	-0.23
818.084	-0.27
818.255	0.45
818.426	-0.23
818.598	0.2
818.769	-0.28
818.941	0.42
819.112	0.62
819.283	0.58
819.455	-0.4
819.626	0.1
819.798	0.55
819.969	0.33
820.14	0.14
820.311	0.18
820.483	0.2
820.654	0.06
820.825	0.09
820.996	0.02
821.168	-0.27
821.339	-0.09
821.51	-0.18
821.681	0.03
821.852	0.07
822.023	-0.07
822.195	-0.13
822.366	0.44
822.537	0.02
822.708	0
822.879	0.11
823.05	1.1
823.221	0.01
823.392	0.46
823.563	0.26
823.734	0.19
823.905	0.29
824.076	-0.3
824.247	-0.2
824.418	-0.39
824.589	0.65
824.759	-0.03
824.93	-0.2
825.101	-0.38
825.272	0.44
825.443	0.54
825.614	0.63
825.784	-0.96
825.955	0.64
826.126	1.36
826.297	0.57
826.467	0.8
826.638	1.21
826.809	-0.58
826.98	0.38
827.15	0.42
827.321	0.04
827.492	1.14
827.662	0.03
827.833	1.18
828.003	0.43
828.174	-0.38
828.345	-0.45
828.515	0.95
828.686	0.87
828.856	-0.19
829.027	0.18
829.197	0.01
829.368	0.46
829.538	-0.18
829.709	-0.13
829.879	0.49
830.049	0.41
830.22	-0.06
830.39	0.18
830.56	0.67
830.731	0.13
830.901	-0.58
831.072	0.24
831.242	0.53
831.412	0.04
831.582	0.22
831.753	-0.72
831.923	0.26
832.093	0.77
832.263	0.02
832.434	-0.48
832.604	-0.13
832.774	0.24
832.944	-0.17
833.114	0.43
833.284	0.66
833.454	-0.38
833.624	-0.6
833.795	0.55
833.965	0.43
834.135	1.11
834.305	-0.7
834.475	-0.16
834.645	0.09
834.815	0.01
834.985	-0.72
835.155	0.22
835.325	0.46
835.494	0.44
835.664	0.12
835.834	0.36
836.004	-0.24
836.174	0.58
836.344	0.15
836.514	-1.08
836.684	0.04
836.853	-0.06
837.023	-0.08
837.193	-0.52
837.363	1.12
837.532	0.83
837.702	-0.56
837.872	0.68
838.041	1.44
838.211	1.23
838.381	-0.57
838.55	0.01
838.72	2.54
838.89	0.94
839.059	0.03
839.229	-0.11
839.398	1.57
839.568	0.32
839.738	0.3
839.907	1.31
840.077	1.55
840.246	0.15
840.416	-0.05
840.585	-0.24
840.755	1.16
840.924	0.77
841.093	-0.51
841.263	0.09
841.432	-0.07
841.602	-0.22
841.771	-0.15
841.94	-0.05
842.11	2.52
842.279	1.5
842.448	-0.45
842.617	-0.62
842.787	0.85
842.956	-0.29
843.125	0.01
843.294	0.5
843.464	1.98
843.633	0.61
843.802	-0.66
843.971	-0.14
844.14	0.87
844.309	0.83
844.479	-0.14
844.648	-0.38
844.817	-0
844.986	-0.28
845.155	0.44
845.324	0.02
845.493	0.48
845.662	-0.42
845.831	-0
846	0.6
846.169	0.01
846.338	1.01
846.507	-0.3
846.676	0.37
846.844	-0.14
847.013	0.64
847.182	0.53
847.351	-0.84
847.52	0.57
847.689	1.01
847.858	-0.12
848.026	0.36
848.195	-0.22
848.364	-0.35
848.533	-0.42
848.701	-0.51
848.87	0.2
849.039	1.04
849.207	0.8
849.376	0.8
849.545	1.57
849.713	-0.44
849.882	-0.39
850.051	-0.31
850.219	0.42
850.388	1.03
850.556	-0.93
850.725	-0.72
850.893	0.7
851.062	0.09
851.23	0.7
851.399	-0.49
851.567	0.67
851.736	1.04
851.904	-0.72
852.073	0.42
852.241	2.17
852.41	0.81
852.578	0.22
852.746	-0.5
852.915	0.98
853.083	0.02
853.251	-0.59
853.42	-0.2
853.588	1.07
853.756	1.82
853.924	0.3
854.093	-0.08
854.261	-0.14
854.429	-0.73
854.597	0.21
854.765	-0.49
854.934	1.11
855.102	0.71
855.27	-0.26
855.438	1.08
855.606	0.57
855.774	1.39
855.942	-1.21
856.11	-0.41
856.278	0.77
856.446	1.15
856.614	0.81
856.782	-0.65
856.95	1.4
857.118	1.16
857.286	0.36
857.454	-0.99
857.622	1.42
857.79	1.47
857.958	-0.85
858.126	0.25
858.294	-1.8
858.462	-0.35
858.629	0.21
858.797	-0.79
858.965	1.5
859.133	0.76
859.301	1.13
859.468	0.43
859.636	0.33
859.804	2.1
859.971	0.69
860.139	-1.1
860.307	0.15
860.474	0.37
860.642	-0.85
860.81	0.28
860.977	-0.2
861.145	1.93
861.313	-0.09
861.48	0.05
861.648	0.56
861.815	-0.1
861.983	-1.73
862.15	-0.27
862.318	-0
862.485	2.91
862.653	-0.39
862.82	-2.15
862.988	3.05
863.155	1.39
863.322	-0.12
863.49	-0.46
863.657	-0.78
863.824	1.48
863.992	0.08
864.159	1.09
864.326	1.78
864.494	-0.21
864.661	3.37
864.828	-1.22
864.996	2.69
865.163	2.59
865.33	-0.94
865.497	-2.79
865.664	-0.81
865.832	-2.46
865.999	-0.5
866.166	-1.42
866.333	-0.91
866.5	-0.95
866.667	-0.48
866.834	-0.9
867.001	3.43
867.168	-1.91
867.335	0.49
867.502	-0.52
867.669	-0.09
867.836	2.81
868.003	-0.1
868.17	2.33
868.337	-0.76
868.504	1.67
868.671	-1.32
868.838	0.73
869.005	0.89
869.172	1.7
869.339	-0.22
869.505	-0.44
869.672	1.41
869.839	2.01
870.006	1.05
870.173	-1.25
870.339	1.1
870.506	3.36
870.673	0.93
870.84	1.23
871.006	1.85
871.173	-0.14
871.34	0.57
871.506	-0.43
871.673	1.85
871.839	-2.17
872.006	0.74
872.173	-1.65
872.339	-0.3
872.506	1.77
872.672	1.71
872.839	-0.63
873.005	1.76
873.172	2.67
873.338	1.47
873.505	0.57
873.671	-0.59
873.838	1.42
874.004	-1.97
874.171	0.72
874.337	2.29
874.503	1.3
874.67	-0.97
874.836	-0.86
875.002	2.38
875.169	3.23
875.335	-1.94
875.501	0.16
875.668	0.6
875.834	0.14
876	0.23
876.166	2.14
876.332	1.49
876.499	3.25
876.665	-0.06
876.831	1.4
876.997	5.05
877.163	0.92
877.329	0.57
877.495	0.99
877.662	0.25
877.828	0.02
877.994	0.96
878.16	-0.81
878.326	0.77
878.492	2.44
878.658	-0.56
878.824	1.26
878.99	1.13
879.156	-0.73
879.322	3.84
879.487	-1.4
879.653	2.35
879.819	-0.71
879.985	-1.06
880.151	-0.62
880.317	2.86
880.483	-1.31
880.648	2.54
880.814	-1.29
880.98	3.37
881.146	-3.3
881.312	-0.38
881.477	0.41
881.643	1.5
881.809	1.32
881.974	2.72
882.14	-2.78
882.306	0.9
882.471	3.46
882.637	-0.1
882.803	0.62
882.968	3.25
883.134	3.78
883.299	2.41
883.465	-0.08
883.63	1.98
883.796	1.73
883.961	1.86
884.127	1.1
884.292	-4.47
884.458	-2.81
884.623	-2.8
