Data from Apollo_Calib_20240827__AbsoluteIrradiance__367__05-16-02-328.txt Node

Date: Wed Aug 28 05:16:02 BST 2024
User: biology
Spectrometer: FLMT08252
Trigger mode: 0
Integration Time (sec): 5.000000E-1
Scans to average: 5
Electric dark correction enabled: true
Nonlinearity correction enabled: false
Boxcar width: 0
XAxis mode: Wavelengths
Number of Pixels in Spectrum: 3648
>>>>>Begin Spectral Data<<<<<
179.588	-0
179.809	-0
180.03	-0
180.251	-0
180.473	-0
180.694	0
180.915	0
181.136	-0
181.357	0
181.578	0
181.799	-0
182.02	-0
182.241	0
182.462	-0
182.683	0
182.904	-0
183.125	-0
183.346	0
183.567	0
183.788	0
184.009	-0
184.23	0
184.451	0
184.672	0
184.892	0
185.113	0
185.334	0
185.555	0
185.776	-0
185.996	0
186.217	0
186.438	0
186.659	0
186.879	0
187.1	0
187.321	0
187.541	-0
187.762	0
187.983	0
188.203	0
188.424	0
188.644	0
188.865	0
189.086	0
189.306	0
189.527	0
189.747	0
189.968	0
190.188	0
190.409	0
190.629	0
190.849	-0
191.07	0
191.29	0
191.511	0
191.731	-0
191.951	-0
192.172	0
192.392	0
192.612	0
192.833	0
193.053	0
193.273	0
193.493	0
193.714	0
193.934	0
194.154	0
194.374	0
194.594	0
194.815	0
195.035	0
195.255	0
195.475	-0
195.695	0
195.915	0
196.135	0
196.355	0
196.575	0
196.795	0
197.015	-0
197.235	0
197.455	0
197.675	0
197.895	0
198.115	0
198.335	0
198.555	0
198.775	0
198.995	0
199.214	0
199.434	0
199.654	0
199.874	0
200.094	1.8
200.313	0.18
200.533	0.32
200.753	0.2
200.973	1.34
201.192	1.21
201.412	-0.46
201.632	0.35
201.851	1.9
202.071	0.39
202.291	0.42
202.51	-0.55
202.73	0.89
202.95	0.56
203.169	0.5
203.389	0.89
203.608	0.6
203.828	-0.1
204.047	0.37
204.267	0.98
204.486	0.84
204.706	0.35
204.925	0.06
205.145	-0.17
205.364	0.4
205.583	1.12
205.803	-0.01
206.022	-0.09
206.242	0.55
206.461	0.74
206.68	0.25
206.9	0.72
207.119	1.23
207.338	0.94
207.557	0.28
207.777	0.38
207.996	0.37
208.215	1.05
208.434	0.05
208.654	-0.04
208.873	0.6
209.092	0.97
209.311	0.27
209.53	0.13
209.749	0.29
209.968	0.09
210.187	0.24
210.407	-0.06
210.626	0.15
210.845	0.8
211.064	0.42
211.283	-0.06
211.502	0.57
211.721	0.23
211.94	0.16
212.159	0.33
212.377	0.61
212.596	0.47
212.815	0.3
213.034	0.38
213.253	0.78
213.472	0.52
213.691	0.16
213.91	-0.03
214.128	0.19
214.347	0.67
214.566	-0.04
214.785	-0.03
215.003	0.59
215.222	0.45
215.441	0.45
215.66	0
215.878	0.24
216.097	0.41
216.316	0.08
216.534	0.15
216.753	0.43
216.972	0.26
217.19	0.3
217.409	0.18
217.627	0.1
217.846	0.13
218.064	0.07
218.283	0.03
218.501	0.63
218.72	0.44
218.938	0.12
219.157	0.09
219.375	0.6
219.594	0.35
219.812	0.07
220.031	0.09
220.249	0.47
220.467	0.63
220.686	0.13
220.904	-0.02
221.122	0.07
221.341	0.63
221.559	0.1
221.777	-0.07
221.995	0.09
222.214	0.44
222.432	0.16
222.65	0.39
222.868	0.27
223.086	0.39
223.305	0.3
223.523	0.05
223.741	0.51
223.959	0.17
224.177	-0.09
224.395	0.08
224.613	0.28
224.831	0.34
225.049	0.13
225.267	0.13
225.485	0.28
225.703	0.14
225.921	0.28
226.139	0.15
226.357	0.19
226.575	0.4
226.793	0.19
227.011	0.74
227.229	0.25
227.447	0.31
227.665	0.08
227.883	0.02
228.1	0.17
228.318	0.19
228.536	0.01
228.754	0.01
228.972	0.17
229.189	0.45
229.407	0.11
229.625	0.04
229.843	0.4
230.06	0.35
230.278	0.13
230.496	0.21
230.713	0.23
230.931	0.32
231.149	0.17
231.366	-0.01
231.584	0.19
231.801	0.52
232.019	0.06
232.236	-0.09
232.454	0.04
232.671	0.19
232.889	0.16
233.106	-0.02
233.324	0.18
233.541	0.25
233.759	0.19
233.976	0.09
234.194	0.2
234.411	0.05
234.628	0.1
234.846	0.08
235.063	0.18
235.28	0.16
235.498	0.12
235.715	0.1
235.932	0.27
236.149	0.09
236.367	0.1
236.584	0.15
236.801	0.03
237.018	0.28
237.236	0.14
237.453	0.07
237.67	0.34
237.887	0.19
238.104	0.08
238.321	0
238.538	0.08
238.755	0.35
238.973	-0.06
239.19	0.16
239.407	0.29
239.624	0.26
239.841	0.07
240.058	0.03
240.275	0.21
240.492	0.06
240.709	0.17
240.925	0.13
241.142	0.17
241.359	0.09
241.576	0.03
241.793	0.04
242.01	0.05
242.227	0.29
242.444	0.19
242.66	0.28
242.877	0.11
243.094	0.1
243.311	0.1
243.527	0.15
243.744	0.13
243.961	0.3
244.178	0.07
244.394	0.04
244.611	0.27
244.828	0.29
245.044	0.07
245.261	0.17
245.477	0.16
245.694	0.21
245.911	0.11
246.127	0.18
246.344	0.3
246.56	0.34
246.777	0.06
246.993	0.11
247.21	0.16
247.426	0.14
247.643	-0.02
247.859	0.07
248.076	0.07
248.292	0.39
248.508	0.07
248.725	0.13
248.941	0.2
249.157	0.31
249.374	0.01
249.59	0.17
249.806	0.16
250.023	0.24
250.239	0.06
250.455	0.08
250.671	0.21
250.888	0.2
251.104	0.16
251.32	0.13
251.536	0.11
251.752	0.08
251.969	0.12
252.185	0.19
252.401	0.4
252.617	0.1
252.833	0.06
253.049	0.13
253.265	0.2
253.481	0.19
253.697	0.07
253.913	0.08
254.129	0.15
254.345	0.14
254.561	0.01
254.777	0.11
254.993	0.23
255.209	0.19
255.425	0.03
255.641	0.08
255.857	0.18
256.073	0.18
256.288	0.04
256.504	0.05
256.72	0.17
256.936	0.24
257.152	0.09
257.367	0.03
257.583	0.11
257.799	0.17
258.015	0.07
258.23	0.1
258.446	0.24
258.662	0.15
258.877	-0
259.093	0.07
259.309	0.11
259.524	0.22
259.74	0.15
259.955	0.01
260.171	0.19
260.387	0.16
260.602	0.15
260.818	0.18
261.033	0.06
261.249	0.11
261.464	-0.01
261.68	0.09
261.895	0.2
262.11	0.2
262.326	0.09
262.541	0.02
262.757	0.21
262.972	0.16
263.187	0.16
263.403	0.15
263.618	0.19
263.833	0.11
264.049	0.11
264.264	0.11
264.479	0.21
264.694	0.26
264.91	0.07
265.125	0.09
265.34	0.19
265.555	0.31
265.77	0.19
265.986	0.08
266.201	0.19
266.416	0.27
266.631	0.05
266.846	0.13
267.061	0.18
267.276	0.14
267.491	0
267.706	0.15
267.921	0.24
268.136	0.18
268.351	0.12
268.566	0.08
268.781	0.26
268.996	0.16
269.211	0.07
269.426	0.03
269.641	0.09
269.856	0.15
270.071	0.03
270.285	0.04
270.5	0.18
270.715	0.18
270.93	0.07
271.145	0.08
271.359	0.21
271.574	0.14
271.789	0.08
272.004	0.05
272.218	0.12
272.433	0.14
272.648	0.06
272.862	0.15
273.077	0.11
273.292	0.18
273.506	0.06
273.721	0.13
273.936	0.13
274.15	0.22
274.365	0.11
274.579	0.12
274.794	0.17
275.008	0.17
275.223	0.03
275.437	0.16
275.652	0.16
275.866	0.15
276.081	0.14
276.295	0.19
276.509	0.13
276.724	0.16
276.938	0.12
277.153	0.15
277.367	0.19
277.581	0.1
277.796	0.05
278.01	0.07
278.224	0.18
278.438	0.25
278.653	0.07
278.867	0.04
279.081	-0.08
279.295	0.07
279.51	0.11
279.724	0.06
279.938	0.21
280.152	0.22
280.366	0.06
280.58	0.13
280.794	0.23
281.008	0.16
281.222	0.18
281.437	0.26
281.651	0.14
281.865	0.27
282.079	0.12
282.293	0.06
282.507	0.1
282.721	0.14
282.935	0.14
283.148	0.05
283.362	0.05
283.576	0.1
283.79	0.09
284.004	0.08
284.218	0.22
284.432	0.08
284.646	0.12
284.859	0.07
285.073	0.1
285.287	0.12
285.501	0.13
285.714	0.1
285.928	0.14
286.142	0.19
286.356	0.1
286.569	0.09
286.783	0.19
286.997	0.16
287.21	0.13
287.424	0.17
287.637	0.12
287.851	0.08
288.065	0.16
288.278	0.1
288.492	0.05
288.705	0.09
288.919	0.14
289.132	0.04
289.346	0.25
289.559	0.06
289.773	0.09
289.986	0.12
290.2	0.1
290.413	0.16
290.626	0.09
290.84	0.12
291.053	0.11
291.267	0.21
291.48	0.11
291.693	0.13
291.906	0.07
292.12	0.14
292.333	0.06
292.546	0.12
292.76	0.26
292.973	0.18
293.186	0.18
293.399	0.13
293.612	0.2
293.826	0.11
294.039	0.11
294.252	0.11
294.465	0.18
294.678	0.19
294.891	0.13
295.104	0.08
295.317	0.09
295.53	0.12
295.743	0.13
295.956	0.09
296.169	0.18
296.382	0.21
296.595	0.15
296.808	0.1
297.021	0.18
297.234	0.18
297.447	0.12
297.66	0.13
297.873	0.16
298.086	0.19
298.299	0.08
298.511	0.06
298.724	0.11
298.937	0.08
299.15	0.08
299.363	0.11
299.575	0.17
299.788	0.13
300.001	0.05
300.213	0.11
300.426	0.12
300.639	0.09
300.852	0.08
301.064	0.17
301.277	0.17
301.489	0.19
301.702	0.12
301.915	0.12
302.127	0.12
302.34	0.12
302.552	0.15
302.765	0.05
302.977	0.16
303.19	0.1
303.402	0.08
303.615	0.1
303.827	0.13
304.04	0.12
304.252	0.08
304.464	0.09
304.677	0.24
304.889	0.19
305.102	0.13
305.314	0.09
305.526	0.17
305.739	0.14
305.951	0.09
306.163	0.15
306.375	0.21
306.588	0.09
306.8	0.1
307.012	0.04
307.224	0.13
307.436	0.18
307.649	0.02
307.861	0.09
308.073	0.17
308.285	0.11
308.497	0.06
308.709	0.11
308.921	0.13
309.133	0.19
309.346	0.09
309.558	0.09
309.77	0.12
309.982	0.18
310.194	0.16
310.406	0.1
310.617	0.22
310.829	0.12
311.041	0.17
311.253	0.1
311.465	0.12
311.677	0.11
311.889	0.12
312.101	0.08
312.313	0.16
312.524	0.18
312.736	0.09
312.948	0.12
313.16	0.21
313.372	0.15
313.583	0.18
313.795	0.09
314.007	0.09
314.218	0.2
314.43	0.11
314.642	0.12
314.853	0.07
315.065	0.14
315.277	0.1
315.488	0.14
315.7	0.21
315.912	0.16
316.123	0.13
316.335	0.15
316.546	0.22
316.758	0.16
316.969	0.14
317.181	0.14
317.392	0.09
317.604	0.18
317.815	0.12
318.026	0.09
318.238	0.08
318.449	0.18
318.661	0.05
318.872	0.03
319.083	0.08
319.295	0.17
319.506	0.11
319.717	0.14
319.929	0.18
320.14	0.19
320.351	0.18
320.562	0.13
320.774	0.15
320.985	0.14
321.196	0.13
321.407	0.1
321.618	0.19
321.829	0.16
322.041	0.17
322.252	0.14
322.463	0.14
322.674	0.15
322.885	0.1
323.096	0.12
323.307	0.13
323.518	0.16
323.729	0.07
323.94	0.12
324.151	0.08
324.362	0.15
324.573	0.14
324.784	0.06
324.995	0.19
325.206	0.16
325.417	0.09
325.628	0.09
325.838	0.14
326.049	0.11
326.26	0.16
326.471	0.07
326.682	0.17
326.892	0.16
327.103	0.08
327.314	0.09
327.525	0.16
327.735	0.16
327.946	0.13
328.157	0.08
328.368	0.14
328.578	0.08
328.789	0.17
328.999	0.13
329.21	0.16
329.421	0.14
329.631	0.13
329.842	0.09
330.052	0.13
330.263	0.14
330.473	0.18
330.684	0.13
330.894	0.11
331.105	0.12
331.315	0.11
331.526	0.07
331.736	0.22
331.947	0.14
332.157	0.14
332.367	0.1
332.578	0.2
332.788	0.2
332.999	0.15
333.209	0.13
333.419	0.08
333.629	0.13
333.84	0.14
334.05	0.1
334.26	0.18
334.47	0.12
334.681	0.18
334.891	0.09
335.101	0.17
335.311	0.21
335.521	0.16
335.732	0.06
335.942	0.17
336.152	0.17
336.362	0.15
336.572	0.11
336.782	0.12
336.992	0.08
337.202	0.1
337.412	0.09
337.622	0.14
337.832	0.15
338.042	0.1
338.252	0.12
338.462	0.1
338.672	0.1
338.882	0.13
339.092	0.16
339.302	0.22
339.511	0.11
339.721	0.06
339.931	0.08
340.141	0.18
340.351	0.19
340.561	0.14
340.77	0.17
340.98	0.18
341.19	0.17
341.4	0.1
341.609	0.04
341.819	0.15
342.029	0.09
342.238	0.13
342.448	0.08
342.658	0.16
342.867	0.14
343.077	0.14
343.286	0.16
343.496	0.17
343.706	0.15
343.915	0.1
344.125	0.11
344.334	0.11
344.544	0.03
344.753	0.15
344.963	0.09
345.172	0.08
345.381	0.08
345.591	0.08
345.8	0.14
346.01	0.18
346.219	0.15
346.428	-0.03
346.638	0.08
346.847	0.16
347.056	0.21
347.266	0.12
347.475	0.08
347.684	0.12
347.893	0.13
348.103	0.15
348.312	0.1
348.521	0.16
348.73	0.14
348.94	0.16
349.149	0.12
349.358	0.11
349.567	0.07
349.776	0.05
349.985	0.09
350.194	0.17
350.403	0.15
350.612	0.04
350.821	0.07
351.03	0.15
351.239	0.08
351.448	0.13
351.657	0.09
351.866	0.21
352.075	0.14
352.284	0.17
352.493	0.08
352.702	0.22
352.911	0.17
353.12	0.12
353.329	0.12
353.538	0.13
353.746	0.12
353.955	0.1
354.164	0.14
354.373	0.09
354.582	0.13
354.79	0.14
354.999	0.17
355.208	0.1
355.416	0.19
355.625	0.09
355.834	0.1
356.042	0.16
356.251	0.09
356.46	0.1
356.668	0.13
356.877	0.22
357.085	0.18
357.294	0.05
357.503	0.15
357.711	0.09
357.92	0.29
358.128	0.15
358.337	0.11
358.545	0.13
358.754	0.09
358.962	0.16
359.17	0.11
359.379	0.12
359.587	0.16
359.796	0.1
360.004	0.19
360.212	0.12
360.421	0.17
360.629	0.09
360.837	0.11
361.046	0.16
361.254	0.28
361.462	0.1
361.67	0.1
361.879	0.13
362.087	0.21
362.295	0.12
362.503	0.1
362.711	0.08
362.92	0.07
363.128	0.06
363.336	0.07
363.544	0.04
363.752	0.12
363.96	0.12
364.168	0.11
364.376	0.17
364.584	0.16
364.792	0.2
365	0.12
365.208	0.13
365.416	0.16
365.624	0.19
365.832	0.09
366.04	0.2
366.248	0.13
366.456	0.1
366.664	0.13
366.872	0.11
367.079	0.1
367.287	0.15
367.495	0.15
367.703	0.11
367.911	0.12
368.118	0.12
368.326	0.12
368.534	0.08
368.742	0.19
368.949	0.06
369.157	0.06
369.365	0.15
369.572	0.11
369.78	0.06
369.988	0.19
370.195	0.16
370.403	0.16
370.61	0.11
370.818	0.11
371.026	0.19
371.233	0.08
371.441	0.14
371.648	0.1
371.856	0.14
372.063	0.13
372.271	0.1
372.478	0.08
372.685	0.13
372.893	0.18
373.1	0.1
373.308	0.16
373.515	0.17
373.722	0.16
373.93	0.12
374.137	0.17
374.344	0.21
374.552	0.18
374.759	0.15
374.966	0.11
375.173	0.12
375.381	0.16
375.588	0.12
375.795	0.08
376.002	0.13
376.209	0.08
376.417	0.13
376.624	0.12
376.831	0.16
377.038	0.15
377.245	0.03
377.452	0.1
377.659	0.18
377.866	0.12
378.073	0.11
378.28	0.12
378.487	0.13
378.694	0.23
378.901	0.14
379.108	0.15
379.315	0.2
379.522	0.22
379.729	0.15
379.936	0.14
380.143	0.14
380.35	0.16
380.557	0.12
380.763	0.16
380.97	0.17
381.177	0.16
381.384	0.14
381.591	0.07
381.797	0.15
382.004	0.17
382.211	0.15
382.418	0.15
382.624	0.15
382.831	0.17
383.038	0.13
383.244	0.17
383.451	0.16
383.658	0.18
383.864	0.14
384.071	0.11
384.277	0.16
384.484	0.12
384.69	0.21
384.897	0.1
385.103	0.13
385.31	0.12
385.516	0.15
385.723	0.05
385.929	0.15
386.136	0.1
386.342	0.19
386.549	0.15
386.755	0.16
386.961	0.17
387.168	0.15
387.374	0.15
387.58	0.16
387.787	0.19
387.993	0.16
388.199	0.16
388.406	0.11
388.612	0.14
388.818	0.15
389.024	0.12
389.231	0.14
389.437	0.22
389.643	0.17
389.849	0.16
390.055	0.15
390.261	0.2
390.467	0.18
390.674	0.12
390.88	0.17
391.086	0.22
391.292	0.15
391.498	0.21
391.704	0.17
391.91	0.14
392.116	0.12
392.322	0.06
392.528	0.19
392.734	0.17
392.94	0.15
393.146	0.16
393.352	0.17
393.557	0.12
393.763	0.17
393.969	0.2
394.175	0.15
394.381	0.18
394.587	0.12
394.792	0.21
394.998	0.2
395.204	0.2
395.41	0.11
395.615	0.21
395.821	0.23
396.027	0.22
396.233	0.16
396.438	0.19
396.644	0.25
396.85	0.2
397.055	0.19
397.261	0.21
397.466	0.18
397.672	0.22
397.878	0.25
398.083	0.21
398.289	0.15
398.494	0.23
398.7	0.25
398.905	0.13
399.111	0.27
399.316	0.2
399.522	0.18
399.727	0.18
399.932	0.19
400.138	0.19
400.343	0.24
400.549	0.22
400.754	0.19
400.959	0.21
401.165	0.2
401.37	0.24
401.575	0.33
401.78	0.23
401.986	0.18
402.191	0.2
402.396	0.18
402.601	0.26
402.807	0.19
403.012	0.23
403.217	0.28
403.422	0.25
403.627	0.27
403.832	0.23
404.037	0.27
404.243	0.24
404.448	0.25
404.653	0.24
404.858	0.29
405.063	0.27
405.268	0.29
405.473	0.23
405.678	0.22
405.883	0.46
406.088	0.29
406.293	0.25
406.498	0.23
406.703	0.31
406.907	0.29
407.112	0.25
407.317	0.33
407.522	0.36
407.727	0.25
407.932	0.3
408.136	0.39
408.341	0.35
408.546	0.38
408.751	0.35
408.956	0.34
409.16	0.38
409.365	0.34
409.57	0.4
409.774	0.39
409.979	0.43
410.184	0.47
410.388	0.38
410.593	0.49
410.798	0.42
411.002	0.4
411.207	0.49
411.411	0.5
411.616	0.4
411.82	0.5
412.025	0.55
412.229	0.47
412.434	0.63
412.638	0.57
412.843	0.59
413.047	0.64
413.252	0.52
413.456	0.63
413.66	0.67
413.865	0.69
414.069	0.74
414.273	0.75
414.478	0.66
414.682	0.79
414.886	0.76
415.091	0.71
415.295	0.73
415.499	0.92
415.703	0.88
415.908	0.93
416.112	0.87
416.316	1.07
416.52	1
416.724	0.99
416.929	1.1
417.133	1.3
417.337	1.18
417.541	1.23
417.745	1.28
417.949	1.39
418.153	1.44
418.357	1.32
418.561	1.56
418.765	1.55
418.969	1.69
419.173	1.77
419.377	1.74
419.581	1.96
419.785	1.87
419.989	1.94
420.193	2.09
420.397	2.09
420.601	2.25
420.804	2.3
421.008	2.39
421.212	2.49
421.416	2.5
421.62	2.54
421.823	2.62
422.027	2.81
422.231	2.8
422.435	2.85
422.638	2.83
422.842	3.05
423.046	3.09
423.249	3.32
423.453	3.28
423.657	3.46
423.86	3.57
424.064	3.71
424.268	3.86
424.471	3.88
424.675	4.08
424.878	4.23
425.082	4.29
425.285	4.78
425.489	4.64
425.692	4.78
425.896	4.87
426.099	5.11
426.303	5.23
426.506	5.46
426.71	5.69
426.913	5.91
427.116	6.2
427.32	6.24
427.523	6.4
427.726	6.6
427.93	6.84
428.133	7.23
428.336	7.45
428.54	7.52
428.743	7.87
428.946	8.16
429.149	8.26
429.353	8.41
429.556	8.53
429.759	8.66
429.962	8.86
430.165	9.14
430.368	8.63
430.571	8.78
430.775	8.94
430.978	8.95
431.181	9.08
431.384	9.16
431.587	9.42
431.79	9.99
431.993	9.98
432.196	10.27
432.399	10.71
432.602	10.85
432.805	11.16
433.008	11.76
433.211	11.69
433.414	12.16
433.616	12.25
433.819	12.25
434.022	12.51
434.225	12.77
434.428	12.86
434.631	13.37
434.833	13.25
435.036	13.74
435.239	13.94
435.442	14.14
435.645	14.44
435.847	14.52
436.05	15.05
436.253	15.36
436.455	15.41
436.658	15.38
436.861	15.87
437.063	16.17
437.266	16.15
437.468	16.71
437.671	17.16
437.874	17.37
438.076	17.23
438.279	18.09
438.481	18.29
438.684	19.42
438.886	18.93
439.089	19.52
439.291	19.82
439.494	20.31
439.696	20.92
439.899	21.59
440.101	22.36
440.303	22.93
440.506	23.97
440.708	23.89
440.91	24.35
441.113	24.81
441.315	25.37
441.517	25.33
441.72	26.23
441.922	26.01
442.124	26.01
442.326	26.69
442.529	27.4
442.731	27.6
442.933	28.2
443.135	27.94
443.337	28.56
443.539	29.55
443.742	29.09
443.944	30.46
444.146	30.23
444.348	30.31
444.55	30.51
444.752	30.85
444.954	31.25
445.156	31.01
445.358	32.24
445.56	32.66
445.762	32.68
445.964	33.64
446.166	33.23
446.368	33.47
446.57	33.49
446.772	32.95
446.974	32.7
447.175	33.44
447.377	33.09
447.579	34.1
447.781	33.66
447.983	33.11
448.184	32.53
448.386	33.36
448.588	32.76
448.79	32.56
448.991	33.4
449.193	33.43
449.395	32.2
449.597	31.52
449.798	31.51
450	30.86
450.202	30.6
450.403	30.66
450.605	30.47
450.806	29.87
451.008	29.69
451.21	29.23
451.411	28.39
451.613	26.76
451.814	27.5
452.016	27.32
452.217	25.81
452.419	25.83
452.62	25.2
452.821	24.86
453.023	24.39
453.224	23.7
453.426	22.97
453.627	21.49
453.828	21.62
454.03	21.71
454.231	21.75
454.432	21.27
454.634	20.79
454.835	20.4
455.036	19.94
455.238	19.11
455.439	18.64
455.64	18.26
455.841	18.01
456.042	17.9
456.244	17.4
456.445	16.92
456.646	16.29
456.847	16.13
457.048	15.93
457.249	15.83
457.45	15.16
457.651	14.5
457.852	14.04
458.054	13.43
458.255	13.39
458.456	13.49
458.657	13.29
458.858	12.41
459.058	12.29
459.259	12.26
459.46	11.71
459.661	11.72
459.862	11.54
460.063	11.66
460.264	11.23
460.465	10.91
460.666	10.83
460.866	10.35
461.067	9.86
461.268	9.99
461.469	9.77
461.67	9.48
461.87	9.25
462.071	9.18
462.272	9.07
462.473	8.81
462.673	9.12
462.874	8.89
463.075	8.84
463.275	8.72
463.476	8.77
463.676	8.61
463.877	8.25
464.078	8.32
464.278	8.27
464.479	7.97
464.679	7.84
464.88	7.66
465.08	7.59
465.281	7.31
465.481	6.88
465.682	6.58
465.882	6.5
466.083	6.39
466.283	6.28
466.483	6.01
466.684	5.66
466.884	5.55
467.085	5.56
467.285	5.54
467.485	5.32
467.686	5.13
467.886	5.08
468.086	4.83
468.286	4.73
468.487	4.88
468.687	4.56
468.887	4.47
469.087	4.57
469.287	4.38
469.488	4.08
469.688	4.21
469.888	4.22
470.088	3.96
470.288	3.91
470.488	3.72
470.688	3.57
470.888	3.52
471.088	3.32
471.288	3.35
471.488	3.29
471.688	3.23
471.888	3.12
472.088	3.27
472.288	3.02
472.488	2.95
472.688	2.9
472.888	2.86
473.088	2.84
473.288	2.65
473.488	2.63
473.688	2.78
473.887	2.58
474.087	2.5
474.287	2.46
474.487	2.37
474.687	2.45
474.886	2.32
475.086	2.18
475.286	2.25
475.486	2.07
475.685	2.07
475.885	2.02
476.085	2.06
476.284	2.04
476.484	1.97
476.684	1.92
476.883	2
477.083	1.79
477.282	1.7
477.482	1.81
477.681	1.73
477.881	1.56
478.08	1.6
478.28	1.58
478.479	1.65
478.679	1.58
478.878	1.47
479.078	1.45
479.277	1.48
479.477	1.41
479.676	1.42
479.875	1.32
480.075	1.29
480.274	1.3
480.473	1.33
480.673	1.25
480.872	1.32
481.071	1.27
481.271	1.25
481.47	1.15
481.669	1.11
481.868	1.08
482.067	1.08
482.267	1.01
482.466	0.99
482.665	0.99
482.864	0.92
483.063	0.95
483.262	1.02
483.461	0.99
483.661	0.96
483.86	0.92
484.059	0.9
484.258	0.9
484.457	0.83
484.656	0.82
484.855	0.88
485.054	0.71
485.253	0.74
485.452	0.7
485.651	0.73
485.849	0.72
486.048	0.7
486.247	0.65
486.446	0.69
486.645	0.62
486.844	0.63
487.043	0.63
487.241	0.64
487.44	0.57
487.639	0.62
487.838	0.59
488.037	0.55
488.235	0.61
488.434	0.53
488.633	0.51
488.831	0.54
489.03	0.55
489.229	0.5
489.427	0.48
489.626	0.51
489.825	0.5
490.023	0.45
490.222	0.44
490.42	0.43
490.619	0.46
490.817	0.43
491.016	0.41
491.214	0.44
491.413	0.42
491.611	0.38
491.81	0.38
492.008	0.4
492.207	0.39
492.405	0.39
492.604	0.3
492.802	0.35
493	0.37
493.199	0.33
493.397	0.3
493.595	0.31
493.794	0.31
493.992	0.34
494.19	0.32
494.388	0.31
494.587	0.28
494.785	0.3
494.983	0.25
495.181	0.31
495.379	0.27
495.578	0.27
495.776	0.28
495.974	0.28
496.172	0.26
496.37	0.25
496.568	0.23
496.766	0.23
496.964	0.27
497.162	0.26
497.36	0.22
497.558	0.27
497.756	0.24
497.954	0.25
498.152	0.22
498.35	0.24
498.548	0.22
498.746	0.23
498.944	0.2
499.142	0.2
499.34	0.2
499.538	0.2
499.736	0.16
499.933	0.22
500.131	0.23
500.329	0.21
500.527	0.25
500.725	0.22
500.922	0.21
501.12	0.2
501.318	0.18
501.516	0.15
501.713	0.22
501.911	0.15
502.109	0.15
502.306	0.17
502.504	0.15
502.701	0.13
502.899	0.16
503.097	0.21
503.294	0.14
503.492	0.15
503.689	0.16
503.887	0.18
504.084	0.2
504.282	0.16
504.479	0.1
504.677	0.18
504.874	0.13
505.072	0.15
505.269	0.15
505.466	0.16
505.664	0.17
505.861	0.11
506.059	0.12
506.256	0.15
506.453	0.13
506.651	0.19
506.848	0.17
507.045	0.16
507.242	0.15
507.44	0.15
507.637	0.12
507.834	0.12
508.031	0.13
508.229	0.09
508.426	0.12
508.623	0.13
508.82	0.11
509.017	0.1
509.214	0.08
509.411	0.09
509.608	0.06
509.805	0.12
510.003	0.11
510.2	0.1
510.397	0.15
510.594	0.09
510.791	0.07
510.988	0.1
511.184	0.15
511.381	0.09
511.578	0.08
511.775	0.15
511.972	0.1
512.169	0.11
512.366	0.09
512.563	0.09
512.76	0.09
512.956	0.13
513.153	0.06
513.35	0.12
513.547	0.08
513.744	0.07
513.94	0.06
514.137	0.1
514.334	0.1
514.53	0.11
514.727	0.08
514.924	0.16
515.12	0.08
515.317	0.06
515.514	0.05
515.71	0.05
515.907	0.07
516.103	0.1
516.3	0.09
516.497	0.11
516.693	0.12
516.89	0.07
517.086	0.1
517.283	0.11
517.479	0.11
517.676	0.08
517.872	0.08
518.068	0.09
518.265	0.08
518.461	0.08
518.658	0.07
518.854	0.09
519.05	0.06
519.247	0.08
519.443	0.11
519.639	0.1
519.836	0.08
520.032	0.09
520.228	0.08
520.424	0.13
520.621	0.09
520.817	0.09
521.013	0.09
521.209	0.09
521.405	0.12
521.601	0.08
521.798	0.07
521.994	0.12
522.19	0.06
522.386	0.02
522.582	0.08
522.778	0.07
522.974	0.05
523.17	0.09
523.366	0.09
523.562	0.1
523.758	0.07
523.954	0.05
524.15	0.07
524.346	0.09
524.542	0.05
524.738	0.06
524.934	0.07
525.129	0.04
525.325	0.08
525.521	0.08
525.717	0.08
525.913	0.07
526.109	0.07
526.304	0.06
526.5	0.07
526.696	0.11
526.892	0.07
527.087	0.07
527.283	0.06
527.479	0.09
527.674	0.06
527.87	0.06
528.066	0.08
528.261	0.1
528.457	0.07
528.653	0.05
528.848	0.05
529.044	0.08
529.239	0.04
529.435	0.08
529.63	0.05
529.826	0.11
530.021	0.08
530.217	0.11
530.412	0.05
530.608	0.06
530.803	0.07
530.999	0.06
531.194	0.03
531.389	0.08
531.585	-0
531.78	0.08
531.975	0.07
532.171	0.07
532.366	0.07
532.561	0.07
532.757	0.06
532.952	0.06
533.147	0.1
533.342	0.05
533.538	0.03
533.733	0.08
533.928	0.06
534.123	0.06
534.318	0.04
534.513	0.05
534.709	0.07
534.904	0.04
535.099	0.05
535.294	0.07
535.489	0.06
535.684	0.05
535.879	0.02
536.074	0.07
536.269	0.04
536.464	0.06
536.659	0.04
536.854	0.07
537.049	0.08
537.244	0.08
537.439	0.06
537.634	0.1
537.828	0.08
538.023	0.07
538.218	0.02
538.413	0.05
538.608	0.02
538.803	0.09
538.997	0.02
539.192	0.07
539.387	0.08
539.582	0.06
539.776	0.07
539.971	0.06
540.166	0.06
540.36	0.02
540.555	0.05
540.75	0.05
540.944	0.05
541.139	0
541.334	0.04
541.528	0.06
541.723	0.06
541.917	0.02
542.112	0.01
542.306	0.05
542.501	0.05
542.695	0.05
542.89	0.05
543.084	0.05
543.279	0.06
543.473	0.04
543.668	0.06
543.862	0.05
544.056	0.06
544.251	0.04
544.445	0.06
544.64	0.05
544.834	0.02
545.028	0.03
545.222	0.05
545.417	0.06
545.611	0.05
545.805	0.04
546	0.01
546.194	0.06
546.388	0.02
546.582	0.04
546.776	0.04
546.97	0.05
547.165	0.07
547.359	0.07
547.553	0.03
547.747	0.06
547.941	0.04
548.135	0.05
548.329	0.06
548.523	0.07
548.717	0.03
548.911	0.04
549.105	0.03
549.299	0.05
549.493	0.07
549.687	0.06
549.881	0.06
550.075	0.05
550.269	0.01
550.463	0.07
550.657	0.04
550.85	0.04
551.044	0.03
551.238	0.05
551.432	0.04
551.626	0.03
551.82	0.06
552.013	0.03
552.207	0.07
552.401	0.06
552.594	0.06
552.788	0.02
552.982	0.04
553.176	0.04
553.369	0.05
553.563	0.07
553.756	0
553.95	0.02
554.144	0.05
554.337	0.07
554.531	0.05
554.724	0.06
554.918	0.04
555.111	0.06
555.305	0.06
555.498	0.1
555.692	0.06
555.885	0.04
556.079	0.06
556.272	0.02
556.466	0.07
556.659	0.05
556.852	0.04
557.046	0.03
557.239	0.09
557.432	0.02
557.626	0.02
557.819	0.06
558.012	0.07
558.206	0.07
558.399	0.04
558.592	0.06
558.785	0.04
558.979	0.07
559.172	0.06
559.365	0.07
559.558	0.04
559.751	0.06
559.944	0.04
560.138	0.01
560.331	0.05
560.524	0.05
560.717	0.05
560.91	0.04
561.103	0.06
561.296	0.08
561.489	0.06
561.682	0.04
561.875	0.09
562.068	0.06
562.261	0.06
562.454	0.1
562.647	0.06
562.84	0.06
563.032	0.05
563.225	0.07
563.418	0.04
563.611	0.02
563.804	0.06
563.997	-0
564.19	-0.01
564.382	0.05
564.575	0.04
564.768	0.04
564.961	0.03
565.153	0.04
565.346	0.07
565.539	0.06
565.731	0.06
565.924	0.08
566.117	0.07
566.309	0.04
566.502	0.02
566.695	0.02
566.887	0.05
567.08	0.03
567.272	0.05
567.465	0.02
567.657	0.04
567.85	0.05
568.042	0.05
568.235	0.09
568.427	0.03
568.62	0.05
568.812	0.06
569.005	0.05
569.197	0.02
569.389	0.03
569.582	0.07
569.774	0.05
569.966	0.02
570.159	-0.01
570.351	0.04
570.543	0.02
570.736	0.03
570.928	0.01
571.12	0.05
571.312	0.03
571.505	0.03
571.697	0.08
571.889	0.01
572.081	0.04
572.273	0.03
572.465	0.05
572.658	0.03
572.85	0.04
573.042	0.01
573.234	0.03
573.426	0.08
573.618	0
573.81	0.05
574.002	0.07
574.194	0.08
574.386	0.01
574.578	-0.01
574.77	0.02
574.962	0.04
575.154	0.01
575.346	0.03
575.538	0.04
575.729	0.04
575.921	0.02
576.113	0.03
576.305	0.07
576.497	0.02
576.689	0.03
576.88	0.01
577.072	0.05
577.264	0.04
577.456	0.03
577.647	-0.03
577.839	0.04
578.031	0.08
578.223	-0
578.414	-0
578.606	0.05
578.798	0.04
578.989	0.02
579.181	0.05
579.372	0.03
579.564	0.04
579.755	0.03
579.947	0.03
580.139	0.05
580.33	-0.02
580.522	0.03
580.713	-0.03
580.905	0.03
581.096	0.08
581.287	0.05
581.479	0.02
581.67	0.04
581.862	0.06
582.053	0.01
582.244	-0.02
582.436	0.02
582.627	0.07
582.818	0.04
583.01	0.01
583.201	0.06
583.392	0.07
583.583	0.04
583.775	0.02
583.966	0.03
584.157	0.03
584.348	0.01
584.54	-0.01
584.731	0.06
584.922	0.03
585.113	0.03
585.304	0.03
585.495	0.05
585.686	0.04
585.877	0.06
586.068	0.04
586.259	0.04
586.45	0.06
586.641	0.02
586.832	-0
587.023	0.05
587.214	0.07
587.405	0.03
587.596	0
587.787	0.08
587.978	0.05
588.169	-0
588.36	0
588.551	0.04
588.742	0.02
588.932	0.04
589.123	0.01
589.314	0.09
589.505	0.07
589.696	0.03
589.886	-0.01
590.077	-0.03
590.268	0.03
590.458	-0
590.649	-0.01
590.84	0.08
591.03	0.02
591.221	0.01
591.412	0
591.602	0.06
591.793	0.04
591.984	-0.02
592.174	0.04
592.365	0.1
592.555	0
592.746	0.05
592.936	0.04
593.127	0.04
593.317	0.04
593.508	0
593.698	0.02
593.889	0.05
594.079	0.05
594.269	-0
594.46	0.04
594.65	0.02
594.84	0.02
595.031	0.03
595.221	-0.01
595.411	-0.01
595.602	0.05
595.792	0.03
595.982	0
596.172	0.1
596.363	0.05
596.553	0.02
596.743	0.05
596.933	0.02
597.123	0.07
597.314	-0
597.504	0.02
597.694	0.07
597.884	0.06
598.074	0.04
598.264	0.04
598.454	0.05
598.644	0.03
598.834	0.03
599.024	-0.02
599.214	0.01
599.404	0.06
599.594	0.01
599.784	0.01
599.974	0.07
600.164	0.05
600.354	0.01
600.544	-0.03
600.734	0.03
600.924	0.06
601.114	0.04
601.303	0.03
601.493	0.06
601.683	0.01
601.873	0.05
602.063	-0.02
602.252	0.09
602.442	-0.02
602.632	0
602.821	0
603.011	0.08
603.201	0.02
603.39	0.01
603.58	0.01
603.77	0.04
603.959	0.06
604.149	0.05
604.339	-0
604.528	0.03
604.718	0.06
604.907	0.04
605.097	0.02
605.286	-0
605.476	0.07
605.665	0.06
605.855	0.01
606.044	0.07
606.234	0.05
606.423	0.02
606.612	0
606.802	0.05
606.991	0.03
607.181	0.03
607.37	-0
607.559	0.05
607.749	0.01
607.938	0.02
608.127	0.01
608.316	0.02
608.506	0.05
608.695	0.03
608.884	-0.01
609.073	0.03
609.263	0.04
609.452	0.05
609.641	0.05
609.83	0.01
610.019	0.03
610.208	0.01
610.397	0.03
610.586	0.07
610.775	0
610.965	0.01
611.154	-0
611.343	0.03
611.532	0.05
611.721	0.01
611.91	0.01
612.099	0.04
612.287	0.02
612.476	-0.02
612.665	0.02
612.854	0.04
613.043	0.05
613.232	0.02
613.421	-0.05
613.61	0.01
613.798	-0.01
613.987	0.05
614.176	0.02
614.365	0.04
614.554	0.04
614.742	0.04
614.931	-0
615.12	0.05
615.309	0.03
615.497	0.05
615.686	-0.01
615.875	0.02
616.063	0.05
616.252	-0
616.44	0
616.629	0.01
616.818	0.04
617.006	-0
617.195	0.03
617.383	0.04
617.572	0.02
617.76	-0
617.949	0.02
618.137	0.02
618.326	0.06
618.514	-0.01
618.703	0.01
618.891	0.09
619.079	-0.01
619.268	0.05
619.456	-0.01
619.644	0.08
619.833	0.03
620.021	0.03
620.209	-0.02
620.398	0.04
620.586	0.04
620.774	0.03
620.962	0.01
621.151	0.08
621.339	0.03
621.527	-0.01
621.715	-0
621.903	-0.01
622.092	-0.01
622.28	0.03
622.468	0.04
622.656	0
622.844	0.05
623.032	-0
623.22	-0.04
623.408	0.07
623.596	0.06
623.784	0.05
623.972	-0.01
624.16	0.03
624.348	0.08
624.536	0.01
624.724	-0.03
624.912	0.09
625.1	0.06
625.288	-0
625.476	0.01
625.664	0.07
625.851	0
626.039	0.05
626.227	0.04
626.415	0.06
626.603	-0.02
626.79	0
626.978	0
627.166	0.05
627.354	0.02
627.541	-0
627.729	-0.05
627.917	0.07
628.104	0.04
628.292	0.05
628.48	0.02
628.667	0.03
628.855	0.05
629.042	0.03
629.23	0.03
629.418	0.02
629.605	0.04
629.793	0
629.98	-0.03
630.168	0.04
630.355	0.02
630.543	0.02
630.73	0.01
630.917	0.03
631.105	0.1
631.292	-0.01
631.48	0.01
631.667	0.12
631.854	0.02
632.042	0.01
632.229	-0
632.416	0.01
632.604	0.02
632.791	-0.02
632.978	0.03
633.165	0
633.353	0.08
633.54	0.03
633.727	-0.03
633.914	-0.01
634.101	-0.07
634.289	0.09
634.476	-0.01
634.663	-0.01
634.85	0.06
635.037	-0.04
635.224	-0.03
635.411	0.07
635.598	0.03
635.785	-0
635.972	0.02
636.159	0.06
636.346	-0.01
636.533	0.02
636.72	-0.01
636.907	0.02
637.094	0.05
637.281	0.02
637.468	0.08
637.655	-0.01
637.842	0.06
638.029	-0
638.215	0.06
638.402	0.03
638.589	0.01
638.776	-0.01
638.963	-0.01
639.149	0.02
639.336	0.09
639.523	0.01
639.709	0.04
639.896	0
640.083	0.1
640.27	0.03
640.456	0.01
640.643	0.04
640.829	0.01
641.016	0.01
641.203	-0.01
641.389	0.07
641.576	0.04
641.762	0.04
641.949	-0.01
642.135	0.06
642.322	0.04
642.508	-0.04
642.695	0.02
642.881	0.02
643.068	0.02
643.254	0.03
643.441	0.04
643.627	0.03
643.813	0.02
644	0.06
644.186	-0.03
644.372	0.01
644.559	0.07
644.745	0.02
644.931	-0.01
645.118	0.04
645.304	0.02
645.49	0.02
645.676	0.02
645.862	0
646.049	0.09
646.235	0.04
646.421	0.08
646.607	0.09
646.793	0.01
646.979	0.02
647.165	0.07
647.352	0.05
647.538	0.08
647.724	0.04
647.91	0.02
648.096	0.05
648.282	0.08
648.468	0.02
648.654	0.02
648.84	0.03
649.026	0.01
649.212	0.01
649.397	-0.01
649.583	0.01
649.769	0.09
649.955	0.06
650.141	0.04
650.327	0.07
650.513	-0.01
650.698	0.03
650.884	-0.04
651.07	0.05
651.256	0.05
651.442	0.02
651.627	0
651.813	0.05
651.999	0.03
652.184	0.03
652.37	0.03
652.556	0.02
652.741	0.11
652.927	-0.03
653.113	0.01
653.298	0.05
653.484	0.01
653.669	-0.04
653.855	0.02
654.04	0.05
654.226	0.02
654.412	0.02
654.597	-0.02
654.782	0.01
654.968	0.08
655.153	0.02
655.339	-0.02
655.524	-0.04
655.71	0.02
655.895	0.01
656.08	0.04
656.266	0.07
656.451	0.04
656.636	-0.01
656.822	0.05
657.007	0.01
657.192	0.01
657.378	0
657.563	0.02
657.748	0.03
657.933	0.04
658.118	0.01
658.304	0
658.489	0.04
658.674	0.03
658.859	-0.02
659.044	0
659.229	0.02
659.414	-0.05
659.599	0.05
659.785	-0.02
659.97	-0
660.155	0.04
660.34	0.05
660.525	0
660.71	0.02
660.895	0.08
661.08	0.02
661.264	0.01
661.449	0.09
661.634	0.08
661.819	0.06
662.004	0.01
662.189	-0.06
662.374	0.01
662.559	-0.03
662.743	-0.05
662.928	0.06
663.113	0.01
663.298	-0.06
663.483	-0.01
663.667	0.05
663.852	-0.05
664.037	0.05
664.221	-0.06
664.406	0.1
664.591	0.06
664.775	0.04
664.96	0.01
665.145	0.05
665.329	0.03
665.514	-0.02
665.698	0
665.883	-0.07
666.068	0.12
666.252	0.02
666.437	-0.03
666.621	0.02
666.806	0.06
666.99	0.03
667.174	-0.02
667.359	0.09
667.543	0.04
667.728	0.03
667.912	-0.05
668.096	0.05
668.281	0.01
668.465	0.01
668.649	0.04
668.834	-0.03
669.018	0.01
669.202	-0.02
669.387	-0.02
669.571	0.07
669.755	0.01
669.939	0
670.124	0.03
670.308	0.06
670.492	0.04
670.676	0.06
670.86	-0.01
671.044	0
671.228	0.06
671.413	-0.01
671.597	-0.04
671.781	-0
671.965	0.04
672.149	0.02
672.333	0.03
672.517	0.02
672.701	0.05
672.885	-0
673.069	-0.03
673.253	0.09
673.437	-0.02
673.621	-0.03
673.804	0.03
673.988	0.05
674.172	0.01
674.356	-0.01
674.54	0.04
674.724	0.12
674.908	0
675.091	0.03
675.275	0.02
675.459	0.05
675.643	0.02
675.826	0.04
676.01	0.02
676.194	-0.01
676.377	0.05
676.561	0.05
676.745	0.03
676.928	0.05
677.112	0.08
677.296	-0.03
677.479	-0.01
677.663	0.04
677.846	0.03
678.03	0.02
678.213	0.03
678.397	0.01
678.58	-0.02
678.764	0.06
678.947	0.01
679.131	0.01
679.314	0.07
679.498	0.01
679.681	0.02
679.865	0.06
680.048	0.02
680.231	0.04
680.415	0.02
680.598	0.02
680.781	-0.01
680.965	0.02
681.148	0.03
681.331	0.01
681.514	0.07
681.698	0.03
681.881	0.01
682.064	0.03
682.247	0.03
682.43	-0.03
682.614	0.02
682.797	0.04
682.98	0.04
683.163	-0.01
683.346	0.03
683.529	0.01
683.712	-0.01
683.895	0.06
684.078	-0.04
684.261	0
684.444	0.01
684.627	0.05
684.81	0.01
684.993	0.04
685.176	0.08
685.359	-0.03
685.542	0.01
685.725	0.06
685.908	0.01
686.091	-0.02
686.274	0.03
686.457	0.05
686.639	-0
686.822	0.05
687.005	0.06
687.188	0.08
687.371	0.1
687.553	0.07
687.736	0.03
687.919	0.11
688.102	0.14
688.284	0.02
688.467	0.04
688.65	0.01
688.832	0.01
689.015	-0
689.197	-0.05
689.38	0.15
689.563	0.14
689.745	-0.03
689.928	-0.04
690.11	-0
690.293	-0
690.475	-0.03
690.658	0.01
690.84	0.02
691.023	0.01
691.205	0
691.388	0.04
691.57	0.14
691.752	0.07
691.935	-0.06
692.117	0
692.3	-0
692.482	0.03
692.664	0.01
692.847	0.04
693.029	0.13
693.211	0.05
693.393	0
693.576	0.02
693.758	0.05
693.94	0.01
694.122	0
694.304	0.02
694.487	0.01
694.669	0.06
694.851	-0.05
695.033	0.05
695.215	-0.04
695.397	-0.02
695.579	0.02
695.761	-0.01
695.943	-0.04
696.125	0.09
696.308	0
696.49	-0.02
696.671	0.11
696.853	-0
697.035	0.16
697.217	0.06
697.399	0.04
697.581	-0.01
697.763	0.04
697.945	-0.02
698.127	0.09
698.309	0.1
698.491	0.08
698.672	0.08
698.854	0.07
699.036	0.1
699.218	0.01
699.399	0.1
699.581	0.14
699.763	-0
699.945	-0.01
700.126	0.03
700.308	-0
700.49	0.02
700.671	-0.04
700.853	0.03
701.035	0.01
701.216	0.02
701.398	-0.03
701.579	0.04
701.761	0.07
701.943	0.04
702.124	-0.04
702.306	-0.01
702.487	0.13
702.669	0
702.85	-0.01
703.031	-0
703.213	0.1
703.394	0.1
703.576	-0
703.757	0.11
703.938	0.02
704.12	0.18
704.301	-0.01
704.483	0.04
704.664	0.06
704.845	0.12
705.026	0.1
705.208	0
705.389	0.05
705.57	0.07
705.751	0.02
705.933	0.01
706.114	0.13
706.295	0.05
706.476	-0.01
706.657	0.13
706.838	0.05
707.02	0.12
707.201	0.01
707.382	-0.02
707.563	0.06
707.744	-0.02
707.925	0
708.106	-0.07
708.287	0.04
708.468	0.11
708.649	0.08
708.83	0.08
709.011	-0.01
709.192	0.07
709.373	-0.03
709.554	0.06
709.734	0.14
709.915	0.08
710.096	-0.02
710.277	-0.07
710.458	0.07
710.639	0.06
710.819	-0.05
711	0.02
711.181	0.06
711.362	0.12
711.542	0.04
711.723	0.01
711.904	0.11
712.085	0.1
712.265	0.03
712.446	-0.08
712.627	-0.07
712.807	-0.02
712.988	0.03
713.168	-0.1
713.349	0.06
713.53	-0.05
713.71	-0.02
713.891	-0.07
714.071	0.14
714.252	0.01
714.432	0.05
714.613	-0.05
714.793	0.04
714.974	0.09
715.154	0.13
715.334	0.15
715.515	0.11
715.695	-0.09
715.876	0.06
716.056	-0
716.236	0.03
716.417	0.04
716.597	0.04
716.777	0.19
716.957	0.01
717.138	0.03
717.318	0.01
717.498	-0.06
717.678	0.08
717.859	0.02
718.039	-0.03
718.219	0.11
718.399	0.08
718.579	-0.01
718.759	0.04
718.939	0.12
719.12	0.03
719.3	0.05
719.48	-0.05
719.66	-0.12
719.84	0.08
720.02	0.11
720.2	-0.04
720.38	0.14
720.56	0.14
720.74	0.05
720.92	0.01
721.1	0.11
721.279	0.12
721.459	0.09
721.639	-0.02
721.819	0.03
721.999	0.03
722.179	0.06
722.359	-0.08
722.538	0.03
722.718	0.05
722.898	0.03
723.078	-0.01
723.257	0.02
723.437	0.02
723.617	0.04
723.797	0.04
723.976	0.03
724.156	0.01
724.336	0.13
724.515	0.2
724.695	-0.07
724.874	0.01
725.054	0.09
725.234	-0.09
725.413	0.07
725.593	0.06
725.772	-0.03
725.952	0.04
726.131	-0.04
726.311	0.05
726.49	0.06
726.67	-0.07
726.849	-0.02
727.028	0.08
727.208	0.03
727.387	0.03
727.567	-0.07
727.746	0.01
727.925	-0.04
728.105	-0.1
728.284	-0.04
728.463	-0.04
728.643	0.08
728.822	-0.1
729.001	-0.06
729.18	0.14
729.359	0.11
729.539	0.08
729.718	-0.01
729.897	0.11
730.076	0.03
730.255	-0.12
730.434	0.02
730.614	0.13
730.793	0.13
730.972	0
731.151	0.05
731.33	0.09
731.509	0.13
731.688	0.03
731.867	0.05
732.046	-0.05
732.225	0.24
732.404	-0.02
732.583	-0.06
732.762	0.03
732.941	0.07
733.12	0.09
733.298	-0.03
733.477	0.11
733.656	0.14
733.835	-0.05
734.014	0.05
734.193	0.11
734.371	0.1
734.55	0.02
734.729	-0.15
734.908	0.06
735.086	0.05
735.265	0.18
735.444	-0.08
735.623	-0.13
735.801	0.06
735.98	0.05
736.159	0.02
736.337	0.14
736.516	0.12
736.694	0.02
736.873	0.02
737.052	0.19
737.23	0.24
737.409	-0.1
737.587	0.05
737.766	-0.14
737.944	0.02
738.123	0.14
738.301	0.11
738.479	-0.1
738.658	0.19
738.836	-0.16
739.015	0.15
739.193	0.14
739.371	-0.06
739.55	-0.08
739.728	0.04
739.906	0.15
740.085	0.13
740.263	0.14
740.441	-0.09
740.62	0.22
740.798	0.15
740.976	-0.08
741.154	0.04
741.332	0.25
741.511	0.02
741.689	0.04
741.867	0.11
742.045	-0.04
742.223	-0.08
742.401	0.04
742.579	-0.02
742.757	0.04
742.935	-0.08
743.114	-0
743.292	0.08
743.47	-0.1
743.648	0.09
743.826	0.05
744.004	0.11
744.181	0.18
744.359	-0.05
744.537	0.13
744.715	0.02
744.893	0.02
745.071	0.01
745.249	0.06
745.427	0.09
745.605	0.18
745.782	0.12
745.96	0.11
746.138	0.08
746.316	0.23
746.493	-0.04
746.671	0.12
746.849	0.03
747.027	0.15
747.204	0.05
747.382	0.18
747.56	-0.12
747.737	0.12
747.915	-0.07
748.093	0.1
748.27	0.03
748.448	0.01
748.625	-0.18
748.803	-0.02
748.98	-0.02
749.158	0.1
749.335	0.05
749.513	0.02
749.69	0.01
749.868	0.09
750.045	0.08
750.223	-0.07
750.4	-0.16
750.578	0.27
750.755	0.12
750.932	0.02
751.11	0.12
751.287	-0.09
751.464	0.06
751.642	-0.05
751.819	0.09
751.996	-0.01
752.173	0.12
752.351	-0.07
752.528	0.06
752.705	-0.09
752.882	-0.15
753.06	-0.01
753.237	0.17
753.414	0.33
753.591	0.3
753.768	0.09
753.945	0.03
754.122	-0.06
754.299	0.18
754.476	0
754.654	0.01
754.831	0.17
755.008	0.23
755.185	0.04
755.362	-0.07
755.539	0.12
755.716	-0.11
755.892	0.05
756.069	0.12
756.246	-0.02
756.423	0.03
756.6	0.2
756.777	0.04
756.954	0.09
757.131	0.01
757.307	-0.06
757.484	-0.15
757.661	0.02
757.838	0.18
758.015	-0.08
758.191	0.18
758.368	0.13
758.545	0.12
758.721	0.18
758.898	-0.1
759.075	0.01
759.251	0.12
759.428	0.18
759.605	-0
759.781	0.05
759.958	0.05
760.134	-0.04
760.311	-0.09
760.488	0.21
760.664	0.1
760.841	-0.06
761.017	0.01
761.194	0.09
761.37	0.18
761.547	0.08
761.723	0.07
761.899	0.26
762.076	0.01
762.252	0.07
762.429	-0.07
762.605	0.22
762.781	0.12
762.958	0.11
763.134	-0.06
763.31	-0.05
763.486	0.14
763.663	-0.08
763.839	0.09
764.015	-0.2
764.191	-0.03
764.368	0.01
764.544	-0.1
764.72	0.05
764.896	0.08
765.072	0.07
765.248	0.06
765.425	-0.06
765.601	-0.02
765.777	-0.07
765.953	-0.25
766.129	-0.04
766.305	-0.08
766.481	0.03
766.657	0.13
766.833	0.31
767.009	0.01
767.185	-0.03
767.361	0.06
767.537	-0.07
767.713	0.1
767.889	-0.16
768.065	0.17
768.24	-0.09
768.416	0.14
768.592	-0.11
768.768	-0.07
768.944	0.2
769.12	-0.2
769.295	-0.07
769.471	0.04
769.647	-0.02
769.823	0.15
769.998	-0.17
770.174	0.01
770.35	0.36
770.525	0.42
770.701	0.18
770.877	-0.03
771.052	-0.1
771.228	0.16
771.403	0
771.579	0.08
771.755	0.29
771.93	-0.09
772.106	-0.1
772.281	-0.09
772.457	0.03
772.632	0.07
772.808	0.02
772.983	-0
773.159	-0.16
773.334	0.27
773.509	0.09
773.685	0.02
773.86	0.48
774.036	0.3
774.211	0.03
774.386	-0.02
774.562	0.09
774.737	0.01
774.912	-0.1
775.087	0.04
775.263	0.05
775.438	0.1
775.613	-0.06
775.788	0.06
775.964	0.16
776.139	0.54
776.314	-0.11
776.489	0.07
776.664	0.01
776.839	-0.11
777.014	0.13
777.19	0.15
777.365	0.27
777.54	0.2
777.715	-0.01
777.89	-0.1
778.065	-0.02
778.24	-0.04
778.415	0.24
778.59	-0.08
778.765	-0.16
778.94	0.1
779.115	-0.03
779.289	0.1
779.464	0.02
779.639	0.12
779.814	-0.01
779.989	-0.16
780.164	0.22
780.339	0.15
780.513	-0.02
780.688	-0.15
780.863	0.13
781.038	0.12
781.212	0.04
781.387	0.05
781.562	0.4
781.737	-0.05
781.911	0.13
782.086	-0.14
782.261	0
782.435	0.34
782.61	-0.18
782.784	-0.12
782.959	0.36
783.134	-0.14
783.308	-0.13
783.483	-0.04
783.657	0.65
783.832	0.24
784.006	-0.28
784.181	0.03
784.355	0.39
784.53	-0.1
784.704	-0.18
784.878	0.25
785.053	0.16
785.227	0.45
785.402	0.56
785.576	-0.15
785.75	-0.14
785.925	-0.08
786.099	0.09
786.273	0.16
786.448	0.05
786.622	0.12
786.796	-0.07
786.97	-0.2
787.145	0.54
787.319	-0.22
787.493	0
787.667	-0.09
787.841	0.27
788.015	0.23
788.19	-0.13
788.364	0.1
788.538	0.28
788.712	0.19
788.886	0.03
789.06	0.25
789.234	0.44
789.408	-0.3
789.582	-0.16
789.756	0.02
789.93	-0.13
790.104	-0.05
790.278	0.05
790.452	-0.24
790.626	0.05
790.8	0.01
790.973	0.16
791.147	0.35
791.321	0.28
791.495	0.24
791.669	0.23
791.843	0.13
792.016	-0.07
792.19	0.53
792.364	-0.16
792.538	0.55
792.711	0.32
792.885	-0.08
793.059	-0.26
793.233	-0.09
793.406	0.12
793.58	0.32
793.754	0.12
793.927	-0.16
794.101	0.25
794.274	0.08
794.448	0.39
794.622	-0.01
794.795	0.55
794.969	-0.2
795.142	0.29
795.316	-0.22
795.489	-0.26
795.663	0.29
795.836	0.06
796.009	-0.26
796.183	0.15
796.356	0.28
796.53	0.3
796.703	-0.01
796.876	0.6
797.05	0.13
797.223	0.03
797.396	0.06
797.57	0.16
797.743	0.49
797.916	0.07
798.09	-0.15
798.263	0.33
798.436	0.05
798.609	0.07
798.782	0.06
798.956	0.21
799.129	0.07
799.302	0.08
799.475	-0.22
799.648	-0.09
799.821	-0.14
799.994	0.13
800.167	-0.35
800.34	0.18
800.514	0.19
800.687	-0.08
800.86	-0.2
801.033	0
801.206	-0.06
801.379	-0.34
801.551	0.43
801.724	0.41
801.897	0.24
802.07	0
802.243	-0.46
802.416	-0.16
802.589	0.08
802.762	0.02
802.935	0.08
803.107	0.4
803.28	0.48
803.453	0.59
803.626	-0.29
803.798	0.08
803.971	0.2
804.144	0.27
804.317	-0.12
804.489	0.39
804.662	-0.14
804.835	0.36
805.007	-0.18
805.18	0.24
805.353	-0.04
805.525	0.09
805.698	-0.18
805.87	0.34
806.043	0.26
806.215	-0.32
806.388	-0.3
806.56	0.12
806.733	0.23
806.905	-0.09
807.078	-0.39
807.25	-0.23
807.423	0.44
807.595	0.29
807.768	-0.03
807.94	0.29
808.112	-0.02
808.285	0.19
808.457	-0.4
808.629	0.24
808.802	0.23
808.974	-0.06
809.146	-0.4
809.318	-0.58
809.491	0.03
809.663	0.29
809.835	0
810.007	0.13
810.18	0.15
810.352	-0.43
810.524	-0.27
810.696	0.3
810.868	0.72
811.04	-0.24
811.212	-0.2
811.384	0.21
811.556	-0.12
811.728	0.16
811.901	0.88
812.073	-0.03
812.245	0.47
812.417	-0.24
812.589	-0.47
812.76	0.03
812.932	0.67
813.104	0.53
813.276	-0.15
813.448	0.31
813.62	0.03
813.792	-0.12
813.964	0
814.136	0.15
814.307	-0.19
814.479	-0.19
814.651	-0.07
814.823	0.9
814.995	-0.19
815.166	-0.06
815.338	-0.37
815.51	-0.46
815.681	0.65
815.853	0.03
816.025	-0.22
816.196	0.41
816.368	0.56
816.54	-0.19
816.711	-0.29
816.883	0.57
817.054	0.6
817.226	-0.68
817.398	0.13
817.569	-0.95
817.741	-0.06
817.912	-0.01
818.084	-0.05
818.255	0.04
818.426	-0.32
818.598	-0.23
818.769	-0.03
818.941	0.32
819.112	0.06
819.283	0.53
819.455	-0.5
819.626	0.12
819.798	0.2
819.969	-0.06
820.14	-0.02
820.311	-0.15
820.483	0.1
820.654	0.39
820.825	0.02
820.996	0.15
821.168	-0.05
821.339	0.06
821.51	-0.55
821.681	-0.19
821.852	0.25
822.023	-0.06
822.195	-0.07
822.366	0.73
822.537	0.15
822.708	0.29
822.879	-0.51
823.05	0.67
823.221	-0.24
823.392	0.5
823.563	0.01
823.734	0.33
823.905	0.22
824.076	-0.4
824.247	-0.45
824.418	-0.14
824.589	0.5
824.759	-0.43
824.93	0.28
825.101	-0.88
825.272	0.64
825.443	0.53
825.614	0.24
825.784	-0.87
825.955	1.4
826.126	0.08
826.297	0.65
826.467	0.81
826.638	0.42
826.809	-0.26
826.98	-0.35
827.15	0.31
827.321	-0.05
827.492	0.8
827.662	0.08
827.833	1.25
828.003	0.68
828.174	-0.05
828.345	-0.8
828.515	0.83
828.686	-0.01
828.856	0.12
829.027	-0.55
829.197	0.29
829.368	0.79
829.538	0.19
829.709	-0.82
829.879	-0.01
830.049	-0.18
830.22	-0.17
830.39	0.08
830.56	0.37
830.731	0.15
830.901	-0.67
831.072	-0.02
831.242	0.09
831.412	0.25
831.582	-0.25
831.753	-0.78
831.923	1.08
832.093	0.1
832.263	-0.33
832.434	-0.43
832.604	-0.24
832.774	0.4
832.944	-0.1
833.114	-0.17
833.284	0.25
833.454	-0.01
833.624	-0.12
833.795	-0.31
833.965	0.68
834.135	0.44
834.305	-0.93
834.475	-0.93
834.645	0.12
834.815	-0.27
834.985	-0.22
835.155	-0.69
835.325	0.12
835.494	0.46
835.664	-0.05
835.834	-0.66
836.004	-0.06
836.174	0.52
836.344	-0.35
836.514	-0.99
836.684	-0.91
836.853	0.59
837.023	-0.14
837.193	-0.27
837.363	1.19
837.532	0.34
837.702	0.15
837.872	-0.47
838.041	-0
838.211	1.72
838.381	-1.01
838.55	0.22
838.72	2.92
838.89	1.12
839.059	0.08
839.229	-0.6
839.398	1.56
839.568	-0.1
839.738	-0.23
839.907	0.49
840.077	0.4
840.246	-0.9
840.416	-0.43
840.585	-0.27
840.755	0.58
840.924	1.27
841.093	-0.71
841.263	-0.04
841.432	0.09
841.602	0.19
841.771	-0.2
841.94	0.38
842.11	1.39
842.279	1.51
842.448	-0.24
842.617	-0.98
842.787	1.2
842.956	-0.98
843.125	0.34
843.294	0.38
843.464	1.15
843.633	0
843.802	-1.01
843.971	-0.41
844.14	0.5
844.309	0.94
844.479	0.07
844.648	-1.19
844.817	-0.48
844.986	-0.28
845.155	-0.24
845.324	-0.55
845.493	0.22
845.662	-0.27
845.831	0.55
846	0.5
846.169	-0.15
846.338	1.81
846.507	0.69
846.676	0.27
846.844	0.1
847.013	0.66
847.182	-0.31
847.351	0.12
847.52	0.3
847.689	0.66
847.858	-1.09
848.026	0.06
848.195	-0.35
848.364	-0.31
848.533	-0.8
848.701	-0.83
848.87	0.3
849.039	1.93
849.207	0.5
849.376	1.84
849.545	1.56
849.713	-0.26
849.882	-0.51
850.051	-0.47
850.219	0.05
850.388	1.56
850.556	-1.57
850.725	-1.2
850.893	0.45
851.062	-0.47
851.23	1.48
851.399	-1.35
851.567	-0.39
851.736	0.03
851.904	-1.73
852.073	0.12
852.241	1.46
852.41	-0.81
852.578	-0.13
852.746	0.09
852.915	1.01
853.083	0.4
853.251	-0.83
853.42	-0.12
853.588	1.34
853.756	1.1
853.924	-0.43
854.093	0.29
854.261	0.3
854.429	-0.87
854.597	0.05
854.765	-0.57
854.934	0.64
855.102	1.78
855.27	0.16
855.438	-0.51
855.606	0.85
855.774	1.77
855.942	-1.7
856.11	-0.97
856.278	0.26
856.446	0.71
856.614	0.22
856.782	-1.28
856.95	1.78
857.118	-0.41
857.286	1.07
857.454	-0.71
857.622	1.06
857.79	-0.26
857.958	-0.65
858.126	0.19
858.294	-2.68
858.462	-0.1
858.629	-1.1
858.797	-1.09
858.965	0.44
859.133	0.12
859.301	0.02
859.468	0.27
859.636	0.46
859.804	1.59
859.971	0.62
860.139	-1.24
860.307	0.29
860.474	0.51
860.642	0.42
860.81	-1.2
860.977	-0.9
861.145	1.51
861.313	-0.46
861.48	0.85
861.648	0.72
861.815	-0.3
861.983	-2.1
862.15	-1.18
862.318	0
862.485	1.39
862.653	-1.28
862.82	-1.76
862.988	2.62
863.155	0.69
863.322	-0.18
863.49	-0.67
863.657	-0.58
863.824	1.85
863.992	0.5
864.159	-1.1
864.326	3.07
864.494	0.02
864.661	2.74
864.828	-1.62
864.996	2.23
865.163	1.57
865.33	-0.05
865.497	-1.55
865.664	-0.77
865.832	-2.48
865.999	-0.93
866.166	-0.33
866.333	-0.4
866.5	0.54
866.667	-0.66
866.834	0.41
867.001	1.02
867.168	-2.93
867.335	-0.14
867.502	-2.81
867.669	0.06
867.836	2.87
868.003	-1.3
868.17	-0.43
868.337	-1.79
868.504	3.57
868.671	-2.45
868.838	-0.04
869.005	1.16
869.172	2.47
869.339	0.21
869.505	-0.06
869.672	-0.48
869.839	2.07
870.006	-0.26
870.173	-3.21
870.339	1.44
870.506	2.63
870.673	-2.24
870.84	0.81
871.006	1.42
871.173	0.04
871.34	0.09
871.506	-1.45
871.673	1.08
871.839	-3.41
872.006	0.25
872.173	-0.24
872.339	0.29
872.506	2.41
872.672	-0.23
872.839	-1.66
873.005	0.47
873.172	2.92
873.338	1.59
873.505	0.01
873.671	0.22
873.838	0.43
874.004	-1.73
874.171	-1.52
874.337	0.49
874.503	-0.58
874.67	-1.08
874.836	2.59
875.002	2.18
875.169	2.09
875.335	-1.91
875.501	-0.41
875.668	2.15
875.834	-0.15
876	-1.77
876.166	1.72
876.332	1.14
876.499	3.42
876.665	-0.56
876.831	0.46
876.997	2.48
877.163	1.26
877.329	0.81
877.495	-0.25
877.662	1.07
877.828	1.03
877.994	0.17
878.16	-2.77
878.326	0.86
878.492	1.12
878.658	-0.99
878.824	1.77
878.99	0.45
879.156	-2.42
879.322	2.36
879.487	-1.66
879.653	0.64
879.819	0.42
879.985	-1.11
880.151	1.52
880.317	-0.09
880.483	1.65
880.648	0.83
880.814	-2.33
880.98	1.34
881.146	-2.41
881.312	-0.97
881.477	-0.52
881.643	2.09
881.809	1.59
881.974	1.44
882.14	-2.53
882.306	0.61
882.471	2.74
882.637	-2.59
882.803	1.21
882.968	2.27
883.134	3.24
883.299	-0.67
883.465	1.35
883.63	0.77
883.796	1.11
883.961	0.29
884.127	1.42
884.292	-4.17
884.458	-1.47
884.623	-1.47
