Data from Apollo_Calib_20240827__AbsoluteIrradiance__201__02-30-00-607.txt Node

Date: Wed Aug 28 02:30:00 BST 2024
User: biology
Spectrometer: FLMT08252
Trigger mode: 0
Integration Time (sec): 5.000000E-1
Scans to average: 5
Electric dark correction enabled: true
Nonlinearity correction enabled: false
Boxcar width: 0
XAxis mode: Wavelengths
Number of Pixels in Spectrum: 3648
>>>>>Begin Spectral Data<<<<<
179.588	-0
179.809	-0
180.03	-0
180.251	-0
180.473	-0
180.694	-0
180.915	0
181.136	-0
181.357	0
181.578	0
181.799	-0
182.02	-0
182.241	-0
182.462	-0
182.683	0
182.904	-0
183.125	-0
183.346	0
183.567	0
183.788	-0
184.009	-0
184.23	0
184.451	0
184.672	-0
184.892	-0
185.113	0
185.334	0
185.555	-0
185.776	-0
185.996	0
186.217	0
186.438	0
186.659	-0
186.879	0
187.1	0
187.321	-0
187.541	-0
187.762	0
187.983	0
188.203	-0
188.424	0
188.644	0
188.865	0
189.086	-0
189.306	0
189.527	0
189.747	0
189.968	-0
190.188	0
190.409	0
190.629	0
190.849	-0
191.07	-0
191.29	0
191.511	0
191.731	-0
191.951	-0
192.172	0
192.392	-0
192.612	0
192.833	-0
193.053	0
193.273	0
193.493	-0
193.714	-0
193.934	0
194.154	0
194.374	0
194.594	0
194.815	0
195.035	-0
195.255	0
195.475	-0
195.695	0
195.915	0
196.135	0
196.355	0
196.575	0
196.795	0
197.015	-0
197.235	-0
197.455	-0
197.675	0
197.895	-0
198.115	-0
198.335	0
198.555	0
198.775	0
198.995	0
199.214	0
199.434	0
199.654	-0
199.874	-0
200.094	1.33
200.313	-0.3
200.533	0.06
200.753	-0.52
200.973	1.4
201.192	1
201.412	-0.71
201.632	0.24
201.851	1.46
202.071	-0.64
202.291	-0.4
202.51	-0.45
202.73	0.48
202.95	0.07
203.169	-0.23
203.389	-0.22
203.608	0.1
203.828	-0.35
204.047	-0.19
204.267	0.17
204.486	0.35
204.706	0.45
204.925	0.33
205.145	-0.04
205.364	0.84
205.583	0.81
205.803	-0.17
206.022	-0.35
206.242	0.3
206.461	0.23
206.68	-0.22
206.9	0.24
207.119	0.66
207.338	0.76
207.557	-0.02
207.777	-0.25
207.996	-0.16
208.215	0.62
208.434	-0.24
208.654	-0.54
208.873	0.27
209.092	0.77
209.311	-0.12
209.53	-0.01
209.749	0.08
209.968	-0.07
210.187	-0.21
210.407	-0.47
210.626	-0.03
210.845	0.3
211.064	0.27
211.283	-0.25
211.502	0.23
211.721	0.14
211.94	0.09
212.159	0.28
212.377	0.34
212.596	0.57
212.815	0.13
213.034	0.18
213.253	0.35
213.472	0.41
213.691	-0.12
213.91	-0.19
214.128	-0.09
214.347	0.59
214.566	-0.14
214.785	-0.54
215.003	0.34
215.222	0.1
215.441	0.06
215.66	0.06
215.878	0.09
216.097	0.26
216.316	-0.11
216.534	-0.03
216.753	0.29
216.972	-0.04
217.19	0.12
217.409	-0.17
217.627	-0.06
217.846	-0.05
218.064	0.11
218.283	-0.05
218.501	0.58
218.72	0.3
218.938	-0.11
219.157	-0.17
219.375	0.35
219.594	0.07
219.812	-0.22
220.031	-0.24
220.249	0.46
220.467	0.28
220.686	0.1
220.904	-0.31
221.122	0.04
221.341	0.35
221.559	0.08
221.777	-0.15
221.995	-0.07
222.214	-0.04
222.432	0.1
222.65	0.15
222.868	0.1
223.086	0.03
223.305	0.15
223.523	0.07
223.741	0.36
223.959	-0.08
224.177	-0.06
224.395	-0.03
224.613	0.02
224.831	0.11
225.049	-0.13
225.267	-0.03
225.485	-0.02
225.703	0.22
225.921	0.01
226.139	-0.12
226.357	0.19
226.575	0.17
226.793	-0.14
227.011	0.72
227.229	0.24
227.447	0.3
227.665	-0
227.883	-0.26
228.1	0.12
228.318	-0.03
228.536	-0.29
228.754	-0.17
228.972	0.13
229.189	0.25
229.407	-0.04
229.625	0.03
229.843	0.14
230.06	0.22
230.278	-0.01
230.496	0.07
230.713	0.1
230.931	0.23
231.149	-0.05
231.366	-0.17
231.584	0
231.801	0.46
232.019	0.07
232.236	-0.1
232.454	-0.14
232.671	0.05
232.889	0.01
233.106	-0.13
233.324	0.08
233.541	-0.03
233.759	-0.05
233.976	-0.15
234.194	0.02
234.411	-0.1
234.628	-0.08
234.846	-0.02
235.063	0.04
235.28	-0.04
235.498	-0.05
235.715	-0.12
235.932	0.21
236.149	0.02
236.367	-0.04
236.584	0.19
236.801	0.01
237.018	0.19
237.236	0.02
237.453	-0.2
237.67	0.21
237.887	0
238.104	0.06
238.321	-0.04
238.538	-0.1
238.755	0.23
238.973	-0.08
239.19	-0.01
239.407	0.04
239.624	0.13
239.841	0
240.058	-0.04
240.275	0.08
240.492	0.07
240.709	-0.03
240.925	-0.04
241.142	0.04
241.359	-0.12
241.576	-0.04
241.793	-0.07
242.01	0.03
242.227	0.21
242.444	0.06
242.66	0.07
242.877	0.06
243.094	0.03
243.311	0.07
243.527	-0.03
243.744	0.13
243.961	0.11
244.178	-0.05
244.394	0.03
244.611	0.16
244.828	0.25
245.044	-0.05
245.261	0.06
245.477	0.06
245.694	0.18
245.911	-0.07
246.127	0.08
246.344	0.13
246.56	0.14
246.777	-0.06
246.993	0.03
247.21	0.03
247.426	0.08
247.643	-0.1
247.859	-0.07
248.076	-0.06
248.292	0.23
248.508	0.01
248.725	0.1
248.941	0.07
249.157	0.16
249.374	-0.03
249.59	0.04
249.806	-0
250.023	0.23
250.239	-0.01
250.455	0.01
250.671	-0.04
250.888	0.05
251.104	0.08
251.32	-0.01
251.536	0.01
251.752	0.05
251.969	0.08
252.185	0.06
252.401	0.2
252.617	0.08
252.833	-0.01
253.049	0.03
253.265	0.05
253.481	0.04
253.697	0.02
253.913	-0.04
254.129	-0.01
254.345	0.11
254.561	0.03
254.777	0.03
254.993	0.12
255.209	0.06
255.425	-0.02
255.641	-0.03
255.857	0.17
256.073	-0.01
256.288	-0.09
256.504	-0.04
256.72	0.08
256.936	0.17
257.152	0.08
257.367	-0.04
257.583	0.06
257.799	0.15
258.015	0.01
258.23	0.03
258.446	0.17
258.662	0.04
258.877	-0.04
259.093	-0.03
259.309	0.09
259.524	0.1
259.74	-0
259.955	-0.07
260.171	0.07
260.387	0.03
260.602	0.08
260.818	-0.02
261.033	-0.04
261.249	0.03
261.464	-0.05
261.68	-0.07
261.895	0
262.11	0.13
262.326	-0.02
262.541	-0.03
262.757	0.11
262.972	0.13
263.187	0.06
263.403	0.06
263.618	0.07
263.833	0.01
264.049	0.05
264.264	0.05
264.479	0.08
264.694	0.18
264.91	-0.01
265.125	0.02
265.34	0.08
265.555	0.22
265.77	0.04
265.986	-0.01
266.201	0.15
266.416	0.19
266.631	-0.03
266.846	-0.01
267.061	0.06
267.276	0.05
267.491	-0.11
267.706	0.09
267.921	0.07
268.136	0.02
268.351	0.05
268.566	-0.06
268.781	0.1
268.996	0.08
269.211	-0.01
269.426	-0.04
269.641	-0.03
269.856	0.1
270.071	-0.01
270.285	-0.08
270.5	0.07
270.715	0.1
270.93	0.05
271.145	0.09
271.359	0.14
271.574	-0.04
271.789	0.08
272.004	0.02
272.218	0.04
272.433	0.1
272.648	-0.01
272.862	0.08
273.077	0.06
273.292	0.08
273.506	0
273.721	-0.06
273.936	0.13
274.15	0.12
274.365	-0.06
274.579	0.05
274.794	0.03
275.008	0.09
275.223	-0.09
275.437	0.01
275.652	0.05
275.866	0.1
276.081	0.04
276.295	0.11
276.509	0.02
276.724	0.02
276.938	0.04
277.153	0.04
277.367	0.12
277.581	-0.02
277.796	0.02
278.01	0.01
278.224	0.08
278.438	0.16
278.653	0.01
278.867	-0.05
279.081	-0.11
279.295	0.05
279.51	0.05
279.724	-0.02
279.938	0.07
280.152	0.06
280.366	-0.01
280.58	0.02
280.794	0.08
281.008	0.11
281.222	0.05
281.437	0.16
281.651	0.03
281.865	0.1
282.079	0.01
282.293	-0
282.507	0.06
282.721	0.05
282.935	0.05
283.148	-0.11
283.362	0.04
283.576	-0.01
283.79	0.03
284.004	0
284.218	0.04
284.432	-0
284.646	0.02
284.859	0.03
285.073	-0.03
285.287	0.06
285.501	0.01
285.714	0
285.928	0.04
286.142	0.06
286.356	0
286.569	-0.02
286.783	0.15
286.997	0.08
287.21	0.05
287.424	0.07
287.637	0.01
287.851	-0.01
288.065	0.09
288.278	0.04
288.492	0.04
288.705	0.05
288.919	0.1
289.132	-0.07
289.346	0.12
289.559	-0.02
289.773	-0.02
289.986	0.03
290.2	0.02
290.413	0.08
290.626	0.05
290.84	0
291.053	0.07
291.267	0.12
291.48	0
291.693	0.02
291.906	-0.01
292.12	0.01
292.333	0.03
292.546	-0
292.76	0.1
292.973	0.06
293.186	0.06
293.399	0.01
293.612	0.09
293.826	0.04
294.039	0.05
294.252	0.04
294.465	0.07
294.678	0.05
294.891	0.04
295.104	0
295.317	0.01
295.53	0.05
295.743	-0.03
295.956	0.04
296.169	0.11
296.382	0.08
296.595	0.02
296.808	-0.03
297.021	0.11
297.234	0.08
297.447	0.03
297.66	0.06
297.873	0.1
298.086	0.11
298.299	-0.01
298.511	-0.01
298.724	0.01
298.937	0.01
299.15	0.01
299.363	-0.01
299.575	0.07
299.788	0.08
300.001	0
300.213	-0.05
300.426	-0
300.639	0.06
300.852	-0.03
301.064	0.06
301.277	0.1
301.489	0.11
301.702	0.03
301.915	-0.01
302.127	0.06
302.34	0.05
302.552	0.05
302.765	0.03
302.977	0.1
303.19	-0.01
303.402	0
303.615	-0.01
303.827	-0.01
304.04	0.03
304.252	0.07
304.464	0
304.677	0.14
304.889	0.02
305.102	0
305.314	0.02
305.526	0.09
305.739	0.05
305.951	0.05
306.163	0.02
306.375	0.12
306.588	-0
306.8	0.03
307.012	-0.03
307.224	0.07
307.436	0.05
307.649	-0
307.861	0.03
308.073	0.09
308.285	0.01
308.497	0
308.709	0.02
308.921	0.05
309.133	0.08
309.346	0.04
309.558	0.06
309.77	0.08
309.982	0.09
310.194	0.05
310.406	-0.01
310.617	0.13
310.829	0.07
311.041	0.08
311.253	0.03
311.465	0.04
311.677	-0
311.889	-0
312.101	-0.02
312.313	0.1
312.524	0.1
312.736	-0.03
312.948	0.04
313.16	0.12
313.372	0.03
313.583	0.05
313.795	0.04
314.007	0.04
314.218	0.1
314.43	0.03
314.642	0.02
314.853	-0.01
315.065	0.1
315.277	0.05
315.488	0.07
315.7	0.09
315.912	0.11
316.123	0.03
316.335	0.02
316.546	0.18
316.758	0.07
316.969	0
317.181	0.07
317.392	0.02
317.604	0.09
317.815	-0.01
318.026	-0.02
318.238	0.03
318.449	0.08
318.661	0
318.872	-0.02
319.083	0.01
319.295	0.08
319.506	0.02
319.717	0.06
319.929	0.07
320.14	0.04
320.351	0.08
320.562	-0
320.774	0.07
320.985	0.07
321.196	-0
321.407	0.02
321.618	0.09
321.829	0.1
322.041	0.04
322.252	0
322.463	0.07
322.674	0.08
322.885	-0.01
323.096	0.01
323.307	0.06
323.518	0.03
323.729	0.01
323.94	0.06
324.151	0.02
324.362	0.08
324.573	0.08
324.784	0.04
324.995	0.1
325.206	0.08
325.417	0.02
325.628	0.03
325.838	0.03
326.049	0.09
326.26	0.04
326.471	0.06
326.682	0.09
326.892	0.03
327.103	-0.01
327.314	0.01
327.525	0.14
327.735	0.05
327.946	0.02
328.157	0.01
328.368	0.01
328.578	0.04
328.789	0.15
328.999	0.07
329.21	0.04
329.421	0.05
329.631	0.01
329.842	0
330.052	0.07
330.263	0.05
330.473	0.05
330.684	0.02
330.894	0.06
331.105	0.05
331.315	0.08
331.526	-0.03
331.736	0.13
331.947	0.1
332.157	0.02
332.367	0.02
332.578	0.08
332.788	0.1
332.999	0.08
333.209	0.07
333.419	-0.01
333.629	0.1
333.84	0.05
334.05	-0
334.26	0.11
334.47	0.08
334.681	0.14
334.891	0.05
335.101	0.13
335.311	0.18
335.521	0.03
335.732	0.03
335.942	0.11
336.152	0.09
336.362	0.08
336.572	0.04
336.782	0.09
336.992	0.02
337.202	0.01
337.412	-0.02
337.622	0.06
337.832	0.03
338.042	0.06
338.252	0.04
338.462	0.02
338.672	0.07
338.882	0
339.092	0.06
339.302	0.16
339.511	0.12
339.721	0.04
339.931	-0.03
340.141	0.08
340.351	0.08
340.561	0.09
340.77	0.07
340.98	0.04
341.19	0.11
341.4	0.03
341.609	-0.04
341.819	0.04
342.029	0.05
342.238	0.07
342.448	0
342.658	0.1
342.867	0.04
343.077	0.05
343.286	0.05
343.496	0.07
343.706	0.15
343.915	0
344.125	0.09
344.334	0.06
344.544	0.01
344.753	0
344.963	0.05
345.172	0.02
345.381	0.02
345.591	0.01
345.8	0.06
346.01	0.11
346.219	0.08
346.428	-0.08
346.638	0.05
346.847	0.07
347.056	0.12
347.266	0.06
347.475	0.09
347.684	0.1
347.893	0.06
348.103	0.09
348.312	0.08
348.521	0.08
348.73	0.09
348.94	0.1
349.149	0.09
349.358	0.04
349.567	0.01
349.776	-0.01
349.985	0.01
350.194	0.05
350.403	0.08
350.612	0.03
350.821	0.02
351.03	0.05
351.239	0
351.448	0.06
351.657	0.02
351.866	0.14
352.075	0.06
352.284	0.04
352.493	-0
352.702	0.13
352.911	0.03
353.12	0.08
353.329	0.08
353.538	0.06
353.746	0.02
353.955	0.05
354.164	0.09
354.373	0.07
354.582	0.1
354.79	0.04
354.999	0.11
355.208	0.05
355.416	0.11
355.625	0
355.834	0.04
356.042	0.07
356.251	0.07
356.46	0.03
356.668	0.06
356.877	0.16
357.085	0.11
357.294	-0.06
357.503	0.07
357.711	0.02
357.92	0.17
358.128	0.09
358.337	0.04
358.545	0.11
358.754	0.03
358.962	0.11
359.17	0.07
359.379	0.12
359.587	0.06
359.796	0.05
360.004	0.1
360.212	0.1
360.421	0.1
360.629	0.03
360.837	0.02
361.046	0.09
361.254	0.17
361.462	0.07
361.67	0.03
361.879	0.09
362.087	0.1
362.295	0.05
362.503	0.06
362.711	-0
362.92	0.04
363.128	0.07
363.336	0.02
363.544	0
363.752	0.07
363.96	0.02
364.168	0.03
364.376	0.09
364.584	0.12
364.792	0.13
365	0.07
365.208	0.06
365.416	0.08
365.624	0.11
365.832	0.08
366.04	0.14
366.248	0.1
366.456	0.06
366.664	0.08
366.872	0.07
367.079	0.04
367.287	0.08
367.495	0.11
367.703	0.11
367.911	0.05
368.118	0.08
368.326	0.06
368.534	-0.01
368.742	0.09
368.949	0.04
369.157	0.04
369.365	0.14
369.572	0.03
369.78	0.03
369.988	0.13
370.195	0.09
370.403	0.09
370.61	0.02
370.818	0.07
371.026	0.16
371.233	0.05
371.441	0.07
371.648	0.05
371.856	0.08
372.063	0.11
372.271	0.09
372.478	0.04
372.685	0.02
372.893	0.13
373.1	0.07
373.308	0.03
373.515	0.18
373.722	0.14
373.93	0.07
374.137	0.13
374.344	0.13
374.552	0.17
374.759	0.13
374.966	0.13
375.173	0.11
375.381	0.13
375.588	0.09
375.795	0.01
376.002	0.06
376.209	0.08
376.417	0.08
376.624	0.1
376.831	0.15
377.038	0.04
377.245	0.02
377.452	0.07
377.659	0.11
377.866	0.09
378.073	0.09
378.28	0.13
378.487	0.16
378.694	0.14
378.901	0.09
379.108	0.11
379.315	0.15
379.522	0.23
379.729	0.13
379.936	0.13
380.143	0.15
380.35	0.11
380.557	0.1
380.763	0.1
380.97	0.15
381.177	0.16
381.384	0.12
381.591	0.12
381.797	0.14
382.004	0.19
382.211	0.19
382.418	0.18
382.624	0.18
382.831	0.19
383.038	0.18
383.244	0.19
383.451	0.16
383.658	0.21
383.864	0.19
384.071	0.16
384.277	0.28
384.484	0.15
384.69	0.27
384.897	0.22
385.103	0.23
385.31	0.16
385.516	0.22
385.723	0.17
385.929	0.26
386.136	0.27
386.342	0.32
386.549	0.28
386.755	0.39
386.961	0.36
387.168	0.38
387.374	0.34
387.58	0.44
387.787	0.41
387.993	0.44
388.199	0.38
388.406	0.43
388.612	0.44
388.818	0.41
389.024	0.45
389.231	0.52
389.437	0.65
389.643	0.59
389.849	0.62
390.055	0.68
390.261	0.68
390.467	0.74
390.674	0.71
390.88	0.76
391.086	0.87
391.292	0.83
391.498	0.95
391.704	0.93
391.91	1
392.116	0.97
392.322	0.98
392.528	1.2
392.734	1.17
392.94	1.29
393.146	1.29
393.352	1.34
393.557	1.45
393.763	1.5
393.969	1.63
394.175	1.64
394.381	1.71
394.587	1.78
394.792	1.86
394.998	2.08
395.204	2.19
395.41	2.25
395.615	2.29
395.821	2.48
396.027	2.61
396.233	2.78
396.438	2.87
396.644	3.16
396.85	3.17
397.055	3.35
397.261	3.49
397.466	3.76
397.672	3.8
397.878	3.92
398.083	4.07
398.289	4.09
398.494	4.42
398.7	4.63
398.905	4.69
399.111	5.11
399.316	5.1
399.522	5.33
399.727	5.46
399.932	5.74
400.138	5.94
400.343	6.26
400.549	6.31
400.754	6.79
400.959	7.08
401.165	7.38
401.37	7.65
401.575	8.24
401.78	8.21
401.986	8.6
402.191	8.87
402.396	9.3
402.601	9.61
402.807	10.02
403.012	10.2
403.217	10.96
403.422	10.99
403.627	11.57
403.832	12.04
404.037	12.42
404.243	12.32
404.448	12.94
404.653	13.3
404.858	13.42
405.063	13.36
405.268	13.96
405.473	14.09
405.678	14.45
405.883	15.03
406.088	15.08
406.293	15.14
406.498	15.51
406.703	15.43
406.907	15.9
407.112	16.31
407.317	16.85
407.522	16.95
407.727	17.32
407.932	17.34
408.136	17.74
408.341	17.37
408.546	17.49
408.751	17.45
408.956	17.36
409.16	17.72
409.365	17.7
409.57	17.01
409.774	17.04
409.979	16.88
410.184	16.59
410.388	16.54
410.593	16.53
410.798	16.55
411.002	16.45
411.207	16.1
411.411	16.01
411.616	15.48
411.82	15.56
412.025	15.02
412.229	14.82
412.434	14.41
412.638	14.03
412.843	13.69
413.047	13.35
413.252	12.89
413.456	13.09
413.66	12.53
413.865	12.17
414.069	11.71
414.273	11.68
414.478	11.16
414.682	10.91
414.886	10.66
415.091	10.11
415.295	10.08
415.499	9.9
415.703	9.26
415.908	9.32
416.112	8.93
416.316	8.88
416.52	8.68
416.724	8.3
416.929	8.16
417.133	8.34
417.337	7.71
417.541	7.69
417.745	7.58
417.949	7.3
418.153	7.15
418.357	7.06
418.561	7.12
418.765	6.66
418.969	6.56
419.173	6.73
419.377	6.34
419.581	6.46
419.785	6.22
419.989	6
420.193	5.95
420.397	5.82
420.601	5.72
420.804	5.69
421.008	5.31
421.212	5.36
421.416	5.09
421.62	4.87
421.823	4.76
422.027	4.68
422.231	4.52
422.435	4.29
422.638	4.19
422.842	4.06
423.046	3.88
423.249	3.97
423.453	3.69
423.657	3.66
423.86	3.56
424.064	3.5
424.268	3.51
424.471	3.29
424.675	3.29
424.878	3.19
425.082	3.14
425.285	3.16
425.489	2.84
425.692	2.87
425.896	2.77
426.099	2.73
426.303	2.62
426.506	2.57
426.71	2.55
426.913	2.61
427.116	2.59
427.32	2.28
427.523	2.28
427.726	2.38
427.93	2.28
428.133	2.27
428.336	2.16
428.54	2.07
428.743	2.19
428.946	2.14
429.149	1.97
429.353	1.99
429.556	1.91
429.759	1.88
429.962	1.72
430.165	1.76
430.368	1.59
430.571	1.54
430.775	1.6
430.978	1.48
431.181	1.5
431.384	1.49
431.587	1.41
431.79	1.45
431.993	1.41
432.196	1.32
432.399	1.43
432.602	1.42
432.805	1.32
433.008	1.39
433.211	1.25
433.414	1.33
433.616	1.3
433.819	1.25
434.022	1.17
434.225	1.29
434.428	1.26
434.631	1.35
434.833	1.14
435.036	1.09
435.239	1.18
435.442	1.08
435.645	1.09
435.847	1.06
436.05	1.11
436.253	1.06
436.455	0.95
436.658	1
436.861	1.1
437.063	0.92
437.266	0.95
437.468	0.95
437.671	1.05
437.874	0.96
438.076	0.75
438.279	0.87
438.481	0.89
438.684	0.83
438.886	0.89
439.089	0.75
439.291	0.8
439.494	0.82
439.696	0.74
439.899	0.74
440.101	0.84
440.303	0.69
440.506	0.76
440.708	0.73
440.91	0.74
441.113	0.67
441.315	0.72
441.517	0.57
441.72	0.73
441.922	0.6
442.124	0.56
442.326	0.66
442.529	0.63
442.731	0.56
442.933	0.67
443.135	0.58
443.337	0.52
443.539	0.58
443.742	0.54
443.944	0.52
444.146	0.45
444.348	0.54
444.55	0.47
444.752	0.49
444.954	0.42
445.156	0.5
445.358	0.42
445.56	0.53
445.762	0.43
445.964	0.48
446.166	0.4
446.368	0.4
446.57	0.48
446.772	0.45
446.974	0.35
447.175	0.43
447.377	0.34
447.579	0.38
447.781	0.29
447.983	0.44
448.184	0.39
448.386	0.35
448.588	0.26
448.79	0.36
448.991	0.35
449.193	0.31
449.395	0.34
449.597	0.38
449.798	0.35
450	0.34
450.202	0.34
450.403	0.31
450.605	0.4
450.806	0.36
451.008	0.25
451.21	0.31
451.411	0.35
451.613	0.31
451.814	0.29
452.016	0.3
452.217	0.3
452.419	0.39
452.62	0.31
452.821	0.32
453.023	0.38
453.224	0.35
453.426	0.28
453.627	0.31
453.828	0.3
454.03	0.24
454.231	0.34
454.432	0.21
454.634	0.36
454.835	0.25
455.036	0.23
455.238	0.35
455.439	0.34
455.64	0.19
455.841	0.24
456.042	0.4
456.244	0.31
456.445	0.25
456.646	0.22
456.847	0.24
457.048	0.29
457.249	0.3
457.45	0.5
457.651	0.21
457.852	0.37
458.054	0.28
458.255	0.22
458.456	0.27
458.657	0.27
458.858	0.26
459.058	0.28
459.259	0.33
459.46	0.21
459.661	0.26
459.862	0.37
460.063	0.23
460.264	0.32
460.465	0.25
460.666	0.4
460.866	0.25
461.067	0.23
461.268	0.21
461.469	0.23
461.67	0.28
461.87	0.19
462.071	0.17
462.272	0.21
462.473	0.26
462.673	0.26
462.874	0.15
463.075	0.28
463.275	0.22
463.476	0.23
463.676	0.28
463.877	0.26
464.078	0.31
464.278	0.32
464.479	0.27
464.679	0.27
464.88	0.22
465.08	0.35
465.281	0.22
465.481	0.21
465.682	0.25
465.882	0.25
466.083	0.3
466.283	0.23
466.483	0.23
466.684	0.16
466.884	0.18
467.085	0.19
467.285	0.26
467.485	0.2
467.686	0.22
467.886	0.16
468.086	0.23
468.286	0.23
468.487	0.23
468.687	0.2
468.887	0.2
469.087	0.28
469.287	0.19
469.488	0.12
469.688	0.27
469.888	0.25
470.088	0.21
470.288	0.25
470.488	0.25
470.688	0.16
470.888	0.17
471.088	0.16
471.288	0.24
471.488	0.23
471.688	0.24
471.888	0.16
472.088	0.29
472.288	0.24
472.488	0.2
472.688	0.15
472.888	0.21
473.088	0.17
473.288	0.22
473.488	0.17
473.688	0.25
473.887	0.19
474.087	0.18
474.287	0.19
474.487	0.16
474.687	0.2
474.886	0.15
475.086	0.14
475.286	0.2
475.486	0.17
475.685	0.14
475.885	0.16
476.085	0.14
476.284	0.2
476.484	0.12
476.684	0.17
476.883	0.19
477.083	0.19
477.282	0.12
477.482	0.19
477.681	0.16
477.881	0.13
478.08	0.1
478.28	0.13
478.479	0.15
478.679	0.24
478.878	0.12
479.078	0.15
479.277	0.12
479.477	0.14
479.676	0.14
479.875	0.11
480.075	0.08
480.274	0.15
480.473	0.16
480.673	0.12
480.872	0.18
481.071	0.12
481.271	0.14
481.47	0.11
481.669	0.12
481.868	0.08
482.067	0.1
482.267	0.07
482.466	0.08
482.665	0.11
482.864	0.06
483.063	0.07
483.262	0.15
483.461	0.15
483.661	0.12
483.86	0.08
484.059	0.09
484.258	0.12
484.457	0.11
484.656	0.11
484.855	0.15
485.054	0.07
485.253	0.1
485.452	0.07
485.651	0.09
485.849	0.1
486.048	0.06
486.247	0.04
486.446	0.09
486.645	0.09
486.844	0.07
487.043	0.09
487.241	0.11
487.44	0.09
487.639	0.11
487.838	0.15
488.037	0.09
488.235	0.16
488.434	0.09
488.633	0.08
488.831	0.12
489.03	0.09
489.229	0.1
489.427	0.08
489.626	0.15
489.825	0.12
490.023	0.13
490.222	0.08
490.42	0.11
490.619	0.12
490.817	0.09
491.016	0.08
491.214	0.11
491.413	0.07
491.611	0.09
491.81	0.08
492.008	0.13
492.207	0.1
492.405	0.08
492.604	0.04
492.802	0.07
493	0.11
493.199	0.08
493.397	0.08
493.595	0.08
493.794	0.09
493.992	0.12
494.19	0.08
494.388	0.1
494.587	0.07
494.785	0.11
494.983	0.04
495.181	0.08
495.379	0.05
495.578	0.07
495.776	0.1
495.974	0.1
496.172	0.07
496.37	0.05
496.568	0.05
496.766	0.04
496.964	0.11
497.162	0.1
497.36	0.04
497.558	0.11
497.756	0.09
497.954	0.07
498.152	0.05
498.35	0.07
498.548	0.05
498.746	0.11
498.944	0.04
499.142	0.04
499.34	0.06
499.538	0.06
499.736	0.05
499.933	0.08
500.131	0.09
500.329	0.07
500.527	0.07
500.725	0.09
500.922	0.11
501.12	0.08
501.318	0.07
501.516	0.02
501.713	0.1
501.911	0.05
502.109	0.03
502.306	0.1
502.504	0.08
502.701	0.04
502.899	0.07
503.097	0.11
503.294	0.1
503.492	0.03
503.689	0.08
503.887	0.09
504.084	0.12
504.282	0.07
504.479	0.04
504.677	0.1
504.874	0.05
505.072	0.06
505.269	0.06
505.466	0.06
505.664	0.07
505.861	0.04
506.059	0.04
506.256	0.08
506.453	0.04
506.651	0.12
506.848	0.08
507.045	0.07
507.242	0.06
507.44	0.05
507.637	0.09
507.834	0.05
508.031	0.08
508.229	0.02
508.426	0.07
508.623	0.08
508.82	0.04
509.017	0.03
509.214	0.05
509.411	0.08
509.608	0.02
509.805	0.07
510.003	0.05
510.2	0.04
510.397	0.09
510.594	0.04
510.791	0.04
510.988	0.04
511.184	0.05
511.381	0.06
511.578	0.03
511.775	0.09
511.972	0.03
512.169	0.03
512.366	0.05
512.563	0.06
512.76	0.03
512.956	0.07
513.153	0.04
513.35	0.07
513.547	0.02
513.744	0.02
513.94	0.02
514.137	0.05
514.334	0.05
514.53	0.05
514.727	0.05
514.924	0.12
515.12	0.03
515.317	0.02
515.514	0.02
515.71	0
515.907	0.03
516.103	0.05
516.3	0.05
516.497	0.09
516.693	0.07
516.89	0.03
517.086	0.01
517.283	0.07
517.479	0.06
517.676	0.04
517.872	0.04
518.068	0.03
518.265	0.02
518.461	0.04
518.658	-0.01
518.854	0.06
519.05	0.03
519.247	-0
519.443	0.06
519.639	0.05
519.836	0.04
520.032	0.04
520.228	0.05
520.424	0.08
520.621	0.05
520.817	0.04
521.013	0.06
521.209	0.06
521.405	0.1
521.601	0.05
521.798	0.05
521.994	0.08
522.19	0.02
522.386	0.01
522.582	0.04
522.778	0.06
522.974	0.03
523.17	0.02
523.366	0.05
523.562	0.09
523.758	0.04
523.954	0.01
524.15	0.02
524.346	0.07
524.542	0.01
524.738	0.01
524.934	0.03
525.129	0.03
525.325	0.04
525.521	0.05
525.717	0.05
525.913	0.06
526.109	0.05
526.304	0.05
526.5	0.04
526.696	0.07
526.892	0.02
527.087	0.03
527.283	0.02
527.479	0.07
527.674	0.03
527.87	0.02
528.066	0.02
528.261	0.04
528.457	0.05
528.653	0.04
528.848	0.03
529.044	0.06
529.239	0.02
529.435	0.04
529.63	0.03
529.826	0.06
530.021	0.05
530.217	0.06
530.412	0.02
530.608	0.04
530.803	0.05
530.999	0.01
531.194	-0.02
531.389	0.05
531.585	0.01
531.78	0.03
531.975	0.05
532.171	0.05
532.366	0.02
532.561	0.03
532.757	0.01
532.952	0.03
533.147	0.05
533.342	0.01
533.538	0.02
533.733	0.08
533.928	0.02
534.123	0.02
534.318	-0.01
534.513	0.03
534.709	0.04
534.904	0.01
535.099	0.03
535.294	0.03
535.489	0.03
535.684	0.04
535.879	0.01
536.074	0.04
536.269	0.01
536.464	0.03
536.659	0.04
536.854	0.02
537.049	0.04
537.244	0.02
537.439	0.01
537.634	0.03
537.828	0.04
538.023	0.03
538.218	-0
538.413	0.04
538.608	0
538.803	0.04
538.997	0
539.192	0.05
539.387	0.04
539.582	0.03
539.776	0.04
539.971	0.03
540.166	0.04
540.36	-0.02
540.555	0.03
540.75	0.03
540.944	0.03
541.139	-0.01
541.334	0.02
541.528	0.04
541.723	0.03
541.917	0.03
542.112	-0.04
542.306	-0
542.501	0.03
542.695	0.03
542.89	-0
543.084	0.02
543.279	0.02
543.473	0.01
543.668	0.02
543.862	0.02
544.056	0.03
544.251	0.02
544.445	0.03
544.64	0.03
544.834	-0.01
545.028	0.01
545.222	0.04
545.417	0.05
545.611	0.04
545.805	0.05
546	0.02
546.194	0.02
546.388	-0
546.582	0.05
546.776	0.03
546.97	0.03
547.165	0.05
547.359	0.02
547.553	0.01
547.747	0.03
547.941	0.03
548.135	0.03
548.329	0.03
548.523	0.03
548.717	0.01
548.911	0
549.105	0.04
549.299	0.01
549.493	0.04
549.687	0.01
549.881	0.04
550.075	0
550.269	0
550.463	0.05
550.657	0.01
550.85	0.05
551.044	0.01
551.238	0.02
551.432	0.03
551.626	-0.01
551.82	0.04
552.013	0.01
552.207	0
552.401	0.04
552.594	0.01
552.788	0
552.982	0.04
553.176	0.01
553.369	0.04
553.563	0.02
553.756	-0.03
553.95	-0.01
554.144	0.02
554.337	0.04
554.531	0.03
554.724	0.02
554.918	0.03
555.111	0.06
555.305	0.03
555.498	0.09
555.692	0.04
555.885	-0
556.079	0.04
556.272	0.01
556.466	0.04
556.659	0.03
556.852	0
557.046	0.01
557.239	0.06
557.432	-0
557.626	-0.01
557.819	0.04
558.012	0.03
558.206	0.02
558.399	0.03
558.592	0.04
558.785	0.03
558.979	0.04
559.172	0.03
559.365	0.03
559.558	0.03
559.751	0.03
559.944	-0
560.138	-0.01
560.331	0
560.524	0.03
560.717	0.01
560.91	-0
561.103	0.04
561.296	0.04
561.489	0.03
561.682	0.02
561.875	0.05
562.068	0.02
562.261	0.06
562.454	0.06
562.647	0.01
562.84	0.05
563.032	0.01
563.225	0.02
563.418	0.01
563.611	0.02
563.804	0
563.997	-0
564.19	-0
564.382	0.02
564.575	-0
564.768	0.03
564.961	0.04
565.153	-0.02
565.346	0.04
565.539	0.05
565.731	0.03
565.924	0.05
566.117	0.04
566.309	0.05
566.502	0.01
566.695	0.03
566.887	0.03
567.08	0
567.272	0.02
567.465	0.04
567.657	0.02
567.85	0.02
568.042	0.03
568.235	0.05
568.427	0.02
568.62	0.02
568.812	0.03
569.005	0.03
569.197	-0.01
569.389	0.03
569.582	0.04
569.774	0.02
569.966	-0.01
570.159	-0
570.351	0.03
570.543	-0.01
570.736	0.02
570.928	-0.01
571.12	0.02
571.312	0.01
571.505	-0.03
571.697	0.07
571.889	-0.03
572.081	0.03
572.273	-0.01
572.465	0.04
572.658	0.02
572.85	0.03
573.042	0.01
573.234	0.01
573.426	0.04
573.618	-0.02
573.81	0.02
574.002	0.05
574.194	0.07
574.386	-0.02
574.578	-0.07
574.77	-0.01
574.962	0.01
575.154	-0
575.346	0.01
575.538	0.04
575.729	-0
575.921	-0.01
576.113	0.01
576.305	0.04
576.497	0.02
576.689	0.01
576.88	-0
577.072	0.03
577.264	0.02
577.456	0.01
577.647	-0.05
577.839	0.01
578.031	0.05
578.223	-0.03
578.414	-0.02
578.606	0.04
578.798	0.02
578.989	0.01
579.181	-0
579.372	0.01
579.564	-0.01
579.755	0.03
579.947	0.02
580.139	0.05
580.33	-0.02
580.522	-0.02
580.713	-0.06
580.905	-0.01
581.096	0.05
581.287	-0
581.479	0.01
581.67	0.02
581.862	0
582.053	0.01
582.244	-0.05
582.436	0
582.627	0.03
582.818	-0.01
583.01	-0
583.201	0.03
583.392	0.04
583.583	0.02
583.775	0.01
583.966	-0
584.157	0
584.348	0.01
584.54	-0.04
584.731	0.02
584.922	0.02
585.113	-0.02
585.304	0.04
585.495	0.05
585.686	0.02
585.877	0.01
586.068	0.01
586.259	0.01
586.45	0.02
586.641	-0.01
586.832	-0.05
587.023	0.04
587.214	0.03
587.405	0
587.596	-0
587.787	0.08
587.978	0.01
588.169	-0.03
588.36	-0.02
588.551	0.02
588.742	0
588.932	0.03
589.123	0.01
589.314	0.05
589.505	0.05
589.696	0.02
589.886	-0.01
590.077	-0.02
590.268	0.03
590.458	-0.04
590.649	-0.05
590.84	0.03
591.03	-0.01
591.221	-0.04
591.412	-0
591.602	0.01
591.793	0.06
591.984	-0.03
592.174	0.01
592.365	0.08
592.555	-0.02
592.746	0.01
592.936	0
593.127	0.01
593.317	0.05
593.508	-0.02
593.698	-0.02
593.889	0.03
594.079	-0
594.269	-0.01
594.46	0.01
594.65	0.02
594.84	-0.01
595.031	-0.02
595.221	-0.03
595.411	-0.03
595.602	0.05
595.792	-0.01
595.982	-0.01
596.172	0.05
596.363	0.02
596.553	0.02
596.743	-0.01
596.933	0.02
597.123	0.05
597.314	-0.02
597.504	-0.01
597.694	0.06
597.884	0.02
598.074	-0.02
598.264	-0.01
598.454	0.03
598.644	0.02
598.834	-0
599.024	-0.05
599.214	-0.01
599.404	0.05
599.594	0.01
599.784	-0.04
599.974	0.06
600.164	0.02
600.354	-0.02
600.544	-0.03
600.734	-0.01
600.924	0.04
601.114	-0.04
601.303	0.01
601.493	0.01
601.683	0
601.873	0.02
602.063	-0.06
602.252	0.06
602.442	-0.05
602.632	-0.01
602.821	-0.03
603.011	0.04
603.201	0.01
603.39	-0.01
603.58	-0.03
603.77	0.03
603.959	0.06
604.149	-0.01
604.339	0
604.528	0.01
604.718	0.03
604.907	-0.01
605.097	-0
605.286	-0.02
605.476	0.04
605.665	0.01
605.855	0
606.044	0.04
606.234	0.03
606.423	-0.02
606.612	-0.01
606.802	0.02
606.991	0.03
607.181	0.03
607.37	-0.03
607.559	0.02
607.749	-0.04
607.938	-0.01
608.127	-0.01
608.316	-0.01
608.506	0.02
608.695	-0
608.884	-0.03
609.073	0.02
609.263	0.02
609.452	0.01
609.641	0.03
609.83	-0.05
610.019	0.01
610.208	-0.02
610.397	0.02
610.586	0.03
610.775	-0.02
610.965	-0.01
611.154	-0.03
611.343	0.03
611.532	-0.02
611.721	-0.02
611.91	-0
612.099	0.03
612.287	-0.02
612.476	-0.04
612.665	0.03
612.854	-0
613.043	0.03
613.232	0.01
613.421	-0.02
613.61	0.01
613.798	-0
613.987	0.04
614.176	0
614.365	0.06
614.554	0.01
614.742	0.03
614.931	-0.01
615.12	0.03
615.309	-0.03
615.497	0.04
615.686	-0.01
615.875	-0.01
616.063	0.02
616.252	-0.02
616.44	-0
616.629	0.02
616.818	0.07
617.006	0.02
617.195	-0.03
617.383	-0
617.572	0.01
617.76	-0.02
617.949	0.01
618.137	0.01
618.326	0.06
618.514	0.01
618.703	-0.03
618.891	0.05
619.079	-0.07
619.268	0.02
619.456	0.01
619.644	0.07
619.833	-0.02
620.021	-0
620.209	-0.06
620.398	0.01
620.586	0.01
620.774	0.04
620.962	0.03
621.151	0.06
621.339	-0
621.527	-0.04
621.715	-0.03
621.903	-0.02
622.092	-0.02
622.28	0.02
622.468	-0.02
622.656	-0.01
622.844	0.03
623.032	0.03
623.22	-0.05
623.408	0.04
623.596	0.03
623.784	0.04
623.972	-0.02
624.16	0
624.348	0.05
624.536	0
624.724	0
624.912	0.04
625.1	0.03
625.288	-0.03
625.476	-0.04
625.664	0.03
625.851	-0.06
626.039	0.03
626.227	0.02
626.415	-0
626.603	-0.03
626.79	0.03
626.978	0
627.166	0.06
627.354	-0.04
627.541	-0.02
627.729	-0.05
627.917	0.06
628.104	0.05
628.292	0.02
628.48	-0
628.667	0.02
628.855	-0.01
629.042	0.04
629.23	-0
629.418	0
629.605	-0.01
629.793	-0.03
629.98	-0.01
630.168	-0
630.355	-0.01
630.543	-0
630.73	-0.07
630.917	0.03
631.105	0.08
631.292	-0
631.48	-0.01
631.667	0.06
631.854	0.04
632.042	-0.02
632.229	-0.07
632.416	0.01
632.604	-0.01
632.791	-0.02
632.978	0.02
633.165	0.03
633.353	0.06
633.54	0.05
633.727	-0.07
633.914	-0.02
634.101	-0.05
634.289	0.05
634.476	-0.01
634.663	-0.01
634.85	0.04
635.037	-0.01
635.224	-0.07
635.411	0.05
635.598	0.03
635.785	0.02
635.972	-0.03
636.159	0.05
636.346	-0.01
636.533	-0.02
636.72	0
636.907	-0.01
637.094	0.05
637.281	-0.03
637.468	0.03
637.655	0.01
637.842	0.01
638.029	-0.01
638.215	0.02
638.402	0.03
638.589	-0
638.776	-0.02
638.963	-0.02
639.149	0.01
639.336	0.1
639.523	-0.02
639.709	0.01
639.896	-0.03
640.083	0.06
640.27	0.01
640.456	-0.02
640.643	-0
640.829	-0.05
641.016	0.01
641.203	-0.03
641.389	0.01
641.576	0.04
641.762	0.01
641.949	-0.02
642.135	0.05
642.322	0.02
642.508	-0.07
642.695	0
642.881	-0.01
643.068	-0.03
643.254	-0
643.441	0.03
643.627	-0.02
643.813	-0.03
644	0.04
644.186	-0
644.372	0.02
644.559	0.05
644.745	-0.02
644.931	-0.04
645.118	-0.01
645.304	0.02
645.49	-0.01
645.676	-0
645.862	0.01
646.049	0.06
646.235	0
646.421	0.07
646.607	0.06
646.793	-0.01
646.979	-0.02
647.165	0.02
647.352	0.03
647.538	0.04
647.724	-0.03
647.91	0.02
648.096	0.05
648.282	0.06
648.468	0.01
648.654	-0.01
648.84	0.02
649.026	0.01
649.212	0.01
649.397	-0.02
649.583	-0.02
649.769	-0
649.955	-0
650.141	0.01
650.327	0.06
650.513	-0.04
650.698	0.03
650.884	-0.05
651.07	0.03
651.256	0.03
651.442	-0.01
651.627	-0.02
651.813	0.01
651.999	0.01
652.184	0.04
652.37	-0.03
652.556	-0.02
652.741	0.09
652.927	-0.06
653.113	-0.01
653.298	0.01
653.484	-0
653.669	-0.03
653.855	-0.03
654.04	0.03
654.226	0.01
654.412	-0.02
654.597	-0.02
654.782	0.02
654.968	0.06
655.153	0.03
655.339	0.01
655.524	-0.04
655.71	0.04
655.895	-0.05
656.08	-0.02
656.266	0.04
656.451	0.02
656.636	-0.04
656.822	0.02
657.007	-0.02
657.192	-0.01
657.378	-0.06
657.563	-0.02
657.748	0.02
657.933	0.03
658.118	-0.04
658.304	-0.04
658.489	-0
658.674	0.02
658.859	-0.02
659.044	0.02
659.229	0.03
659.414	-0.04
659.599	-0.02
659.785	-0.08
659.97	-0.03
660.155	-0.02
660.34	-0
660.525	-0.02
660.71	0.01
660.895	0.06
661.08	-0.03
661.264	-0.03
661.449	0.04
661.634	0.04
661.819	0.01
662.004	0.04
662.189	-0.06
662.374	-0.01
662.559	-0.05
662.743	-0.06
662.928	-0.01
663.113	-0.03
663.298	-0.05
663.483	-0.01
663.667	0.03
663.852	-0.03
664.037	0.03
664.221	-0.03
664.406	0.05
664.591	0.02
664.775	0.02
664.96	-0.05
665.145	0.01
665.329	0.03
665.514	-0.01
665.698	-0.03
665.883	-0.03
666.068	0.07
666.252	0.02
666.437	-0.04
666.621	0.01
666.806	0.06
666.99	-0.03
667.174	-0.06
667.359	0.07
667.543	-0.01
667.728	-0.02
667.912	-0.07
668.096	0.02
668.281	-0.01
668.465	-0.04
668.649	-0.02
668.834	-0.06
669.018	0
669.202	-0.01
669.387	-0.04
669.571	0.08
669.755	0.01
669.939	-0.01
670.124	0.01
670.308	0.06
670.492	-0.02
670.676	-0.03
670.86	-0
671.044	-0.03
671.228	0.06
671.413	-0.02
671.597	-0.04
671.781	-0.05
671.965	0.07
672.149	-0.04
672.333	0.02
672.517	-0.01
672.701	0.04
672.885	0
673.069	-0.05
673.253	0.07
673.437	-0.02
673.621	-0.04
673.804	0
673.988	0.02
674.172	-0.04
674.356	-0.05
674.54	-0.01
674.724	0.08
674.908	-0
675.091	0.02
675.275	0.01
675.459	0.04
675.643	-0.05
675.826	0.02
676.01	-0
676.194	-0.02
676.377	0.05
676.561	0
676.745	0.02
676.928	-0.05
677.112	0.07
677.296	-0.02
677.479	-0.04
677.663	-0.01
677.846	0.03
678.03	0.01
678.213	-0.04
678.397	0.01
678.58	-0.03
678.764	-0.04
678.947	-0.04
679.131	-0.09
679.314	0.08
679.498	-0.04
679.681	0.01
679.865	0.09
680.048	-0
680.231	-0.03
680.415	0.01
680.598	-0.06
680.781	-0.05
680.965	-0.02
681.148	0.03
681.331	-0.02
681.514	0.02
681.698	-0.05
681.881	0.02
682.064	0
682.247	-0.03
682.43	-0.1
682.614	0.05
682.797	0.08
682.98	0.01
683.163	-0.07
683.346	0.02
683.529	0.01
683.712	-0.04
683.895	0.03
684.078	-0.08
684.261	0.03
684.444	0.02
684.627	0.01
684.81	-0.04
684.993	-0.04
685.176	-0.01
685.359	-0.01
685.542	-0.06
685.725	0.05
685.908	0.01
686.091	-0
686.274	0.06
686.457	0.05
686.639	-0.01
686.822	0.02
687.005	-0.04
687.188	0.09
687.371	0.12
687.553	0.01
687.736	0.01
687.919	0.09
688.102	0.09
688.284	-0
688.467	-0.01
688.65	-0.02
688.832	-0.05
689.015	-0.01
689.197	-0.07
689.38	0.06
689.563	0.09
689.745	-0.05
689.928	-0.06
690.11	-0.02
690.293	0.02
690.475	-0.13
690.658	0.02
690.84	-0.03
691.023	-0.01
691.205	-0.07
691.388	0.01
691.57	0.05
691.752	0.05
691.935	-0.09
692.117	-0.02
692.3	-0.02
692.482	-0.02
692.664	-0.02
692.847	0.06
693.029	0.06
693.211	0.01
693.393	-0.03
693.576	-0.04
693.758	-0.04
693.94	-0.02
694.122	0
694.304	-0.01
694.487	0.01
694.669	0.06
694.851	-0.05
695.033	-0.03
695.215	-0.04
695.397	-0.08
695.579	0.05
695.761	-0.04
695.943	-0.13
696.125	0.07
696.308	0.03
696.49	-0.11
696.671	0.09
696.853	-0.07
697.035	0.17
697.217	-0.01
697.399	0.03
697.581	-0.07
697.763	-0.02
697.945	-0.05
698.127	-0
698.309	-0.09
698.491	0
698.672	0.02
698.854	0.06
699.036	0.1
699.218	-0
699.399	0.04
699.581	0.05
699.763	0
699.945	-0.04
700.126	-0.04
700.308	0.06
700.49	-0.1
700.671	-0.09
700.853	-0.08
701.035	-0.05
701.216	-0.03
701.398	-0.05
701.579	-0.06
701.761	0.05
701.943	-0.01
702.124	-0.09
702.306	-0.04
702.487	0.14
702.669	-0.01
702.85	-0.02
703.031	-0.07
703.213	0.1
703.394	0.08
703.576	-0.05
703.757	0.1
703.938	0.1
704.12	0.16
704.301	-0.06
704.483	-0.03
704.664	0.05
704.845	0.09
705.026	0.09
705.208	-0.02
705.389	0.02
705.57	0.03
705.751	-0.02
705.933	-0.01
706.114	0.09
706.295	-0.03
706.476	-0.1
706.657	0.11
706.838	0.05
707.02	0.06
707.201	-0.03
707.382	-0.02
707.563	0.01
707.744	0.01
707.925	-0.1
708.106	-0.11
708.287	0
708.468	0.08
708.649	-0.06
708.83	0.07
709.011	-0.04
709.192	0.05
709.373	-0.1
709.554	0.01
709.734	0.02
709.915	-0.02
710.096	-0.02
710.277	-0.08
710.458	0
710.639	0.02
710.819	-0.09
711	-0.02
711.181	0.07
711.362	0.06
711.542	0.08
711.723	-0.06
711.904	0.1
712.085	0.03
712.265	0.04
712.446	-0.11
712.627	-0.08
712.807	0
712.988	-0.03
713.168	-0.14
713.349	0.07
713.53	-0.12
713.71	-0.11
713.891	-0.05
714.071	0.03
714.252	-0.08
714.432	-0.03
714.613	-0.11
714.793	0.01
714.974	0.07
715.154	0.06
715.334	0.1
715.515	0.13
715.695	-0.04
715.876	-0.01
716.056	-0.06
716.236	-0.01
716.417	-0.03
716.597	-0.01
716.777	0.15
716.957	0.06
717.138	0.05
717.318	-0
717.498	-0.08
717.678	-0.02
717.859	-0.04
718.039	-0.05
718.219	0.01
718.399	-0.02
718.579	-0.12
718.759	-0.16
718.939	-0.01
719.12	-0.05
719.3	0.02
719.48	-0.15
719.66	-0.13
719.84	0.09
720.02	-0.02
720.2	-0.04
720.38	-0.01
720.56	0.09
720.74	-0.03
720.92	0
721.1	0.11
721.279	0.08
721.459	-0.04
721.639	-0.1
721.819	0.05
721.999	0
722.179	0.07
722.359	-0.14
722.538	0.01
722.718	-0.03
722.898	-0.02
723.078	0
723.257	-0
723.437	-0.02
723.617	0.02
723.797	0.01
723.976	0.03
724.156	0.02
724.336	0.06
724.515	0.08
724.695	-0.12
724.874	-0.07
725.054	0.07
725.234	-0.09
725.413	0.07
725.593	0.01
725.772	0
725.952	-0.08
726.131	-0.04
726.311	-0.01
726.49	0.01
726.67	-0.11
726.849	-0.05
727.028	-0.03
727.208	-0.09
727.387	0.01
727.567	-0.11
727.746	0.02
727.925	-0.09
728.105	-0.13
728.284	-0.04
728.463	-0.03
728.643	0.09
728.822	-0.1
729.001	-0.07
729.18	-0.02
729.359	0.09
729.539	0.02
729.718	-0.08
729.897	0.05
730.076	-0.02
730.255	-0.15
730.434	-0.07
730.614	0.13
730.793	0.06
730.972	-0.03
731.151	-0.01
731.33	0.09
731.509	0.07
731.688	-0.04
731.867	-0.05
732.046	-0.14
732.225	0.26
732.404	-0.1
732.583	-0.06
732.762	0.05
732.941	0.03
733.12	-0.02
733.298	-0.06
733.477	0.14
733.656	-0.13
733.835	-0.1
734.014	0.05
734.193	0.06
734.371	-0.01
734.55	-0.01
734.729	-0.16
734.908	0.03
735.086	0.06
735.265	0.05
735.444	-0.24
735.623	-0.08
735.801	-0.09
735.98	0.04
736.159	-0.01
736.337	0.02
736.516	-0.05
736.694	-0.01
736.873	-0.11
737.052	0.17
737.23	0.15
737.409	-0
737.587	0.1
737.766	-0.15
737.944	-0.03
738.123	0.05
738.301	0.1
738.479	-0.02
738.658	0.08
738.836	-0.22
739.015	0.03
739.193	0.14
739.371	-0.08
739.55	-0.1
739.728	-0.16
739.906	0.13
740.085	0.19
740.263	0.05
740.441	-0.21
740.62	0.06
740.798	0.05
740.976	-0.07
741.154	-0.1
741.332	0.12
741.511	0.01
741.689	-0.04
741.867	0.02
742.045	-0.03
742.223	0.01
742.401	-0.09
742.579	-0.01
742.757	0.05
742.935	-0.17
743.114	-0.04
743.292	-0.05
743.47	-0.08
743.648	-0.06
743.826	-0.04
744.004	0.04
744.181	0.1
744.359	-0.08
744.537	0.01
744.715	-0.04
744.893	-0.06
745.071	0.07
745.249	-0.08
745.427	-0.07
745.605	0.11
745.782	-0.03
745.96	0.01
746.138	0.03
746.316	-0.08
746.493	0
746.671	-0.07
746.849	0
747.027	0.1
747.204	-0.02
747.382	0.08
747.56	-0.17
747.737	0.07
747.915	-0.03
748.093	0.08
748.27	-0.11
748.448	-0.01
748.625	-0.11
748.803	-0.08
748.98	-0.09
749.158	0.04
749.335	0.12
749.513	-0.05
749.69	-0.1
749.868	-0.02
750.045	0.08
750.223	-0.1
750.4	-0.19
750.578	0.22
750.755	0.01
750.932	-0.15
751.11	0.1
751.287	-0.25
751.464	0.11
751.642	-0.14
751.819	0.11
751.996	0.01
752.173	-0.12
752.351	-0.21
752.528	-0.06
752.705	-0.05
752.882	-0.04
753.06	0.01
753.237	0.05
753.414	0.14
753.591	0.24
753.768	-0.06
753.945	0.06
754.122	-0.05
754.299	0.11
754.476	-0.1
754.654	-0.07
754.831	0.12
755.008	0.04
755.185	-0.09
755.362	-0.24
755.539	0.01
755.716	-0.02
755.892	0.06
756.069	-0.12
756.246	-0.07
756.423	-0
756.6	0.06
756.777	-0.11
756.954	0.14
757.131	-0.05
757.307	0.05
757.484	-0.1
757.661	-0.04
757.838	-0.01
758.015	-0.1
758.191	0.08
758.368	0.09
758.545	0.12
758.721	-0.07
758.898	-0.11
759.075	-0.04
759.251	0.11
759.428	0.02
759.605	-0.17
759.781	-0
759.958	0.1
760.134	-0.04
760.311	-0.12
760.488	0.2
760.664	0.04
760.841	-0.07
761.017	-0.05
761.194	0.01
761.37	0.17
761.547	0.04
761.723	-0.04
761.899	0.14
762.076	-0.14
762.252	-0.09
762.429	-0.03
762.605	0.05
762.781	0.06
762.958	0.06
763.134	-0.06
763.31	-0.15
763.486	0.31
763.663	-0.18
763.839	0.1
764.015	-0.17
764.191	-0.15
764.368	-0.01
764.544	-0.16
764.72	-0.02
764.896	0
765.072	0.03
765.248	-0.05
765.425	0.04
765.601	-0.04
765.777	0.02
765.953	-0.19
766.129	-0.06
766.305	-0.16
766.481	0.08
766.657	0.01
766.833	0.22
767.009	-0.06
767.185	-0.11
767.361	-0.03
767.537	-0.18
767.713	0.03
767.889	-0.12
768.065	0.07
768.24	-0.04
768.416	0.03
768.592	-0.05
768.768	-0
768.944	0.04
769.12	-0.11
769.295	-0.15
769.471	-0.21
769.647	0.03
769.823	0.09
769.998	-0.07
770.174	0.01
770.35	0.25
770.525	0.3
770.701	0.11
770.877	-0.1
771.052	-0.24
771.228	0.16
771.403	0.11
771.579	0.21
771.755	0.36
771.93	-0.03
772.106	-0.1
772.281	-0.24
772.457	-0.09
772.632	0
772.808	-0.21
772.983	-0.17
773.159	-0.16
773.334	0.12
773.509	-0.17
773.685	-0.06
773.86	0.45
774.036	0.16
774.211	-0.02
774.386	0.05
774.562	-0.05
774.737	0.12
774.912	-0.15
775.087	0.05
775.263	0.09
775.438	-0.06
775.613	-0.03
775.788	-0.08
775.964	0.2
776.139	0.4
776.314	-0.18
776.489	0.04
776.664	0.05
776.839	-0.06
777.014	0.13
777.19	-0.05
777.365	0.36
777.54	0.3
777.715	-0.09
777.89	-0.02
778.065	0.08
778.24	-0.02
778.415	-0.01
778.59	-0.12
778.765	0.08
778.94	0.09
779.115	-0.07
779.289	-0.05
779.464	-0.07
779.639	-0.13
779.814	-0.2
779.989	-0.21
780.164	0.14
780.339	0.04
780.513	-0.11
780.688	-0.27
780.863	-0.07
781.038	0.21
781.212	-0.14
781.387	-0.06
781.562	0.26
781.737	0.16
781.911	0.04
782.086	-0.19
782.261	-0.05
782.435	0.3
782.61	-0.17
782.784	-0.3
782.959	0.24
783.134	-0.21
783.308	-0.28
783.483	-0.29
783.657	0.33
783.832	0.2
784.006	-0.38
784.181	-0.03
784.355	0.17
784.53	0.23
784.704	-0.3
784.878	0.22
785.053	-0.13
785.227	0.46
785.402	0.24
785.576	-0.3
785.75	0.09
785.925	-0.12
786.099	-0.06
786.273	0.09
786.448	-0.05
786.622	0.06
786.796	-0.19
786.97	-0.18
787.145	0.55
787.319	-0.23
787.493	-0.09
787.667	-0.45
787.841	0.1
788.015	0.18
788.19	-0.14
788.364	0.07
788.538	0.25
788.712	0.02
788.886	-0.13
789.06	0.23
789.234	0.18
789.408	-0.06
789.582	-0.16
789.756	-0.04
789.93	-0.27
790.104	-0.23
790.278	0.14
790.452	-0.22
790.626	0.11
790.8	-0.13
790.973	0.17
791.147	0.4
791.321	0.15
791.495	0.15
791.669	-0.03
791.843	-0.18
792.016	0.02
792.19	0.68
792.364	-0.1
792.538	0.51
792.711	0.19
792.885	-0.09
793.059	-0.26
793.233	-0.6
793.406	0.02
793.58	0.01
793.754	0.19
793.927	-0.22
794.101	0.25
794.274	0.3
794.448	0.4
794.622	-0.22
794.795	0.27
794.969	-0.14
795.142	0.26
795.316	0.17
795.489	-0.3
795.663	0.14
795.836	-0
796.009	-0.46
796.183	0.32
796.356	0.14
796.53	0.04
796.703	-0.2
796.876	0.5
797.05	0.01
797.223	-0.07
797.396	0.25
797.57	0.01
797.743	0.68
797.916	0.13
798.09	-0.19
798.263	0.41
798.436	0.09
798.609	-0.21
798.782	-0.18
798.956	0.08
799.129	0.01
799.302	-0.21
799.475	-0.26
799.648	-0.1
799.821	-0.09
799.994	-0.16
800.167	-0.51
800.34	-0.09
800.514	-0.01
800.687	-0.05
800.86	0.15
801.033	0.06
801.206	-0.09
801.379	-0.35
801.551	0.46
801.724	0.17
801.897	0.39
802.07	-0.39
802.243	-0.65
802.416	-0.13
802.589	-0.15
802.762	0.2
802.935	-0.05
803.107	0.33
803.28	0.4
803.453	0.21
803.626	-0.13
803.798	-0.11
803.971	-0.29
804.144	0.22
804.317	0.22
804.489	-0.2
804.662	-0.26
804.835	0.01
805.007	-0.43
805.18	0.31
805.353	-0.25
805.525	-0.25
805.698	-0.39
805.87	0.13
806.043	0.3
806.215	-0.6
806.388	-0.42
806.56	0.31
806.733	0.67
806.905	-0.28
807.078	-0.2
807.25	-0.32
807.423	-0.09
807.595	0.28
807.768	-0.02
807.94	0.41
808.112	0.19
808.285	0.12
808.457	-0.49
808.629	-0.07
808.802	0.1
808.974	0.12
809.146	-0.14
809.318	-0.45
809.491	0.05
809.663	0.48
809.835	-0.25
810.007	0.36
810.18	-0.03
810.352	-0.4
810.524	-0.69
810.696	-0.06
810.868	0.6
811.04	-0.22
811.212	0.09
811.384	0.32
811.556	0.17
811.728	-0
811.901	0.26
812.073	0.01
812.245	0.29
812.417	-0.16
812.589	-0.84
812.76	0.14
812.932	0.37
813.104	0.34
813.276	-0.16
813.448	0.35
813.62	-0.07
813.792	0.27
813.964	0.32
814.136	-0.16
814.307	-0.18
814.479	-0.41
814.651	0.16
814.823	0.87
814.995	-0.04
815.166	0.11
815.338	-0.46
815.51	-0.61
815.681	0.77
815.853	0.01
816.025	-0.07
816.196	0.47
816.368	0.24
816.54	-0.69
816.711	-0.64
816.883	0.5
817.054	1.36
817.226	-1.05
817.398	0.24
817.569	-0.34
817.741	0.07
817.912	-0.08
818.084	0.19
818.255	-0
818.426	-0.5
818.598	0.24
818.769	-0.56
818.941	0.61
819.112	0.67
819.283	0.22
819.455	-0.88
819.626	-0.09
819.798	0.42
819.969	0.2
820.14	0.01
820.311	-0.08
820.483	0.35
820.654	-0.19
820.825	0.14
820.996	0.05
821.168	-0.57
821.339	-0.39
821.51	0.02
821.681	0.22
821.852	-0.37
822.023	-0.52
822.195	-0.45
822.366	0.25
822.537	0.03
822.708	0.32
822.879	-0.42
823.05	0.52
823.221	-0.18
823.392	0.28
823.563	-0.16
823.734	-0.26
823.905	0.13
824.076	-0.48
824.247	-0.27
824.418	-0.48
824.589	0.79
824.759	-0.38
824.93	-0.21
825.101	-0.55
825.272	0.53
825.443	0.25
825.614	0.55
825.784	-1.35
825.955	1.2
826.126	0.54
826.297	0.13
826.467	1.01
826.638	0.96
826.809	-0.78
826.98	-0.45
827.15	0.1
827.321	0.1
827.492	1.11
827.662	-0.05
827.833	0.67
828.003	0.11
828.174	-0.22
828.345	-1.07
828.515	0.25
828.686	-0.05
828.856	-0.09
829.027	0.46
829.197	0.33
829.368	0.14
829.538	-0.67
829.709	-0.32
829.879	0.42
830.049	-0.04
830.22	-0.43
830.39	-0.29
830.56	1.01
830.731	-0.35
830.901	-0.44
831.072	-0.28
831.242	-0.04
831.412	0.24
831.582	-0.18
831.753	-1.05
831.923	0.62
832.093	0.21
832.263	-0.63
832.434	-0.28
832.604	-0.54
832.774	0.81
832.944	-0.22
833.114	-0.56
833.284	0.31
833.454	-0.68
833.624	-0.45
833.795	-0.62
833.965	0.78
834.135	1.45
834.305	-1.42
834.475	-0.75
834.645	-0.05
834.815	-0.01
834.985	-0.68
835.155	-0.41
835.325	0.15
835.494	0.4
835.664	-0.59
835.834	-1.41
836.004	0.31
836.174	-0.6
836.344	-0.1
836.514	-1.31
836.684	-0.99
836.853	0.45
837.023	0.05
837.193	-0.44
837.363	1.07
837.532	0.77
837.702	0.07
837.872	-1.03
838.041	0.57
838.211	1.31
838.381	-0.72
838.55	-0.24
838.72	2.05
838.89	0.7
839.059	-0.17
839.229	-1
839.398	1.88
839.568	0.03
839.738	-0.53
839.907	0.22
840.077	0.77
840.246	-0.02
840.416	-1.09
840.585	-0.59
840.755	1.45
840.924	0.85
841.093	-0.95
841.263	-0.43
841.432	-0.06
841.602	-1.45
841.771	-0.73
841.94	-0.09
842.11	1.46
842.279	1.26
842.448	-0.35
842.617	-0.73
842.787	1.35
842.956	-0.56
843.125	0.2
843.294	-0.25
843.464	0.69
843.633	0.21
843.802	-0.82
843.971	-0.78
844.14	0.99
844.309	0.61
844.479	-0.63
844.648	-0.77
844.817	-0.03
844.986	-0.5
845.155	-0.67
845.324	0.43
845.493	-0.27
845.662	-0.22
845.831	0.05
846	0.53
846.169	-0.25
846.338	1.45
846.507	0.02
846.676	0.58
846.844	-1.48
847.013	0.83
847.182	0.23
847.351	-0.63
847.52	0.17
847.689	1.25
847.858	-0.12
848.026	-0.26
848.195	0.2
848.364	-0.6
848.533	-1.33
848.701	-0.23
848.87	-0.41
849.039	0.31
849.207	0.13
849.376	1.02
849.545	0.9
849.713	-1.12
849.882	-1.24
850.051	-0.32
850.219	-0.31
850.388	1.29
850.556	-1.66
850.725	-0.41
850.893	0.85
851.062	-0.5
851.23	0.71
851.399	-1.73
851.567	0.04
851.736	-0.19
851.904	-0.94
852.073	-0.42
852.241	0.31
852.41	0.72
852.578	0.11
852.746	-1.32
852.915	0.55
853.083	-0.59
853.251	-1.45
853.42	-1.16
853.588	-0.5
853.756	0.88
853.924	-0.29
854.093	-0.01
854.261	0.43
854.429	-0.46
854.597	0.25
854.765	-1.68
854.934	0.74
855.102	2.16
855.27	-0.39
855.438	0.09
855.606	0.48
855.774	1.23
855.942	-2.06
856.11	-1.99
856.278	-1.05
856.446	0.49
856.614	-1.1
856.782	-1.07
856.95	1.46
857.118	1.13
857.286	1.12
857.454	-1.08
857.622	1.99
857.79	0.72
857.958	-1.48
858.126	-0.55
858.294	-1.92
858.462	0.33
858.629	-0.58
858.797	-1.35
858.965	0.12
859.133	-0.58
859.301	-0.61
859.468	0.58
859.636	0.36
859.804	1.17
859.971	-0.25
860.139	-1.51
860.307	0.15
860.474	-0.18
860.642	-1.32
860.81	-1.03
860.977	-0.67
861.145	1.97
861.313	-0.02
861.48	-0.39
861.648	1.86
861.815	-0.81
861.983	-2.05
862.15	-0.46
862.318	0.75
862.485	1.18
862.653	-1.43
862.82	-1.77
862.988	1.54
863.155	0.62
863.322	-0.52
863.49	-1.05
863.657	-0.96
863.824	1.66
863.992	-0.43
864.159	0.51
864.326	2.21
864.494	-1.07
864.661	0.92
864.828	-1.88
864.996	1.3
865.163	1.15
865.33	-1.13
865.497	-2.32
865.664	-1.37
865.832	-3.48
865.999	0.43
866.166	-1.32
866.333	-0.33
866.5	-2.55
866.667	-0.91
866.834	0.73
867.001	0.76
867.168	-2.15
867.335	-0.63
867.502	-2.82
867.669	0.1
867.836	2.37
868.003	-0.09
868.17	0.99
868.337	-1.87
868.504	2.82
868.671	-1.66
868.838	-1.2
869.005	0.69
869.172	0.03
869.339	-0.07
869.505	-2.12
869.672	0.64
869.839	1.05
870.006	0.55
870.173	-2.23
870.339	-0.04
870.506	3.28
870.673	-2.19
870.84	-0.75
871.006	-0.51
871.173	-1.57
871.34	0.73
871.506	-3.62
871.673	2.48
871.839	-2.63
872.006	1.27
872.173	0.54
872.339	0.14
872.506	0.66
872.672	0.03
872.839	-3.07
873.005	0.81
873.172	4.03
873.338	1.4
873.505	-0.64
873.671	-0.95
873.838	0.79
874.004	-3.31
874.171	-0.96
874.337	1.5
874.503	-0.28
874.67	0.05
874.836	-1.26
875.002	2.45
875.169	0.52
875.335	-0.88
875.501	0.24
875.668	2.14
875.834	-0.02
876	-0.77
876.166	0.3
876.332	1
876.499	3.71
876.665	-0.59
876.831	-1.41
876.997	2.28
877.163	-0.74
877.329	-1.09
877.495	-0.55
877.662	0.12
877.828	-0.28
877.994	-0.3
878.16	-4.31
878.326	0.7
878.492	-1.3
878.658	-1.62
878.824	-0.82
878.99	0.92
879.156	-1.63
879.322	0.46
879.487	-0.6
879.653	1.15
879.819	-1.09
879.985	-1.64
880.151	-1.31
880.317	1.3
880.483	0.97
880.648	-0.16
880.814	-1.97
880.98	0.39
881.146	-5.04
881.312	-0.34
881.477	-0.78
881.643	-0.29
881.809	1.71
881.974	3.04
882.14	-2.84
882.306	-1.72
882.471	2.69
882.637	-1
882.803	1.59
882.968	1.98
883.134	3.45
883.299	-0.9
883.465	-0.01
883.63	1.43
883.796	1.06
883.961	0.16
884.127	0.16
884.292	-4.7
884.458	-2.11
884.623	-2.11
