Data from Apollo_Calib_20240827__AbsoluteIrradiance__267__03-36-02-055.txt Node

Date: Wed Aug 28 03:36:02 BST 2024
User: biology
Spectrometer: FLMT08252
Trigger mode: 0
Integration Time (sec): 5.000000E-1
Scans to average: 5
Electric dark correction enabled: true
Nonlinearity correction enabled: false
Boxcar width: 0
XAxis mode: Wavelengths
Number of Pixels in Spectrum: 3648
>>>>>Begin Spectral Data<<<<<
179.588	-0
179.809	-0
180.03	-0
180.251	-0
180.473	-0
180.694	0
180.915	0
181.136	-0
181.357	0
181.578	0
181.799	0
182.02	-0
182.241	-0
182.462	-0
182.683	0
182.904	-0
183.125	-0
183.346	0
183.567	0
183.788	-0
184.009	-0
184.23	0
184.451	0
184.672	-0
184.892	-0
185.113	0
185.334	0
185.555	-0
185.776	-0
185.996	0
186.217	0
186.438	0
186.659	-0
186.879	0
187.1	0
187.321	-0
187.541	-0
187.762	0
187.983	0
188.203	-0
188.424	0
188.644	0
188.865	0
189.086	-0
189.306	-0
189.527	0
189.747	0
189.968	-0
190.188	0
190.409	0
190.629	0
190.849	-0
191.07	-0
191.29	0
191.511	0
191.731	-0
191.951	-0
192.172	0
192.392	-0
192.612	-0
192.833	0
193.053	0
193.273	0
193.493	0
193.714	0
193.934	0
194.154	0
194.374	0
194.594	0
194.815	0
195.035	0
195.255	0
195.475	0
195.695	0
195.915	0
196.135	0
196.355	0
196.575	0
196.795	0
197.015	-0
197.235	-0
197.455	-0
197.675	0
197.895	-0
198.115	-0
198.335	0
198.555	-0
198.775	0
198.995	0
199.214	0
199.434	0
199.654	-0
199.874	0
200.094	1.32
200.313	0.49
200.533	0.13
200.753	-0.54
200.973	1.28
201.192	0.93
201.412	-0.54
201.632	0.39
201.851	1.41
202.071	-0.15
202.291	-0.11
202.51	0.05
202.73	0.71
202.95	0.02
203.169	-0.11
203.389	0.34
203.608	-0.06
203.828	-0.35
204.047	0.07
204.267	0.64
204.486	0.22
204.706	0.56
204.925	0.14
205.145	-0.3
205.364	0.62
205.583	1.03
205.803	-0.27
206.022	-0.33
206.242	0.11
206.461	0.25
206.68	-0.01
206.9	0.29
207.119	1.05
207.338	0.69
207.557	0.04
207.777	-0.02
207.996	-0.1
208.215	0.76
208.434	-0.23
208.654	-0.18
208.873	0.26
209.092	0.44
209.311	-0.12
209.53	0.03
209.749	0.03
209.968	0.04
210.187	-0.1
210.407	-0.44
210.626	-0.05
210.845	0.47
211.064	-0.01
211.283	-0.02
211.502	0.42
211.721	0.24
211.94	-0.22
212.159	0.36
212.377	0.33
212.596	0.51
212.815	0.36
213.034	0.24
213.253	0.24
213.472	0.16
213.691	-0.02
213.91	0.1
214.128	0.2
214.347	0.57
214.566	-0.31
214.785	-0.26
215.003	0.43
215.222	0.22
215.441	0.17
215.66	-0.25
215.878	0.21
216.097	0.38
216.316	-0.12
216.534	0.11
216.753	0.17
216.972	0.03
217.19	-0.14
217.409	-0.17
217.627	0.02
217.846	0.12
218.064	0.18
218.283	-0.01
218.501	0.51
218.72	0.29
218.938	-0.06
219.157	-0.09
219.375	0.26
219.594	0.23
219.812	-0.04
220.031	-0.11
220.249	0.47
220.467	0.36
220.686	-0.09
220.904	-0.2
221.122	-0.1
221.341	0.54
221.559	0.15
221.777	-0.1
221.995	0.13
222.214	0.3
222.432	-0.12
222.65	0.36
222.868	0.04
223.086	0.36
223.305	0.17
223.523	0.01
223.741	0.42
223.959	-0.07
224.177	-0.19
224.395	0.06
224.613	0.15
224.831	0.31
225.049	-0.14
225.267	0.12
225.485	0.22
225.703	0.03
225.921	0.12
226.139	0.02
226.357	0.1
226.575	0.2
226.793	0.08
227.011	0.74
227.229	0.17
227.447	0.32
227.665	-0.03
227.883	0.03
228.1	0.13
228.318	0.09
228.536	-0.16
228.754	0.03
228.972	0.16
229.189	0.21
229.407	0.01
229.625	-0.01
229.843	0.39
230.06	0.12
230.278	-0.05
230.496	0.06
230.713	0.21
230.931	0.29
231.149	0.01
231.366	-0.08
231.584	0.14
231.801	0.51
232.019	0.1
232.236	-0.11
232.454	-0.02
232.671	0.02
232.889	0.02
233.106	-0.08
233.324	0.06
233.541	0.15
233.759	0.06
233.976	-0
234.194	-0.02
234.411	0.09
234.628	-0.01
234.846	0.02
235.063	0.14
235.28	0.14
235.498	0.08
235.715	0.04
235.932	0.2
236.149	0.03
236.367	0.02
236.584	0.01
236.801	-0.05
237.018	0.18
237.236	0.06
237.453	-0.1
237.67	0.28
237.887	0.17
238.104	-0.02
238.321	-0.03
238.538	-0.05
238.755	0.18
238.973	-0.12
239.19	0.09
239.407	0.07
239.624	0.11
239.841	-0.07
240.058	-0.06
240.275	0.09
240.492	0.18
240.709	0.06
240.925	0.05
241.142	0.09
241.359	-0
241.576	-0.02
241.793	0.08
242.01	0.04
242.227	0.25
242.444	0.19
242.66	0.16
242.877	-0.01
243.094	-0.03
243.311	0.02
243.527	0.09
243.744	0.14
243.961	0.17
244.178	-0.02
244.394	-0.06
244.611	0.18
244.828	0.26
245.044	-0.06
245.261	0.01
245.477	0.18
245.694	0.13
245.911	0.01
246.127	0.11
246.344	0.26
246.56	0.15
246.777	-0.07
246.993	-0
247.21	0.07
247.426	0.14
247.643	-0.02
247.859	-0.03
248.076	-0.09
248.292	0.29
248.508	0.01
248.725	0.06
248.941	0.08
249.157	0.17
249.374	0.04
249.59	0.07
249.806	0.04
250.023	0.09
250.239	-0.04
250.455	-0
250.671	0.1
250.888	0.03
251.104	0.2
251.32	-0.02
251.536	-0
251.752	0.03
251.969	0.1
252.185	0.05
252.401	0.19
252.617	0.07
252.833	0.02
253.049	0.07
253.265	0.08
253.481	0.13
253.697	0
253.913	-0.06
254.129	0.08
254.345	0.09
254.561	0.04
254.777	0.03
254.993	0.12
255.209	0
255.425	0.07
255.641	-0
255.857	0.06
256.073	0.06
256.288	-0.05
256.504	0.01
256.72	0.09
256.936	0.17
257.152	0.03
257.367	-0.06
257.583	0.15
257.799	0.15
258.015	0.02
258.23	0
258.446	0.32
258.662	0.09
258.877	-0.05
259.093	0.01
259.309	0.08
259.524	0.09
259.74	0.03
259.955	-0.05
260.171	0.08
260.387	0.12
260.602	0.19
260.818	0.06
261.033	-0.01
261.249	-0.03
261.464	-0.03
261.68	-0.05
261.895	0.15
262.11	0.13
262.326	-0.03
262.541	-0.04
262.757	0.12
262.972	0.06
263.187	0.18
263.403	0.02
263.618	0.11
263.833	0.06
264.049	0.02
264.264	0.08
264.479	0.09
264.694	0.18
264.91	-0
265.125	0.03
265.34	0.16
265.555	0.2
265.77	0.1
265.986	-0.02
266.201	0.1
266.416	0.16
266.631	0.03
266.846	0.03
267.061	0.07
267.276	0.09
267.491	-0.11
267.706	0.04
267.921	0.07
268.136	0.14
268.351	-0.01
268.566	-0.02
268.781	0.13
268.996	0.15
269.211	0.08
269.426	-0.05
269.641	0.04
269.856	0.12
270.071	0
270.285	-0.03
270.5	0.14
270.715	0.15
270.93	0.04
271.145	-0
271.359	0.11
271.574	0.01
271.789	0.02
272.004	-0.02
272.218	0.08
272.433	0.14
272.648	-0.03
272.862	0.13
273.077	0.04
273.292	0.04
273.506	-0.01
273.721	-0.05
273.936	0.1
274.15	0.1
274.365	0.01
274.579	0.14
274.794	0.13
275.008	0.13
275.223	-0.06
275.437	0.12
275.652	0.08
275.866	0.08
276.081	0.06
276.295	0.07
276.509	0.06
276.724	0.08
276.938	0.14
277.153	0.11
277.367	0.12
277.581	0.03
277.796	0.03
278.01	-0.03
278.224	0.1
278.438	0.2
278.653	-0.02
278.867	0.01
279.081	0.13
279.295	0.05
279.51	0.05
279.724	-0.03
279.938	0.15
280.152	0.03
280.366	0.01
280.58	0.04
280.794	0.09
281.008	0.08
281.222	0.11
281.437	0.13
281.651	0.07
281.865	0.13
282.079	0.04
282.293	-0.04
282.507	0.02
282.721	0.08
282.935	0.06
283.148	-0
283.362	0.06
283.576	0
283.79	0.05
284.004	0.01
284.218	0.06
284.432	0.04
284.646	0.06
284.859	0.08
285.073	0
285.287	0.09
285.501	0.02
285.714	0.06
285.928	0.09
286.142	0.04
286.356	-0.02
286.569	-0.03
286.783	0.16
286.997	0.08
287.21	0.04
287.424	0.02
287.637	0.05
287.851	0.03
288.065	0.06
288.278	0.04
288.492	0.04
288.705	0.01
288.919	0.01
289.132	-0
289.346	0.1
289.559	-0.05
289.773	0
289.986	0.02
290.2	0.03
290.413	0.08
290.626	0.03
290.84	0.02
291.053	0.01
291.267	0.12
291.48	-0.01
291.693	0.06
291.906	0.01
292.12	0.03
292.333	0
292.546	0.02
292.76	0.13
292.973	0.05
293.186	0.09
293.399	0.04
293.612	0.08
293.826	0.06
294.039	0.03
294.252	0.05
294.465	0.06
294.678	0.06
294.891	0.07
295.104	-0
295.317	0.09
295.53	0.05
295.743	0.03
295.956	0.01
296.169	0.09
296.382	0.08
296.595	0.04
296.808	0.01
297.021	0.11
297.234	0.12
297.447	0.03
297.66	0.03
297.873	0.1
298.086	0.09
298.299	0.04
298.511	-0.01
298.724	0.04
298.937	-0.04
299.15	0.04
299.363	0.07
299.575	0.1
299.788	0.08
300.001	0.01
300.213	-0.04
300.426	0.03
300.639	-0.02
300.852	-0.01
301.064	0.06
301.277	0.12
301.489	0.08
301.702	0.12
301.915	0.03
302.127	0.04
302.34	0.07
302.552	0.05
302.765	0.01
302.977	0.1
303.19	0.01
303.402	0.01
303.615	0.04
303.827	0.02
304.04	0.04
304.252	0.06
304.464	-0.01
304.677	0.15
304.889	0.07
305.102	0.03
305.314	-0
305.526	0.1
305.739	0.09
305.951	0.04
306.163	0.05
306.375	0.12
306.588	0
306.8	-0.01
307.012	0
307.224	0.06
307.436	0.13
307.649	-0.03
307.861	0.06
308.073	0.11
308.285	0.05
308.497	-0.02
308.709	0.01
308.921	0.01
309.133	0.1
309.346	0.03
309.558	0.04
309.77	0.1
309.982	0.09
310.194	0.04
310.406	0.01
310.617	0.11
310.829	0.03
311.041	0.07
311.253	0.04
311.465	0.06
311.677	0.04
311.889	0.04
312.101	0.01
312.313	0.05
312.524	0.11
312.736	0
312.948	0
313.16	0.16
313.372	0.04
313.583	0.05
313.795	0.07
314.007	0.03
314.218	0.09
314.43	0.02
314.642	-0.01
314.853	-0.02
315.065	0.1
315.277	0.05
315.488	0.05
315.7	0.08
315.912	0.08
316.123	0.07
316.335	0.01
316.546	0.16
316.758	0.06
316.969	0.04
317.181	0.03
317.392	0.04
317.604	0.08
317.815	-0.02
318.026	-0.01
318.238	0.02
318.449	0.11
318.661	-0.05
318.872	0.01
319.083	0.01
319.295	0.11
319.506	0.03
319.717	0.03
319.929	0.04
320.14	0.04
320.351	0.04
320.562	0.01
320.774	0.06
320.985	0.05
321.196	0.03
321.407	-0.01
321.618	0.03
321.829	0.07
322.041	0.08
322.252	0.03
322.463	0.06
322.674	0.1
322.885	0.02
323.096	-0
323.307	0.08
323.518	0.05
323.729	0.01
323.94	0.02
324.151	0.06
324.362	0.06
324.573	0.05
324.784	-0
324.995	0.1
325.206	0.06
325.417	0.02
325.628	0.05
325.838	0.05
326.049	0.07
326.26	0.08
326.471	0.06
326.682	0.09
326.892	0.02
327.103	0.05
327.314	0
327.525	0.1
327.735	0.05
327.946	-0
328.157	0.01
328.368	0.07
328.578	-0.01
328.789	0.11
328.999	0.05
329.21	0.05
329.421	0.07
329.631	0.04
329.842	0.01
330.052	0.08
330.263	0.08
330.473	0.1
330.684	0.07
330.894	0.02
331.105	0.07
331.315	0.03
331.526	0.03
331.736	0.12
331.947	0.06
332.157	0.03
332.367	-0.01
332.578	0.04
332.788	0.09
332.999	0.12
333.209	0.06
333.419	0.01
333.629	0.07
333.84	0.1
334.05	0.03
334.26	0.12
334.47	0.05
334.681	0.08
334.891	0.07
335.101	0.13
335.311	0.15
335.521	0.05
335.732	-0.01
335.942	0.13
336.152	0.12
336.362	0.07
336.572	0.04
336.782	0.11
336.992	0.04
337.202	0.06
337.412	0.06
337.622	0.09
337.832	0.06
338.042	0.06
338.252	-0.01
338.462	0.03
338.672	0.06
338.882	0.03
339.092	-0
339.302	0.12
339.511	0.07
339.721	0.01
339.931	0.01
340.141	0.11
340.351	0.11
340.561	0.05
340.77	0.04
340.98	0.04
341.19	0.06
341.4	0.03
341.609	-0
341.819	0.02
342.029	-0.03
342.238	0.08
342.448	0.01
342.658	0.08
342.867	0.08
343.077	0.08
343.286	0.08
343.496	0.06
343.706	0.12
343.915	-0.01
344.125	0.04
344.334	0.06
344.544	0
344.753	0.02
344.963	0.03
345.172	-0
345.381	0.03
345.591	0.04
345.8	0.03
346.01	0.08
346.219	0.08
346.428	-0.07
346.638	0.06
346.847	0.05
347.056	0.08
347.266	0.04
347.475	0.05
347.684	0.06
347.893	0.06
348.103	0.04
348.312	0.05
348.521	0.07
348.73	0.08
348.94	0.04
349.149	0.05
349.358	0.06
349.567	0.04
349.776	0.01
349.985	0.04
350.194	0.12
350.403	0.08
350.612	-0
350.821	0.01
351.03	0.08
351.239	0.02
351.448	0.01
351.657	0.01
351.866	0.15
352.075	0.06
352.284	0
352.493	-0.03
352.702	0.11
352.911	0.06
353.12	0.07
353.329	0.07
353.538	0.06
353.746	0.05
353.955	0.02
354.164	0.07
354.373	0.05
354.582	0.08
354.79	0.07
354.999	0.06
355.208	0.06
355.416	0.09
355.625	0.01
355.834	0.05
356.042	0.08
356.251	0.05
356.46	-0.02
356.668	0.07
356.877	0.13
357.085	0.06
357.294	-0.09
357.503	0.06
357.711	0.01
357.92	0.18
358.128	0.07
358.337	0.05
358.545	0.07
358.754	0.04
358.962	0.09
359.17	0.05
359.379	0.08
359.587	0.1
359.796	0.05
360.004	0.13
360.212	0.09
360.421	0.09
360.629	0.08
360.837	0.04
361.046	0.1
361.254	0.16
361.462	0.05
361.67	0.05
361.879	0.09
362.087	0.16
362.295	0.03
362.503	0.03
362.711	0.03
362.92	0
363.128	0.03
363.336	0.01
363.544	0
363.752	0.05
363.96	0.03
364.168	0.05
364.376	0.04
364.584	0.07
364.792	0.08
365	0.07
365.208	0.08
365.416	0.08
365.624	0.08
365.832	0.01
366.04	0.12
366.248	0.07
366.456	0.06
366.664	0.08
366.872	0.07
367.079	0.05
367.287	0.05
367.495	0.07
367.703	0.08
367.911	0.02
368.118	0.05
368.326	0.04
368.534	-0
368.742	0.13
368.949	0.01
369.157	0.03
369.365	0.1
369.572	0.06
369.78	0.02
369.988	0.08
370.195	0.07
370.403	0.07
370.61	0.06
370.818	0.06
371.026	0.12
371.233	0.02
371.441	0.07
371.648	0.02
371.856	0.08
372.063	0.03
372.271	0.05
372.478	0.04
372.685	0
372.893	0.11
373.1	0.03
373.308	0.03
373.515	0.15
373.722	0.09
373.93	0.08
374.137	0.11
374.344	0.12
374.552	0.15
374.759	0.08
374.966	0.06
375.173	0.06
375.381	0.11
375.588	0.05
375.795	-0.03
376.002	0.03
376.209	0.04
376.417	0.05
376.624	0.06
376.831	0.08
377.038	0.06
377.245	-0.03
377.452	0.03
377.659	0.06
377.866	0.05
378.073	0.04
378.28	0.07
378.487	0.11
378.694	0.11
378.901	0.07
379.108	0.07
379.315	0.12
379.522	0.15
379.729	0.09
379.936	0.09
380.143	0.09
380.35	0.12
380.557	0.07
380.763	0.08
380.97	0.09
381.177	0.1
381.384	0.06
381.591	0.09
381.797	0.07
382.004	0.13
382.211	0.12
382.418	0.08
382.624	0.08
382.831	0.11
383.038	0.03
383.244	0.05
383.451	0.08
383.658	0.11
383.864	0.06
384.071	0.06
384.277	0.18
384.484	0.06
384.69	0.08
384.897	0.05
385.103	0.11
385.31	0.08
385.516	0.08
385.723	0.05
385.929	0.1
386.136	0.05
386.342	0.14
386.549	0.06
386.755	0.12
386.961	0.09
387.168	0.07
387.374	0.05
387.58	0.17
387.787	0.11
387.993	0.11
388.199	0.05
388.406	0.05
388.612	0.11
388.818	0.09
389.024	0.08
389.231	0.1
389.437	0.22
389.643	0.18
389.849	0.08
390.055	0.09
390.261	0.12
390.467	0.12
390.674	0.08
390.88	0.08
391.086	0.15
391.292	0.1
391.498	0.18
391.704	0.17
391.91	0.11
392.116	0.09
392.322	0.05
392.528	0.16
392.734	0.15
392.94	0.16
393.146	0.12
393.352	0.16
393.557	0.14
393.763	0.14
393.969	0.19
394.175	0.16
394.381	0.17
394.587	0.11
394.792	0.17
394.998	0.25
395.204	0.22
395.41	0.18
395.615	0.22
395.821	0.18
396.027	0.25
396.233	0.2
396.438	0.26
396.644	0.31
396.85	0.29
397.055	0.23
397.261	0.29
397.466	0.34
397.672	0.24
397.878	0.35
398.083	0.33
398.289	0.24
398.494	0.38
398.7	0.32
398.905	0.28
399.111	0.41
399.316	0.27
399.522	0.36
399.727	0.38
399.932	0.39
400.138	0.37
400.343	0.44
400.549	0.43
400.754	0.48
400.959	0.45
401.165	0.55
401.37	0.5
401.575	0.68
401.78	0.55
401.986	0.57
402.191	0.65
402.396	0.64
402.601	0.74
402.807	0.76
403.012	0.76
403.217	0.82
403.422	0.79
403.627	0.82
403.832	0.89
404.037	0.97
404.243	1.01
404.448	1.03
404.653	1.05
404.858	1.14
405.063	1.18
405.268	1.2
405.473	1.19
405.678	1.25
405.883	1.53
406.088	1.47
406.293	1.47
406.498	1.52
406.703	1.57
406.907	1.65
407.112	1.8
407.317	1.87
407.522	1.98
407.727	2.09
407.932	2.18
408.136	2.34
408.341	2.29
408.546	2.49
408.751	2.51
408.956	2.65
409.16	2.82
409.365	2.93
409.57	2.95
409.774	3.05
409.979	3.24
410.184	3.31
410.388	3.37
410.593	3.63
410.798	3.75
411.002	4.02
411.207	4.07
411.411	4.3
411.616	4.32
411.82	4.57
412.025	4.76
412.229	4.93
412.434	5.16
412.638	5.23
412.843	5.47
413.047	5.66
413.252	5.65
413.456	6.15
413.66	6.32
413.865	6.37
414.069	6.6
414.273	6.87
414.478	6.94
414.682	7.21
414.886	7.47
415.091	7.59
415.295	7.86
415.499	8.25
415.703	8.29
415.908	8.73
416.112	8.85
416.316	9.27
416.52	9.53
416.724	9.78
416.929	10.19
417.133	10.55
417.337	10.61
417.541	10.9
417.745	11.19
417.949	11.44
418.153	11.88
418.357	12.12
418.561	12.6
418.765	12.71
418.969	12.95
419.173	13.67
419.377	13.67
419.581	14.27
419.785	14.57
419.989	14.72
420.193	15.21
420.397	15.26
420.601	15.53
420.804	15.95
421.008	15.84
421.212	16.19
421.416	15.81
421.62	16.05
421.823	16.14
422.027	16.16
422.231	15.95
422.435	15.74
422.638	15.71
422.842	15.8
423.046	16.05
423.249	16.29
423.453	15.99
423.657	16.22
423.86	16.1
424.064	16.26
424.268	16.11
424.471	15.92
424.675	15.96
424.878	15.8
425.082	15.84
425.285	16.22
425.489	15.58
425.692	15.5
425.896	15.02
426.099	15.07
426.303	15.02
426.506	14.99
426.71	15
426.913	14.61
427.116	14.6
427.32	14.04
427.523	13.73
427.726	13.88
427.93	13.57
428.133	13.7
428.336	13.53
428.54	13.13
428.743	13.05
428.946	12.9
429.149	12.5
429.353	11.92
429.556	11.6
429.759	11.09
429.962	10.91
430.165	10.65
430.368	9.79
430.571	9.53
430.775	9.28
430.978	8.8
431.181	8.55
431.384	8.31
431.587	8.06
431.79	8.24
431.993	7.81
432.196	7.68
432.399	7.73
432.602	7.65
432.805	7.28
433.008	7.59
433.211	7.03
433.414	7.1
433.616	6.9
433.819	6.58
434.022	6.47
434.225	6.47
434.428	6.21
434.631	6.25
434.833	5.85
435.036	5.82
435.239	5.7
435.442	5.57
435.645	5.44
435.847	5.32
436.05	5.24
436.253	5.13
436.455	5.02
436.658	4.86
436.861	4.78
437.063	4.78
437.266	4.43
437.468	4.48
437.671	4.5
437.874	4.25
438.076	3.93
438.279	4.02
438.481	3.86
438.684	4.05
438.886	3.82
439.089	3.75
439.291	3.68
439.494	3.6
439.696	3.45
439.899	3.52
440.101	3.48
440.303	3.24
440.506	3.44
440.708	3.26
440.91	3.2
441.113	3.02
441.315	3.06
441.517	2.85
441.72	2.94
441.922	2.66
442.124	2.56
442.326	2.66
442.529	2.62
442.731	2.44
442.933	2.45
443.135	2.27
443.337	2.19
443.539	2.22
443.742	2.03
443.944	2.08
444.146	1.96
444.348	1.95
444.55	1.84
444.752	1.8
444.954	1.71
445.156	1.74
445.358	1.63
445.56	1.75
445.762	1.58
445.964	1.59
446.166	1.48
446.368	1.53
446.57	1.51
446.772	1.37
446.974	1.34
447.175	1.34
447.377	1.3
447.579	1.3
447.781	1.17
447.983	1.27
448.184	1.18
448.386	1.16
448.588	1.04
448.79	1.06
448.991	1.09
449.193	1.07
449.395	1.02
449.597	1.07
449.798	1.03
450	0.96
450.202	0.93
450.403	0.93
450.605	0.94
450.806	0.89
451.008	0.76
451.21	0.87
451.411	0.81
451.613	0.77
451.814	0.77
452.016	0.86
452.217	0.72
452.419	0.78
452.62	0.75
452.821	0.73
453.023	0.81
453.224	0.76
453.426	0.66
453.627	0.65
453.828	0.64
454.03	0.67
454.231	0.72
454.432	0.56
454.634	0.69
454.835	0.61
455.036	0.53
455.238	0.6
455.439	0.61
455.64	0.54
455.841	0.54
456.042	0.64
456.244	0.5
456.445	0.49
456.646	0.41
456.847	0.47
457.048	0.58
457.249	0.55
457.45	0.69
457.651	0.4
457.852	0.5
458.054	0.46
458.255	0.37
458.456	0.4
458.657	0.41
458.858	0.36
459.058	0.42
459.259	0.46
459.46	0.36
459.661	0.35
459.862	0.51
460.063	0.32
460.264	0.42
460.465	0.3
460.666	0.47
460.866	0.32
461.067	0.28
461.268	0.3
461.469	0.33
461.67	0.33
461.87	0.28
462.071	0.26
462.272	0.25
462.473	0.32
462.673	0.36
462.874	0.23
463.075	0.29
463.275	0.18
463.476	0.32
463.676	0.31
463.877	0.25
464.078	0.2
464.278	0.32
464.479	0.26
464.679	0.25
464.88	0.21
465.08	0.29
465.281	0.2
465.481	0.18
465.682	0.23
465.882	0.26
466.083	0.22
466.283	0.2
466.483	0.22
466.684	0.13
466.884	0.12
467.085	0.21
467.285	0.2
467.485	0.2
467.686	0.2
467.886	0.16
468.086	0.18
468.286	0.24
468.487	0.23
468.687	0.16
468.887	0.19
469.087	0.21
469.287	0.19
469.488	0.16
469.688	0.2
469.888	0.22
470.088	0.23
470.288	0.24
470.488	0.22
470.688	0.15
470.888	0.18
471.088	0.15
471.288	0.22
471.488	0.15
471.688	0.19
471.888	0.13
472.088	0.22
472.288	0.22
472.488	0.12
472.688	0.1
472.888	0.14
473.088	0.14
473.288	0.15
473.488	0.15
473.688	0.25
473.887	0.19
474.087	0.09
474.287	0.14
474.487	0.11
474.687	0.17
474.886	0.07
475.086	0.11
475.286	0.14
475.486	0.15
475.685	0.14
475.885	0.11
476.085	0.12
476.284	0.15
476.484	0.1
476.684	0.14
476.883	0.21
477.083	0.13
477.282	0.11
477.482	0.17
477.681	0.15
477.881	0.14
478.08	0.07
478.28	0.1
478.479	0.11
478.679	0.22
478.878	0.05
479.078	0.05
479.277	0.1
479.477	0.09
479.676	0.13
479.875	0.09
480.075	0.06
480.274	0.13
480.473	0.11
480.673	0.03
480.872	0.14
481.071	0.08
481.271	0.11
481.47	0.06
481.669	0.1
481.868	0.05
482.067	0.05
482.267	0.07
482.466	0.08
482.665	0.06
482.864	0.04
483.063	0.05
483.262	0.1
483.461	0.12
483.661	0.1
483.86	0.09
484.059	0.09
484.258	0.07
484.457	0.08
484.656	0.09
484.855	0.1
485.054	0.04
485.253	0.05
485.452	0.02
485.651	0.08
485.849	0.05
486.048	0.06
486.247	0.04
486.446	0.09
486.645	0.03
486.844	0.02
487.043	0.06
487.241	0.1
487.44	0.01
487.639	0.06
487.838	0.06
488.037	0.05
488.235	0.12
488.434	0.07
488.633	0.02
488.831	0.08
489.03	0.09
489.229	0.07
489.427	0.05
489.626	0.09
489.825	0.09
490.023	0.05
490.222	0.05
490.42	0.1
490.619	0.09
490.817	0.07
491.016	0.04
491.214	0.11
491.413	0.04
491.611	0.04
491.81	0.05
492.008	0.04
492.207	0.07
492.405	0.04
492.604	0.01
492.802	0.04
493	0.07
493.199	0.05
493.397	0.03
493.595	0.07
493.794	0.04
493.992	0.11
494.19	0.05
494.388	0.06
494.587	0.02
494.785	0.05
494.983	0
495.181	0.06
495.379	0.06
495.578	0.03
495.776	0.03
495.974	0.08
496.172	0.03
496.37	0.01
496.568	0.04
496.766	0.02
496.964	0.05
497.162	0.05
497.36	0.02
497.558	0.06
497.756	0.05
497.954	0.05
498.152	0.04
498.35	0.04
498.548	0.06
498.746	0.04
498.944	0.02
499.142	0.03
499.34	0.01
499.538	0.05
499.736	0.03
499.933	0.1
500.131	0.05
500.329	0.03
500.527	0.08
500.725	0.07
500.922	0.05
501.12	0.05
501.318	0.04
501.516	0.03
501.713	0.05
501.911	0.01
502.109	0
502.306	0.08
502.504	0.03
502.701	0.01
502.899	0.03
503.097	0.08
503.294	0.03
503.492	0.03
503.689	0.05
503.887	0.06
504.084	0.08
504.282	0.03
504.479	-0
504.677	0.03
504.874	0.02
505.072	0.04
505.269	0.01
505.466	0.07
505.664	0.06
505.861	0.02
506.059	0.02
506.256	0.07
506.453	0.03
506.651	0.08
506.848	0.06
507.045	0.05
507.242	0.04
507.44	0.03
507.637	0.03
507.834	0.03
508.031	0.05
508.229	0.01
508.426	0.05
508.623	0.06
508.82	0.02
509.017	0.01
509.214	0.02
509.411	0.05
509.608	0
509.805	0.04
510.003	0.01
510.2	0.03
510.397	0.06
510.594	0
510.791	0.02
510.988	0.04
511.184	0.07
511.381	0.01
511.578	0
511.775	0.08
511.972	0
512.169	0.02
512.366	0.02
512.563	0.05
512.76	0.03
512.956	0.05
513.153	0.02
513.35	0.04
513.547	0.01
513.744	0.02
513.94	0.01
514.137	0.06
514.334	0.05
514.53	0.03
514.727	0.03
514.924	0.1
515.12	0.01
515.317	0
515.514	0
515.71	0.03
515.907	0.03
516.103	0.03
516.3	0.04
516.497	0.07
516.693	0.06
516.89	0.03
517.086	0.01
517.283	0.05
517.479	0.01
517.676	0.02
517.872	-0
518.068	-0
518.265	0.01
518.461	0.02
518.658	0.01
518.854	0.04
519.05	0.03
519.247	0
519.443	0.04
519.639	0.04
519.836	0.04
520.032	0.03
520.228	0.04
520.424	0.08
520.621	0.06
520.817	0.04
521.013	0.04
521.209	0.04
521.405	0.07
521.601	0.04
521.798	0.04
521.994	0.09
522.19	0.01
522.386	0.01
522.582	0.01
522.778	0.03
522.974	0
523.17	0.02
523.366	0.03
523.562	0.07
523.758	0.04
523.954	0.02
524.15	0.02
524.346	0.06
524.542	0.01
524.738	0.01
524.934	0.02
525.129	0.02
525.325	0.06
525.521	0.02
525.717	0.04
525.913	0.04
526.109	0.01
526.304	0.01
526.5	0.05
526.696	0.04
526.892	0.02
527.087	0.04
527.283	0.02
527.479	0.03
527.674	0.03
527.87	0.03
528.066	0.02
528.261	0.05
528.457	0.04
528.653	0.01
528.848	0.01
529.044	0.05
529.239	0.02
529.435	0.04
529.63	0.02
529.826	0.06
530.021	0.04
530.217	0.04
530.412	0.02
530.608	0
530.803	0.02
530.999	0.02
531.194	-0.01
531.389	0.04
531.585	-0.02
531.78	0.03
531.975	0.02
532.171	0.04
532.366	0.05
532.561	0.05
532.757	0.01
532.952	0.02
533.147	0.05
533.342	0.01
533.538	0.01
533.733	0.07
533.928	0.02
534.123	0.01
534.318	-0.01
534.513	0.02
534.709	0.03
534.904	0.01
535.099	0.01
535.294	0.03
535.489	0.02
535.684	0.01
535.879	-0.01
536.074	0.04
536.269	0.03
536.464	0.02
536.659	0.03
536.854	-0
537.049	0.04
537.244	0.02
537.439	0.02
537.634	0.04
537.828	0.04
538.023	0.03
538.218	0
538.413	0.03
538.608	0.01
538.803	0.02
538.997	-0.02
539.192	0.04
539.387	0.04
539.582	0.03
539.776	0.02
539.971	0.01
540.166	0.04
540.36	-0
540.555	0.01
540.75	0.02
540.944	0.04
541.139	-0.01
541.334	0.02
541.528	0.04
541.723	0.05
541.917	0
542.112	-0.03
542.306	0.03
542.501	0.01
542.695	0.04
542.89	0.01
543.084	0.03
543.279	0.02
543.473	0.02
543.668	0.03
543.862	0.01
544.056	0.05
544.251	0.02
544.445	0.03
544.64	0.02
544.834	0.01
545.028	0
545.222	0.05
545.417	0.01
545.611	0.03
545.805	0.03
546	0.01
546.194	0.02
546.388	0.01
546.582	0.04
546.776	0.02
546.97	0.02
547.165	0.04
547.359	0.04
547.553	-0
547.747	0.02
547.941	0.01
548.135	0.03
548.329	0.03
548.523	0.02
548.717	0.01
548.911	-0.01
549.105	0.01
549.299	0.02
549.493	0.04
549.687	0.04
549.881	0.03
550.075	0.01
550.269	0
550.463	0.05
550.657	-0.02
550.85	0.02
551.044	0.02
551.238	0.02
551.432	-0
551.626	-0.02
551.82	0.01
552.013	0
552.207	0.04
552.401	0.04
552.594	0.04
552.788	0.02
552.982	0.02
553.176	-0.01
553.369	0.04
553.563	0.03
553.756	-0.01
553.95	-0.02
554.144	0.03
554.337	0.04
554.531	0.03
554.724	0.03
554.918	0.01
555.111	0.05
555.305	0.03
555.498	0.07
555.692	0.03
555.885	-0
556.079	0
556.272	0.01
556.466	0.06
556.659	0.01
556.852	0.02
557.046	0
557.239	0.06
557.432	-0.01
557.626	0.01
557.819	0.03
558.012	0.05
558.206	0.03
558.399	0.01
558.592	0.03
558.785	0.02
558.979	0.03
559.172	0.01
559.365	0.04
559.558	0.04
559.751	0.01
559.944	0.04
560.138	-0
560.331	0.01
560.524	0.01
560.717	0
560.91	0.02
561.103	0.03
561.296	0.03
561.489	0.05
561.682	0.01
561.875	0.04
562.068	0.03
562.261	0.03
562.454	0.03
562.647	0.02
562.84	0.03
563.032	-0.01
563.225	0.02
563.418	0.02
563.611	0.01
563.804	0.01
563.997	-0.01
564.19	-0.01
564.382	0.03
564.575	0.01
564.768	0.02
564.961	0.02
565.153	0.02
565.346	0.03
565.539	0.03
565.731	0.05
565.924	0.06
566.117	0.04
566.309	0
566.502	-0
566.695	-0
566.887	0.01
567.08	-0.01
567.272	0.01
567.465	0.01
567.657	-0
567.85	0.01
568.042	0.04
568.235	0.05
568.427	0.01
568.62	0.01
568.812	0.03
569.005	0.02
569.197	-0.01
569.389	0.02
569.582	0.04
569.774	0.02
569.966	-0.02
570.159	-0.02
570.351	0.04
570.543	0
570.736	-0.01
570.928	-0
571.12	0.03
571.312	0.01
571.505	-0.01
571.697	0.06
571.889	0
572.081	0.02
572.273	0.01
572.465	0.05
572.658	0.01
572.85	0.01
573.042	-0.02
573.234	0.01
573.426	0.04
573.618	-0.01
573.81	0.04
574.002	0.05
574.194	0.05
574.386	-0.03
574.578	-0.05
574.77	0.01
574.962	0
575.154	-0.02
575.346	0.01
575.538	0.04
575.729	-0.03
575.921	-0
576.113	0.01
576.305	0.05
576.497	-0
576.689	-0.01
576.88	-0.01
577.072	0.06
577.264	-0.01
577.456	0.01
577.647	-0.04
577.839	0.01
578.031	0.05
578.223	-0.01
578.414	0
578.606	0.04
578.798	0.03
578.989	-0.01
579.181	0.01
579.372	-0
579.564	0.01
579.755	0.02
579.947	0
580.139	0.02
580.33	-0.04
580.522	0
580.713	-0.06
580.905	0.01
581.096	0.03
581.287	0
581.479	0.01
581.67	0.03
581.862	0.01
582.053	-0.02
582.244	-0.04
582.436	0.04
582.627	0.01
582.818	-0.01
583.01	-0.01
583.201	0.04
583.392	0.03
583.583	0
583.775	-0.02
583.966	0.01
584.157	-0
584.348	0
584.54	-0.03
584.731	0.03
584.922	0.01
585.113	0
585.304	0.06
585.495	0.04
585.686	0.02
585.877	0
586.068	0.01
586.259	0
586.45	0.02
586.641	-0
586.832	-0.05
587.023	0.02
587.214	-0
587.405	0.02
587.596	-0.01
587.787	0.06
587.978	0.03
588.169	-0.01
588.36	0.01
588.551	0.03
588.742	-0.02
588.932	0.03
589.123	-0.01
589.314	0.02
589.505	0.02
589.696	-0.01
589.886	-0.04
590.077	-0.03
590.268	0.01
590.458	-0.03
590.649	-0.02
590.84	0.04
591.03	-0
591.221	-0.02
591.412	-0.03
591.602	0.03
591.793	0.03
591.984	-0.04
592.174	0.02
592.365	0.07
592.555	-0
592.746	0.03
592.936	0.03
593.127	0.03
593.317	0.03
593.508	-0.01
593.698	-0
593.889	0
594.079	-0
594.269	-0
594.46	0
594.65	0.03
594.84	0
595.031	-0.02
595.221	-0.02
595.411	-0.03
595.602	0.04
595.792	0
595.982	-0.01
596.172	0.06
596.363	0.02
596.553	0
596.743	0
596.933	0.02
597.123	0.04
597.314	-0.01
597.504	-0.03
597.694	0.04
597.884	0.01
598.074	0
598.264	-0
598.454	0.01
598.644	0.02
598.834	0.01
599.024	-0.04
599.214	-0.01
599.404	0.01
599.594	-0.02
599.784	-0.02
599.974	0.04
600.164	0.04
600.354	-0.03
600.544	-0.04
600.734	0.04
600.924	0.06
601.114	-0.02
601.303	0.02
601.493	0.02
601.683	0.02
601.873	0.03
602.063	-0.05
602.252	0.03
602.442	-0.08
602.632	-0.03
602.821	-0.02
603.011	0.03
603.201	0
603.39	-0.02
603.58	-0.02
603.77	0.01
603.959	0.03
604.149	0.01
604.339	-0.02
604.528	0.04
604.718	0.03
604.907	-0.01
605.097	-0
605.286	-0.01
605.476	0.03
605.665	-0
605.855	0.03
606.044	0.04
606.234	0.03
606.423	0.03
606.612	-0.01
606.802	0.03
606.991	0.02
607.181	0.02
607.37	-0.05
607.559	-0
607.749	-0.04
607.938	-0.01
608.127	-0.01
608.316	-0.01
608.506	0.04
608.695	0.01
608.884	-0.04
609.073	-0
609.263	0.02
609.452	0.04
609.641	0.03
609.83	-0.02
610.019	0.01
610.208	-0.02
610.397	-0
610.586	0.04
610.775	0.01
610.965	-0.01
611.154	0
611.343	0.03
611.532	0.01
611.721	-0.03
611.91	-0.03
612.099	0.01
612.287	-0
612.476	-0.04
612.665	0
612.854	-0.02
613.043	0.02
613.232	-0.01
613.421	-0.06
613.61	-0
613.798	0.01
613.987	0.02
614.176	0.02
614.365	0.03
614.554	-0.01
614.742	0.02
614.931	-0.03
615.12	0.03
615.309	-0.02
615.497	0
615.686	-0.02
615.875	-0.01
616.063	0.02
616.252	-0.01
616.44	-0.02
616.629	0
616.818	0.07
617.006	-0.01
617.195	0.01
617.383	0
617.572	0.03
617.76	-0
617.949	-0.01
618.137	0.03
618.326	0.04
618.514	-0.02
618.703	-0.02
618.891	0.06
619.079	-0.05
619.268	0.03
619.456	-0.02
619.644	0.07
619.833	-0.03
620.021	0.02
620.209	-0.04
620.398	0.06
620.586	0.03
620.774	0.02
620.962	-0.01
621.151	0.1
621.339	-0.02
621.527	-0.05
621.715	-0.02
621.903	-0.04
622.092	-0.04
622.28	0.04
622.468	0.01
622.656	-0.01
622.844	0.03
623.032	-0.01
623.22	-0.04
623.408	0.05
623.596	0.01
623.784	0.05
623.972	0.02
624.16	-0.03
624.348	0.05
624.536	0
624.724	0
624.912	0.04
625.1	0.06
625.288	-0.03
625.476	-0.01
625.664	0.03
625.851	-0
626.039	0.01
626.227	0.04
626.415	0.02
626.603	-0.08
626.79	0.02
626.978	-0.01
627.166	0.02
627.354	-0.01
627.541	0
627.729	-0.05
627.917	0.02
628.104	0.04
628.292	0.03
628.48	-0
628.667	0.02
628.855	0.02
629.042	-0.01
629.23	0.01
629.418	0.01
629.605	-0.01
629.793	-0
629.98	-0.02
630.168	0.02
630.355	-0.01
630.543	0.01
630.73	-0.04
630.917	0.04
631.105	0.09
631.292	-0.01
631.48	-0.01
631.667	0.07
631.854	0.02
632.042	0.01
632.229	-0.03
632.416	0.01
632.604	0.01
632.791	-0.02
632.978	0
633.165	0.02
633.353	0.09
633.54	0.04
633.727	-0.03
633.914	-0.01
634.101	-0.05
634.289	0.06
634.476	-0.03
634.663	-0.02
634.85	-0.01
635.037	-0.02
635.224	-0.05
635.411	0.06
635.598	0.05
635.785	-0
635.972	-0
636.159	0.06
636.346	-0.03
636.533	-0.02
636.72	-0.01
636.907	0.01
637.094	0.04
637.281	-0.02
637.468	0.02
637.655	0.02
637.842	0
638.029	-0.05
638.215	0.02
638.402	0.01
638.589	0.02
638.776	-0
638.963	-0.03
639.149	0.04
639.336	0.08
639.523	0.01
639.709	0
639.896	-0
640.083	0.06
640.27	-0.04
640.456	0
640.643	-0.02
640.829	-0.03
641.016	-0.01
641.203	-0.06
641.389	0.03
641.576	0.02
641.762	-0.01
641.949	-0.01
642.135	0.03
642.322	0.02
642.508	-0.06
642.695	0
642.881	0
643.068	-0.02
643.254	-0.01
643.441	0.08
643.627	0.02
643.813	-0.04
644	0.03
644.186	-0.03
644.372	0.04
644.559	0.03
644.745	-0.01
644.931	-0.04
645.118	0
645.304	0.01
645.49	-0.01
645.676	-0.03
645.862	-0.01
646.049	0.05
646.235	-0
646.421	0.04
646.607	0.07
646.793	-0.01
646.979	-0.03
647.165	0.01
647.352	-0.02
647.538	0.02
647.724	-0.01
647.91	0.01
648.096	0.07
648.282	0.05
648.468	-0.03
648.654	0.02
648.84	0.04
649.026	0
649.212	0.01
649.397	-0.03
649.583	-0.03
649.769	0.01
649.955	0.01
650.141	-0
650.327	0.03
650.513	0.02
650.698	0.03
650.884	-0.07
651.07	-0
651.256	0.05
651.442	-0
651.627	0.02
651.813	0.03
651.999	0.03
652.184	0.03
652.37	-0.02
652.556	-0.05
652.741	0.04
652.927	-0.06
653.113	-0.01
653.298	-0
653.484	-0.01
653.669	-0.04
653.855	0
654.04	0.05
654.226	0.02
654.412	-0.02
654.597	-0.04
654.782	0
654.968	0.04
655.153	0.02
655.339	-0.02
655.524	-0.06
655.71	0.04
655.895	0.01
656.08	-0.02
656.266	0.03
656.451	0.03
656.636	-0.02
656.822	0.02
657.007	-0.01
657.192	-0.04
657.378	-0.01
657.563	0.02
657.748	0.06
657.933	0.07
658.118	-0.02
658.304	-0.04
658.489	0.07
658.674	0.01
658.859	-0.03
659.044	-0.04
659.229	0.03
659.414	-0.02
659.599	0.01
659.785	-0.04
659.97	-0.02
660.155	0.05
660.34	0.03
660.525	-0.03
660.71	-0.01
660.895	0.02
661.08	-0.02
661.264	-0.02
661.449	0.04
661.634	0.07
661.819	0.05
662.004	-0.03
662.189	-0.04
662.374	-0.01
662.559	-0.02
662.743	-0.03
662.928	-0.02
663.113	-0.02
663.298	-0.04
663.483	-0
663.667	0.03
663.852	-0.04
664.037	0.05
664.221	-0.01
664.406	0.02
664.591	0.01
664.775	0.02
664.96	-0.02
665.145	0.04
665.329	0.06
665.514	-0.01
665.698	0
665.883	-0.09
666.068	0.07
666.252	-0.05
666.437	-0.06
666.621	-0.01
666.806	0.02
666.99	-0.02
667.174	-0.05
667.359	0.05
667.543	-0.02
667.728	0.02
667.912	-0.05
668.096	0.07
668.281	-0.01
668.465	-0.01
668.649	0.02
668.834	-0.06
669.018	0.04
669.202	-0.02
669.387	-0.02
669.571	0.05
669.755	-0.04
669.939	-0.01
670.124	0.04
670.308	0.04
670.492	0.06
670.676	-0
670.86	-0.01
671.044	-0.05
671.228	0.05
671.413	-0.03
671.597	0.01
671.781	-0
671.965	0.04
672.149	-0.03
672.333	-0.02
672.517	-0.06
672.701	0
672.885	0
673.069	-0.09
673.253	0.08
673.437	-0.02
673.621	-0
673.804	0
673.988	0.01
674.172	-0.02
674.356	-0.08
674.54	-0.02
674.724	0.14
674.908	-0.02
675.091	0.01
675.275	-0.03
675.459	0.01
675.643	0
675.826	0.05
676.01	0.02
676.194	-0.01
676.377	0.04
676.561	0.07
676.745	0.02
676.928	0.06
677.112	0.02
677.296	-0.05
677.479	-0.02
677.663	-0.01
677.846	0.04
678.03	0
678.213	-0.02
678.397	0.05
678.58	-0
678.764	-0.03
678.947	-0.04
679.131	0.02
679.314	0.08
679.498	-0.02
679.681	0.02
679.865	0.03
680.048	-0.02
680.231	-0.03
680.415	-0.02
680.598	0.02
680.781	-0
680.965	-0
681.148	0.01
681.331	-0.02
681.514	0.04
681.698	-0.04
681.881	-0
682.064	0.01
682.247	-0.01
682.43	-0.04
682.614	0.05
682.797	0
682.98	0.01
683.163	-0.04
683.346	0.03
683.529	-0.04
683.712	-0.06
683.895	-0
684.078	-0.04
684.261	-0.02
684.444	0.02
684.627	0.01
684.81	-0.04
684.993	-0.03
685.176	0.01
685.359	-0.08
685.542	-0.05
685.725	0.01
685.908	-0.02
686.091	-0.06
686.274	0.07
686.457	-0.03
686.639	-0.02
686.822	0.05
687.005	-0.02
687.188	0.02
687.371	0.1
687.553	0.03
687.736	0.05
687.919	0.08
688.102	0.03
688.284	-0.02
688.467	0
688.65	-0.01
688.832	-0
689.015	0.02
689.197	-0.06
689.38	0.12
689.563	0.06
689.745	-0.06
689.928	-0.03
690.11	-0.01
690.293	0.03
690.475	-0.03
690.658	-0
690.84	0.03
691.023	0.02
691.205	-0.03
691.388	-0
691.57	0.04
691.752	0.07
691.935	-0.1
692.117	-0.02
692.3	0.05
692.482	-0.01
692.664	-0.01
692.847	-0.01
693.029	0.13
693.211	0.04
693.393	0.04
693.576	-0.02
693.758	-0
693.94	-0.01
694.122	-0.06
694.304	-0.01
694.487	0.03
694.669	0.06
694.851	-0.07
695.033	0.02
695.215	-0.03
695.397	0.02
695.579	0.02
695.761	-0.09
695.943	-0.05
696.125	0.07
696.308	0.06
696.49	-0.09
696.671	0.12
696.853	0.03
697.035	0.11
697.217	0.04
697.399	0.06
697.581	0.01
697.763	0.02
697.945	-0.06
698.127	0.02
698.309	0.07
698.491	0.02
698.672	0.03
698.854	0.09
699.036	0.07
699.218	-0.04
699.399	0.03
699.581	0.04
699.763	-0.02
699.945	-0.07
700.126	-0.04
700.308	0.01
700.49	-0
700.671	-0.08
700.853	0.01
701.035	0.02
701.216	0.05
701.398	-0.08
701.579	-0.06
701.761	0.02
701.943	0.04
702.124	-0.08
702.306	0.02
702.487	0.14
702.669	-0.01
702.85	-0.05
703.031	-0.08
703.213	0.09
703.394	0.05
703.576	0.03
703.757	0.11
703.938	0.03
704.12	0.13
704.301	-0.03
704.483	-0.04
704.664	0.05
704.845	0.08
705.026	0.02
705.208	-0.01
705.389	0.01
705.57	0.04
705.751	-0.02
705.933	-0.01
706.114	0.07
706.295	0.03
706.476	-0.08
706.657	0.04
706.838	0.04
707.02	0.09
707.201	-0
707.382	-0.07
707.563	0.05
707.744	-0.02
707.925	-0.03
708.106	-0.08
708.287	0.07
708.468	0.1
708.649	0
708.83	0.05
709.011	-0.04
709.192	0.04
709.373	-0.1
709.554	0.02
709.734	0.04
709.915	0.02
710.096	-0.06
710.277	-0.1
710.458	-0
710.639	0.07
710.819	-0.07
711	-0.03
711.181	0.05
711.362	0.08
711.542	0.03
711.723	-0.03
711.904	0.03
712.085	0.04
712.265	0.04
712.446	-0.04
712.627	0.02
712.807	-0.02
712.988	0.06
713.168	-0.1
713.349	0.07
713.53	-0.07
713.71	-0.09
713.891	-0.01
714.071	-0.02
714.252	-0.06
714.432	0.03
714.613	-0.03
714.793	-0.03
714.974	0.06
715.154	0.07
715.334	0.08
715.515	0.13
715.695	-0.08
715.876	-0.02
716.056	-0.04
716.236	-0.03
716.417	0.01
716.597	-0.05
716.777	0.15
716.957	-0.02
717.138	-0.02
717.318	-0.02
717.498	-0.07
717.678	0.08
717.859	0.01
718.039	-0.14
718.219	0.02
718.399	0.07
718.579	-0.04
718.759	-0.11
718.939	0.06
719.12	-0.01
719.3	0.02
719.48	-0.16
719.66	-0.09
719.84	0.06
720.02	0
720.2	-0.06
720.38	-0.02
720.56	0.11
720.74	-0.05
720.92	0.05
721.1	0.08
721.279	0.08
721.459	0.05
721.639	-0.09
721.819	0.01
721.999	0.02
722.179	0.04
722.359	-0.05
722.538	0.02
722.718	0.01
722.898	-0.02
723.078	-0.03
723.257	-0.06
723.437	0.07
723.617	-0.02
723.797	-0.08
723.976	-0.01
724.156	0.08
724.336	0.05
724.515	0.1
724.695	-0.02
724.874	-0.02
725.054	0.09
725.234	-0.08
725.413	0.07
725.593	0.02
725.772	-0.03
725.952	0.01
726.131	-0.01
726.311	-0
726.49	-0.06
726.67	-0.06
726.849	-0
727.028	-0
727.208	-0.03
727.387	0.05
727.567	-0.09
727.746	-0.03
727.925	-0.05
728.105	-0.13
728.284	-0.05
728.463	0.03
728.643	0.04
728.822	-0.11
729.001	-0.07
729.18	0.06
729.359	-0.01
729.539	0.1
729.718	-0.02
729.897	0.02
730.076	0
730.255	-0.13
730.434	0.02
730.614	0.1
730.793	0.14
730.972	-0.06
731.151	-0.08
731.33	0.16
731.509	0.07
731.688	0.05
731.867	0.03
732.046	-0.15
732.225	0.26
732.404	-0.07
732.583	-0.07
732.762	0.02
732.941	0.04
733.12	0.07
733.298	-0.09
733.477	0.1
733.656	-0.08
733.835	-0.01
734.014	0.06
734.193	-0.01
734.371	-0.01
734.55	0.02
734.729	-0.11
734.908	0.03
735.086	0.05
735.265	0.05
735.444	-0.06
735.623	-0.11
735.801	-0.06
735.98	0.03
736.159	-0.06
736.337	0.15
736.516	-0.01
736.694	0.06
736.873	-0.04
737.052	0.13
737.23	0.18
737.409	-0.02
737.587	0.21
737.766	-0.21
737.944	-0.01
738.123	-0.01
738.301	0.07
738.479	-0.04
738.658	0.08
738.836	-0.26
739.015	-0.02
739.193	0.13
739.371	-0.04
739.55	-0
739.728	-0.08
739.906	0.05
740.085	0.15
740.263	-0.04
740.441	-0.2
740.62	0.22
740.798	0.03
740.976	-0.04
741.154	-0.13
741.332	0.1
741.511	0.06
741.689	0.03
741.867	0.07
742.045	-0.01
742.223	-0.07
742.401	-0
742.579	-0.01
742.757	0.07
742.935	-0.02
743.114	0.02
743.292	-0.02
743.47	-0.02
743.648	-0.06
743.826	0.01
744.004	0.05
744.181	0.08
744.359	-0.08
744.537	-0.03
744.715	0.04
744.893	0.03
745.071	-0.01
745.249	-0.11
745.427	0
745.605	0.05
745.782	0.02
745.96	0.06
746.138	0.01
746.316	0.11
746.493	0.1
746.671	0.06
746.849	0.02
747.027	0.23
747.204	-0.11
747.382	-0
747.56	-0.1
747.737	0.08
747.915	-0.05
748.093	0.12
748.27	-0.07
748.448	0.07
748.625	-0.1
748.803	-0.06
748.98	-0.02
749.158	0.03
749.335	0.07
749.513	0
749.69	0.03
749.868	-0.02
750.045	0.17
750.223	0.02
750.4	-0.2
750.578	0.25
750.755	-0.11
750.932	-0.1
751.11	0.15
751.287	-0.06
751.464	0.12
751.642	-0.11
751.819	0.03
751.996	0.04
752.173	-0.05
752.351	-0.1
752.528	-0
752.705	0.08
752.882	-0.06
753.06	-0.02
753.237	0.04
753.414	0.11
753.591	0.12
753.768	0.04
753.945	0.01
754.122	-0.13
754.299	0.18
754.476	-0.12
754.654	-0.05
754.831	0.04
755.008	-0.07
755.185	-0.12
755.362	-0.08
755.539	0.01
755.716	-0.02
755.892	-0.04
756.069	-0
756.246	-0.06
756.423	0.06
756.6	0.1
756.777	-0.01
756.954	0.19
757.131	0.02
757.307	0.08
757.484	-0.12
757.661	0.04
757.838	0.09
758.015	-0.18
758.191	-0
758.368	0.01
758.545	0.1
758.721	0.01
758.898	-0.11
759.075	0.06
759.251	0.21
759.428	0.24
759.605	-0.1
759.781	-0.01
759.958	0.06
760.134	0.01
760.311	-0
760.488	0.14
760.664	0.18
760.841	-0.05
761.017	-0.16
761.194	0.04
761.37	0.07
761.547	-0.07
761.723	-0.05
761.899	0.09
762.076	-0.14
762.252	-0
762.429	0
762.605	0.19
762.781	0.01
762.958	0.07
763.134	0.03
763.31	-0.08
763.486	0.22
763.663	-0.22
763.839	0.07
764.015	-0.14
764.191	-0.11
764.368	0.01
764.544	-0.09
764.72	0.05
764.896	0.2
765.072	0.1
765.248	-0.11
765.425	-0.12
765.601	0.12
765.777	0.03
765.953	-0.16
766.129	0.02
766.305	-0.05
766.481	0.19
766.657	0.11
766.833	0.12
767.009	-0.06
767.185	-0.09
767.361	-0.07
767.537	-0.05
767.713	0.17
767.889	-0.1
768.065	-0.06
768.24	-0.22
768.416	0.13
768.592	-0.2
768.768	0
768.944	0.08
769.12	-0.17
769.295	0.07
769.471	-0.01
769.647	-0.14
769.823	0
769.998	-0.13
770.174	-0.18
770.35	0.23
770.525	0.23
770.701	0.07
770.877	0.01
771.052	-0.05
771.228	-0.03
771.403	0.11
771.579	0.16
771.755	0.23
771.93	-0.12
772.106	-0.2
772.281	-0.16
772.457	0.13
772.632	0.11
772.808	-0.21
772.983	-0.01
773.159	-0.09
773.334	0.13
773.509	0.06
773.685	-0.06
773.86	0.32
774.036	0.17
774.211	-0.03
774.386	-0.11
774.562	0.03
774.737	-0.02
774.912	-0.11
775.087	-0.01
775.263	0.07
775.438	-0.06
775.613	-0.13
775.788	0.15
775.964	0.1
776.139	0.33
776.314	-0.29
776.489	-0.02
776.664	0.09
776.839	-0.03
777.014	0.1
777.19	0.22
777.365	0.21
777.54	0.3
777.715	-0.16
777.89	0.02
778.065	-0.04
778.24	0.01
778.415	0.16
778.59	-0.12
778.765	0.1
778.94	0.08
779.115	0.06
779.289	-0.03
779.464	0.02
779.639	0.04
779.814	-0.23
779.989	-0.1
780.164	0.26
780.339	0.14
780.513	-0.17
780.688	-0.07
780.863	0.08
781.038	0.09
781.212	-0.15
781.387	-0.06
781.562	0.38
781.737	0.11
781.911	0.11
782.086	-0.15
782.261	-0.01
782.435	0.41
782.61	0.07
782.784	0.03
782.959	0.16
783.134	-0.01
783.308	-0.32
783.483	-0.08
783.657	0.3
783.832	0.21
784.006	-0.48
784.181	-0.09
784.355	0.11
784.53	-0.15
784.704	-0.28
784.878	0.18
785.053	0.15
785.227	0.15
785.402	0.26
785.576	-0.24
785.75	-0.06
785.925	-0.06
786.099	0.19
786.273	0.15
786.448	0.09
786.622	0.17
786.796	-0.04
786.97	-0.01
787.145	0.68
787.319	-0.21
787.493	0.08
787.667	-0.39
787.841	-0.14
788.015	0.23
788.19	-0.08
788.364	0.13
788.538	0.23
788.712	0.24
788.886	0.01
789.06	-0.16
789.234	0.25
789.408	-0.17
789.582	-0.03
789.756	0.05
789.93	-0.12
790.104	0.06
790.278	-0.06
790.452	-0.04
790.626	0.3
790.8	-0.25
790.973	0.03
791.147	0.13
791.321	0.26
791.495	0.01
791.669	0.01
791.843	-0.01
792.016	-0.04
792.19	0.56
792.364	-0.22
792.538	0.44
792.711	0.2
792.885	-0.09
793.059	-0.27
793.233	-0.39
793.406	0.25
793.58	-0.11
793.754	0.22
793.927	-0.09
794.101	0.34
794.274	0.09
794.448	0.01
794.622	-0.31
794.795	0.51
794.969	-0.14
795.142	0.4
795.316	-0.06
795.489	-0.35
795.663	0.34
795.836	0.29
796.009	-0.13
796.183	0.16
796.356	0.14
796.53	0.2
796.703	-0.03
796.876	0.47
797.05	-0.05
797.223	-0.17
797.396	0.13
797.57	0.05
797.743	0.39
797.916	-0.01
798.09	-0.04
798.263	0.34
798.436	0.01
798.609	-0.2
798.782	-0.01
798.956	0.26
799.129	-0.08
799.302	0.12
799.475	-0.18
799.648	-0.31
799.821	-0.07
799.994	-0.07
800.167	-0.52
800.34	-0.08
800.514	0.21
800.687	-0.35
800.86	-0.13
801.033	0.06
801.206	0.04
801.379	-0.33
801.551	0.27
801.724	-0.08
801.897	0.29
802.07	0.12
802.243	-0.42
802.416	-0.05
802.589	-0.21
802.762	-0.18
802.935	0.02
803.107	0.19
803.28	0.34
803.453	0.26
803.626	-0.03
803.798	-0.19
803.971	-0.14
804.144	0.17
804.317	0.15
804.489	0.18
804.662	-0.06
804.835	0.15
805.007	-0.23
805.18	0.63
805.353	-0.22
805.525	-0.15
805.698	-0.11
805.87	0.14
806.043	0.33
806.215	-0.44
806.388	-0.22
806.56	0.12
806.733	0.52
806.905	-0.05
807.078	-0.26
807.25	0.01
807.423	0.43
807.595	0.09
807.768	0.04
807.94	0.19
808.112	-0.03
808.285	0.1
808.457	-0.34
808.629	-0.08
808.802	0.15
808.974	-0.04
809.146	-0.02
809.318	-0.24
809.491	0.1
809.663	0.53
809.835	-0.17
810.007	0.11
810.18	0.24
810.352	-0.44
810.524	-0
810.696	0
810.868	0.08
811.04	0.26
811.212	0.01
811.384	0.3
811.556	-0
811.728	-0.1
811.901	0.74
812.073	0.13
812.245	0.43
812.417	0
812.589	-0.45
812.76	-0.02
812.932	0.07
813.104	0.35
813.276	-0.13
813.448	0.44
813.62	0.01
813.792	0.07
813.964	-0.28
814.136	-0.03
814.307	-0.14
814.479	-0.23
814.651	-0.43
814.823	0.59
814.995	-0.34
815.166	-0.05
815.338	-0.52
815.51	-0.44
815.681	1.14
815.853	-0.25
816.025	-0.01
816.196	0.52
816.368	0.4
816.54	-0.51
816.711	-0.16
816.883	0.32
817.054	0.4
817.226	-0.3
817.398	0.56
817.569	-0.47
817.741	0.03
817.912	-0.29
818.084	0.12
818.255	0.21
818.426	-0.58
818.598	0.1
818.769	-0.55
818.941	0.19
819.112	0.6
819.283	0.1
819.455	-0.12
819.626	0.04
819.798	0.16
819.969	0.05
820.14	-0.2
820.311	0.16
820.483	0.15
820.654	0.32
820.825	0.05
820.996	0.2
821.168	-0.37
821.339	-0.5
821.51	-0.37
821.681	-0.54
821.852	0.22
822.023	-0.32
822.195	-0.52
822.366	0.81
822.537	0.41
822.708	0.05
822.879	-0.46
823.05	0.1
823.221	-0.36
823.392	0.22
823.563	-0.01
823.734	-0.25
823.905	0.05
824.076	-0
824.247	-0.32
824.418	-0.5
824.589	1.26
824.759	-0.09
824.93	-0.34
825.101	-0.46
825.272	0.45
825.443	0.13
825.614	0.46
825.784	-0.97
825.955	0.64
826.126	0.89
826.297	0.35
826.467	0.56
826.638	0.7
826.809	-0.9
826.98	0.07
827.15	0.47
827.321	0.42
827.492	1.06
827.662	0.11
827.833	0.93
828.003	0.26
828.174	-0.37
828.345	-0.61
828.515	0.68
828.686	-0.02
828.856	-0.46
829.027	-0.13
829.197	0.5
829.368	0.4
829.538	0.34
829.709	-0.36
829.879	0.26
830.049	0.05
830.22	-0.34
830.39	0.77
830.56	0.13
830.731	-0.22
830.901	-0.13
831.072	-0.03
831.242	0.24
831.412	0.11
831.582	0.44
831.753	-1.51
831.923	0.96
832.093	0.12
832.263	-0.34
832.434	-0.98
832.604	-0.33
832.774	0.65
832.944	0.11
833.114	-0.15
833.284	0.57
833.454	-0.1
833.624	-0.29
833.795	-0.04
833.965	0.94
834.135	0.47
834.305	-0.77
834.475	-0.81
834.645	0.36
834.815	-0.07
834.985	-0.78
835.155	-0.98
835.325	0.93
835.494	-0.05
835.664	-0.13
835.834	-0.92
836.004	0.02
836.174	0.33
836.344	0.12
836.514	-0.69
836.684	-0.49
836.853	1.04
837.023	-0.27
837.193	-0.35
837.363	0.26
837.532	0.54
837.702	-0.47
837.872	-0.16
838.041	0.82
838.211	1.53
838.381	-1.29
838.55	0.21
838.72	1.85
838.89	1.14
839.059	-0.43
839.229	-0.28
839.398	1.52
839.568	0.59
839.738	0.13
839.907	0.4
840.077	0.36
840.246	-0.32
840.416	-1.06
840.585	-1.01
840.755	0.99
840.924	1.23
841.093	-0.1
841.263	0.22
841.432	0.35
841.602	-0.43
841.771	-0.79
841.94	0.11
842.11	1.8
842.279	1
842.448	-0.76
842.617	-0.55
842.787	0.42
842.956	-1.22
843.125	0.14
843.294	-0.08
843.464	0.7
843.633	-0.31
843.802	-1.44
843.971	0.43
844.14	0.9
844.309	0.98
844.479	-0.34
844.648	-1.58
844.817	-0.76
844.986	0.39
845.155	-0.45
845.324	-0.1
845.493	-0.11
845.662	-0.5
845.831	0.82
846	1.1
846.169	-0.17
846.338	1.15
846.507	0.53
846.676	-0
846.844	0.59
847.013	0.49
847.182	-0.62
847.351	-1.01
847.52	0.13
847.689	0.07
847.858	0.47
848.026	-0.18
848.195	1.06
848.364	-1.03
848.533	0.09
848.701	-0.88
848.87	-0.58
849.039	0.45
849.207	0.88
849.376	0.37
849.545	1.29
849.713	-0.19
849.882	-0.75
850.051	0.02
850.219	0.16
850.388	1.22
850.556	-0.18
850.725	-1.13
850.893	1.49
851.062	-0.29
851.23	1.14
851.399	-1.99
851.567	0.1
851.736	-0
851.904	-1.59
852.073	-0.66
852.241	1.5
852.41	-0.91
852.578	-0.17
852.746	-1.1
852.915	0.47
853.083	-0.42
853.251	-0.33
853.42	-0.93
853.588	0.68
853.756	2.12
853.924	0.11
854.093	-1.25
854.261	-0.83
854.429	-1.65
854.597	-0.05
854.765	-0.34
854.934	1.72
855.102	1.22
855.27	-0.11
855.438	0.06
855.606	0.02
855.774	1.65
855.942	-1.36
856.11	-1.42
856.278	-0.2
856.446	1.71
856.614	-0.63
856.782	-0.5
856.95	1.68
857.118	0.51
857.286	1
857.454	-1.13
857.622	2.69
857.79	0.95
857.958	-2.39
858.126	0.04
858.294	-2.58
858.462	0.2
858.629	-0.1
858.797	0.09
858.965	0.99
859.133	0.9
859.301	-0.85
859.468	0.28
859.636	-0.37
859.804	1.39
859.971	0.52
860.139	-0.49
860.307	0.96
860.474	1.09
860.642	-0.97
860.81	-0.82
860.977	-0.63
861.145	1.36
861.313	-0.59
861.48	-0.49
861.648	-0.29
861.815	-0.37
861.983	-0.46
862.15	-0.22
862.318	0.36
862.485	0.52
862.653	-1.4
862.82	-0.7
862.988	2.68
863.155	1.19
863.322	-1.4
863.49	-0.4
863.657	0.09
863.824	2.48
863.992	1.27
864.159	0.27
864.326	1.37
864.494	0.56
864.661	1.6
864.828	-1.07
864.996	2.14
865.163	2.2
865.33	-0.24
865.497	-2.46
865.664	-1.57
865.832	-2.81
865.999	-0.02
866.166	-1.57
866.333	1.01
866.5	0.58
866.667	-0.06
866.834	-0.15
867.001	0.97
867.168	-1.71
867.335	-0.27
867.502	-1.11
867.669	1.79
867.836	2.62
868.003	0.35
868.17	1.35
868.337	-1.89
868.504	2.73
868.671	-2.15
868.838	-0.16
869.005	0.27
869.172	0.67
869.339	0.14
869.505	-0.46
869.672	0.83
869.839	2.15
870.006	-0.26
870.173	-1.61
870.339	0.75
870.506	3.41
870.673	-1.11
870.84	0.64
871.006	0.92
871.173	0.03
871.34	0.06
871.506	-1.01
871.673	-0.02
871.839	-1.57
872.006	0.54
872.173	-1.25
872.339	-0.61
872.506	0.99
872.672	0.39
872.839	-2.82
873.005	0.85
873.172	2.61
873.338	0.8
873.505	0.13
873.671	-0.49
873.838	2.11
874.004	-1.69
874.171	-0.48
874.337	-0.66
874.503	1.59
874.67	0.82
874.836	-1.25
875.002	3.23
875.169	2.62
875.335	1.27
875.501	0.03
875.668	1.51
875.834	0.37
876	-0.59
876.166	0.84
876.332	-0
876.499	2.59
876.665	-0.1
876.831	-0.53
876.997	2.36
877.163	0.31
877.329	-1.1
877.495	-1.27
877.662	0.86
877.828	1.08
877.994	-0.61
878.16	-3.26
878.326	-1.11
878.492	-0.23
878.658	-0.52
878.824	0.91
878.99	0.98
879.156	-1.77
879.322	1.69
879.487	-0.57
879.653	0.43
879.819	1.02
879.985	-1.32
880.151	-1.14
880.317	0.41
880.483	-0.25
880.648	2.07
880.814	-2.13
880.98	0.91
881.146	-4.06
881.312	-2.03
881.477	-1.08
881.643	-0.04
881.809	2.73
881.974	0.31
882.14	-2.92
882.306	-0.27
882.471	3.71
882.637	-0.4
882.803	0.46
882.968	2.61
883.134	3.79
883.299	-0.57
883.465	1.3
883.63	2.29
883.796	0.59
883.961	1.6
884.127	0.18
884.292	-2.71
884.458	-1.59
884.623	-1.59
