Data from Apollo_Calib_20240827__AbsoluteIrradiance__354__05-03-01-557.txt Node

Date: Wed Aug 28 05:03:01 BST 2024
User: biology
Spectrometer: FLMT08252
Trigger mode: 0
Integration Time (sec): 5.000000E-1
Scans to average: 5
Electric dark correction enabled: true
Nonlinearity correction enabled: false
Boxcar width: 0
XAxis mode: Wavelengths
Number of Pixels in Spectrum: 3648
>>>>>Begin Spectral Data<<<<<
179.588	-0
179.809	-0
180.03	-0
180.251	-0
180.473	-0
180.694	0
180.915	0
181.136	-0
181.357	0
181.578	0
181.799	-0
182.02	-0
182.241	0
182.462	-0
182.683	0
182.904	-0
183.125	-0
183.346	0
183.567	0
183.788	0
184.009	-0
184.23	0
184.451	0
184.672	-0
184.892	0
185.113	0
185.334	0
185.555	0
185.776	0
185.996	0
186.217	0
186.438	0
186.659	-0
186.879	0
187.1	0
187.321	0
187.541	0
187.762	0
187.983	0
188.203	0
188.424	0
188.644	0
188.865	0
189.086	0
189.306	-0
189.527	0
189.747	0
189.968	0
190.188	0
190.409	0
190.629	0
190.849	-0
191.07	0
191.29	0
191.511	0
191.731	-0
191.951	-0
192.172	0
192.392	0
192.612	-0
192.833	0
193.053	0
193.273	0
193.493	-0
193.714	0
193.934	0
194.154	0
194.374	0
194.594	0
194.815	0
195.035	0
195.255	0
195.475	0
195.695	0
195.915	0
196.135	0
196.355	0
196.575	0
196.795	0
197.015	-0
197.235	0
197.455	-0
197.675	0
197.895	-0
198.115	-0
198.335	0
198.555	-0
198.775	0
198.995	0
199.214	0
199.434	0
199.654	0
199.874	0
200.094	1.99
200.313	-0.01
200.533	0.11
200.753	0.03
200.973	1.42
201.192	1.06
201.412	-0.45
201.632	0.31
201.851	1.13
202.071	-0.04
202.291	0.21
202.51	-0.48
202.73	0.52
202.95	-0.26
203.169	-0.23
203.389	0.49
203.608	0.43
203.828	0.14
204.047	0
204.267	0.81
204.486	0.5
204.706	0.7
204.925	0.5
205.145	0.37
205.364	0.84
205.583	1.07
205.803	0.15
206.022	-0.07
206.242	0.42
206.461	0.03
206.68	0.05
206.9	0.55
207.119	1.02
207.338	0.74
207.557	0.03
207.777	0.39
207.996	0.24
208.215	0.6
208.434	0.14
208.654	-0.09
208.873	0.35
209.092	0.9
209.311	0.23
209.53	0.19
209.749	0.27
209.968	-0.02
210.187	0.08
210.407	-0.36
210.626	0.24
210.845	0.63
211.064	0.15
211.283	-0.01
211.502	0.33
211.721	0.11
211.94	-0.18
212.159	0.42
212.377	0.68
212.596	0.58
212.815	0.32
213.034	0.27
213.253	0.34
213.472	0.67
213.691	0.06
213.91	-0.03
214.128	0.24
214.347	0.71
214.566	-0.14
214.785	-0.21
215.003	0.43
215.222	0.36
215.441	0.17
215.66	-0
215.878	0.3
216.097	0.39
216.316	0.02
216.534	0.27
216.753	0.2
216.972	0.16
217.19	0.39
217.409	0
217.627	0.06
217.846	0.22
218.064	0.25
218.283	0.12
218.501	0.58
218.72	0.46
218.938	0.09
219.157	0.02
219.375	0.25
219.594	0.41
219.812	0.03
220.031	-0.09
220.249	0.54
220.467	0.4
220.686	0.16
220.904	0.07
221.122	0.17
221.341	0.52
221.559	0.2
221.777	-0.06
221.995	0.13
222.214	0.33
222.432	0.07
222.65	0.31
222.868	0.43
223.086	0.35
223.305	0.22
223.523	0.08
223.741	0.54
223.959	0.09
224.177	-0.15
224.395	-0.01
224.613	0.33
224.831	0.28
225.049	-0.03
225.267	0.14
225.485	0.21
225.703	-0.01
225.921	0.11
226.139	0.08
226.357	0.28
226.575	0.17
226.793	-0.01
227.011	0.73
227.229	0.21
227.447	0.39
227.665	0.09
227.883	0.05
228.1	0.14
228.318	0.25
228.536	-0.11
228.754	-0.03
228.972	0.22
229.189	0.26
229.407	0.01
229.625	0.02
229.843	0.36
230.06	0.24
230.278	-0.02
230.496	0.12
230.713	0.2
230.931	0.34
231.149	-0.02
231.366	-0.09
231.584	0.18
231.801	0.56
232.019	0.09
232.236	-0.01
232.454	0.02
232.671	0.22
232.889	0.21
233.106	-0.09
233.324	0.11
233.541	0.11
233.759	0.11
233.976	0.06
234.194	0.15
234.411	0.13
234.628	0.15
234.846	0.05
235.063	0.13
235.28	0.13
235.498	0.04
235.715	-0.05
235.932	0.25
236.149	0.17
236.367	0.09
236.584	0.24
236.801	0.09
237.018	0.18
237.236	0.09
237.453	-0.02
237.67	0.31
237.887	0.09
238.104	0.05
238.321	0.02
238.538	0.06
238.755	0.25
238.973	-0.02
239.19	0.15
239.407	0.23
239.624	0.14
239.841	-0.06
240.058	-0.01
240.275	0.1
240.492	0.1
240.709	0.09
240.925	0.03
241.142	0.12
241.359	0.09
241.576	-0.01
241.793	0.05
242.01	0.2
242.227	0.31
242.444	0.17
242.66	0.26
242.877	0.2
243.094	0.06
243.311	0.11
243.527	0.02
243.744	0.1
243.961	0.23
244.178	0.05
244.394	0.08
244.611	0.2
244.828	0.32
245.044	0.07
245.261	0.02
245.477	0.16
245.694	0.17
245.911	0.02
246.127	0.14
246.344	0.14
246.56	0.2
246.777	0.06
246.993	0.1
247.21	0.19
247.426	0.29
247.643	0.08
247.859	0.01
248.076	-0.01
248.292	0.33
248.508	0.09
248.725	0.15
248.941	0.2
249.157	0.22
249.374	0.08
249.59	0.03
249.806	0.16
250.023	0.29
250.239	0.08
250.455	-0.02
250.671	0.1
250.888	0.11
251.104	0.2
251.32	0.1
251.536	0.14
251.752	0.07
251.969	0.16
252.185	0.12
252.401	0.26
252.617	0.18
252.833	0.05
253.049	0.12
253.265	0.1
253.481	0.16
253.697	0.12
253.913	0.06
254.129	0.16
254.345	0.14
254.561	0.01
254.777	0.09
254.993	0.13
255.209	0.07
255.425	0.13
255.641	-0.01
255.857	0.12
256.073	0.15
256.288	0.03
256.504	0.08
256.72	0.15
256.936	0.21
257.152	0.01
257.367	0.02
257.583	0.13
257.799	0.16
258.015	0.02
258.23	0.09
258.446	0.2
258.662	0.09
258.877	0.03
259.093	0.03
259.309	0.1
259.524	0.2
259.74	-0
259.955	-0.04
260.171	0.13
260.387	0.17
260.602	0.19
260.818	0.1
261.033	0.07
261.249	0.07
261.464	0.07
261.68	0.02
261.895	0.13
262.11	0.11
262.326	0.08
262.541	-0.01
262.757	0.23
262.972	0.19
263.187	0.15
263.403	0.1
263.618	0.17
263.833	0.17
264.049	-0
264.264	0.11
264.479	0.16
264.694	0.21
264.91	0.03
265.125	0.14
265.34	0.24
265.555	0.25
265.77	0.11
265.986	0.04
266.201	0.09
266.416	0.18
266.631	0.16
266.846	0.13
267.061	0.17
267.276	0.16
267.491	-0.08
267.706	0.1
267.921	0.18
268.136	0.12
268.351	0.17
268.566	0.02
268.781	0.23
268.996	0.14
269.211	0.09
269.426	0.06
269.641	0.06
269.856	0.14
270.071	-0.01
270.285	-0.02
270.5	0.17
270.715	0.11
270.93	0.06
271.145	0.1
271.359	0.22
271.574	0.05
271.789	0.12
272.004	0.03
272.218	0.05
272.433	0.13
272.648	0.06
272.862	0.17
273.077	0.12
273.292	0.06
273.506	0.05
273.721	0.12
273.936	0.15
274.15	0.24
274.365	0.07
274.579	0.14
274.794	0.16
275.008	0.18
275.223	-0.04
275.437	0.01
275.652	0.17
275.866	0.13
276.081	0.12
276.295	0.12
276.509	0.11
276.724	0.1
276.938	0.08
277.153	0.12
277.367	0.15
277.581	0.05
277.796	0.14
278.01	0.04
278.224	0.18
278.438	0.26
278.653	0.03
278.867	0.03
279.081	-0.08
279.295	0.09
279.51	0.16
279.724	0.01
279.938	0.19
280.152	0.14
280.366	0
280.58	0.16
280.794	0.19
281.008	0.19
281.222	0.18
281.437	0.23
281.651	0.19
281.865	0.14
282.079	0.11
282.293	0.01
282.507	-0.01
282.721	0.06
282.935	0.04
283.148	-0.01
283.362	0.04
283.576	0.04
283.79	0.06
284.004	0.11
284.218	0.19
284.432	0.06
284.646	0.11
284.859	0.09
285.073	0.08
285.287	0.07
285.501	0.1
285.714	0.1
285.928	0.15
286.142	0.16
286.356	0.09
286.569	0.06
286.783	0.24
286.997	0.11
287.21	0.13
287.424	0.08
287.637	0.08
287.851	0.1
288.065	0.13
288.278	0.09
288.492	0.15
288.705	0.1
288.919	0.16
289.132	0.02
289.346	0.16
289.559	0.02
289.773	0.03
289.986	0.11
290.2	0.13
290.413	0.15
290.626	0.06
290.84	0.07
291.053	0.1
291.267	0.18
291.48	0.07
291.693	0.07
291.906	0.07
292.12	0.11
292.333	0.05
292.546	0.08
292.76	0.2
292.973	0.09
293.186	0.1
293.399	0.08
293.612	0.15
293.826	0.16
294.039	0.08
294.252	0.09
294.465	0.12
294.678	0.13
294.891	0.12
295.104	0.05
295.317	0.1
295.53	0.08
295.743	0.12
295.956	0.1
296.169	0.19
296.382	0.09
296.595	0.08
296.808	0.05
297.021	0.22
297.234	0.13
297.447	0.08
297.66	0.12
297.873	0.14
298.086	0.12
298.299	0.08
298.511	0.03
298.724	0.06
298.937	0.06
299.15	0.07
299.363	0.12
299.575	0.09
299.788	0.1
300.001	0.08
300.213	0.07
300.426	0.09
300.639	0.08
300.852	0.04
301.064	0.12
301.277	0.2
301.489	0.14
301.702	0.15
301.915	0.1
302.127	0.1
302.34	0.14
302.552	0.09
302.765	0.03
302.977	0.16
303.19	0.08
303.402	0.08
303.615	0.08
303.827	0.07
304.04	0.09
304.252	0.13
304.464	0.06
304.677	0.17
304.889	0.15
305.102	0.09
305.314	0.04
305.526	0.13
305.739	0.16
305.951	0.09
306.163	0.11
306.375	0.18
306.588	0.08
306.8	0.09
307.012	0.03
307.224	0.14
307.436	0.21
307.649	0.04
307.861	0.12
308.073	0.15
308.285	0.03
308.497	0.06
308.709	0.08
308.921	0.16
309.133	0.17
309.346	0.12
309.558	0.1
309.77	0.12
309.982	0.17
310.194	0.11
310.406	0.1
310.617	0.19
310.829	0.12
311.041	0.12
311.253	0.1
311.465	0.04
311.677	0.08
311.889	0.06
312.101	0.07
312.313	0.12
312.524	0.17
312.736	0.05
312.948	0.05
313.16	0.2
313.372	0.15
313.583	0.11
313.795	0.09
314.007	0.08
314.218	0.11
314.43	0.06
314.642	0.09
314.853	0.05
315.065	0.13
315.277	0.1
315.488	0.14
315.7	0.14
315.912	0.14
316.123	0.09
316.335	0.06
316.546	0.22
316.758	0.08
316.969	0.06
317.181	0.12
317.392	0.08
317.604	0.17
317.815	0.1
318.026	0.06
318.238	0.13
318.449	0.11
318.661	0.03
318.872	0.01
319.083	0.07
319.295	0.13
319.506	0.1
319.717	0.12
319.929	0.14
320.14	0.16
320.351	0.12
320.562	0.07
320.774	0.11
320.985	0.09
321.196	0
321.407	0.01
321.618	0.13
321.829	0.06
322.041	0.11
322.252	0.11
322.463	0.13
322.674	0.14
322.885	0.05
323.096	0.06
323.307	0.07
323.518	0.12
323.729	0.07
323.94	0.09
324.151	0.07
324.362	0.09
324.573	0.13
324.784	0.05
324.995	0.14
325.206	0.09
325.417	0.1
325.628	0.08
325.838	0.07
326.049	0.11
326.26	0.13
326.471	0.06
326.682	0.11
326.892	0.13
327.103	0.03
327.314	0.05
327.525	0.18
327.735	0.12
327.946	0.09
328.157	0.05
328.368	0.11
328.578	0.09
328.789	0.11
328.999	0.09
329.21	0.04
329.421	0.16
329.631	0.06
329.842	0.03
330.052	0.12
330.263	0.12
330.473	0.09
330.684	0.07
330.894	0.04
331.105	0.13
331.315	0.1
331.526	0.04
331.736	0.17
331.947	0.11
332.157	0.12
332.367	0.04
332.578	0.1
332.788	0.13
332.999	0.13
333.209	0.06
333.419	0.03
333.629	0.09
333.84	0.14
334.05	0.11
334.26	0.13
334.47	0.13
334.681	0.12
334.891	0.07
335.101	0.15
335.311	0.19
335.521	0.11
335.732	0.09
335.942	0.17
336.152	0.1
336.362	0.11
336.572	0.15
336.782	0.16
336.992	0.06
337.202	0.11
337.412	0.08
337.622	0.12
337.832	0.1
338.042	0.12
338.252	0.06
338.462	0.09
338.672	0.1
338.882	0.06
339.092	0.09
339.302	0.2
339.511	0.11
339.721	0.05
339.931	0.1
340.141	0.17
340.351	0.17
340.561	0.12
340.77	0.13
340.98	0.13
341.19	0.1
341.4	0.07
341.609	0.03
341.819	0.13
342.029	0.04
342.238	0.1
342.448	0.06
342.658	0.12
342.867	0.12
343.077	0.11
343.286	0.1
343.496	0.12
343.706	0.15
343.915	0.08
344.125	0.09
344.334	0.17
344.544	0.03
344.753	0.06
344.963	0.1
345.172	0.09
345.381	0.05
345.591	0.05
345.8	0.11
346.01	0.13
346.219	0.16
346.428	-0.06
346.638	0.09
346.847	0.09
347.056	0.16
347.266	0.05
347.475	0.08
347.684	0.15
347.893	0.12
348.103	0.09
348.312	0.06
348.521	0.09
348.73	0.13
348.94	0.06
349.149	0.05
349.358	0.07
349.567	0.06
349.776	0.05
349.985	0.07
350.194	0.12
350.403	0.17
350.612	0.04
350.821	0.05
351.03	0.12
351.239	0.03
351.448	0.07
351.657	0.06
351.866	0.18
352.075	0.11
352.284	0.13
352.493	0.01
352.702	0.14
352.911	0.15
353.12	0.11
353.329	0.1
353.538	0.11
353.746	0.08
353.955	0.08
354.164	0.11
354.373	0.07
354.582	0.13
354.79	0.1
354.999	0.13
355.208	0.06
355.416	0.18
355.625	0.04
355.834	0.08
356.042	0.13
356.251	0.07
356.46	0.05
356.668	0.09
356.877	0.2
357.085	0.11
357.294	0.03
357.503	0.11
357.711	0.09
357.92	0.21
358.128	0.14
358.337	0.05
358.545	0.11
358.754	0.06
358.962	0.15
359.17	0.1
359.379	0.12
359.587	0.07
359.796	0.12
360.004	0.17
360.212	0.13
360.421	0.13
360.629	0.09
360.837	0.08
361.046	0.11
361.254	0.24
361.462	0.11
361.67	0.07
361.879	0.09
362.087	0.18
362.295	0.09
362.503	0.07
362.711	0.06
362.92	0.05
363.128	0.07
363.336	0.03
363.544	0.04
363.752	0.08
363.96	0.06
364.168	0.06
364.376	0.1
364.584	0.1
364.792	0.17
365	0.15
365.208	0.11
365.416	0.12
365.624	0.14
365.832	0.04
366.04	0.17
366.248	0.09
366.456	0.08
366.664	0.11
366.872	0.11
367.079	0.08
367.287	0.08
367.495	0.09
367.703	0.08
367.911	0.11
368.118	0.09
368.326	0.13
368.534	0.04
368.742	0.15
368.949	0.04
369.157	0.05
369.365	0.15
369.572	0.06
369.78	0.04
369.988	0.15
370.195	0.11
370.403	0.11
370.61	0.1
370.818	0.11
371.026	0.18
371.233	0.1
371.441	0.12
371.648	0.06
371.856	0.08
372.063	0.1
372.271	0.11
372.478	0.09
372.685	0.07
372.893	0.12
373.1	0.09
373.308	0.05
373.515	0.18
373.722	0.13
373.93	0.08
374.137	0.11
374.344	0.19
374.552	0.12
374.759	0.12
374.966	0.13
375.173	0.04
375.381	0.2
375.588	0.09
375.795	0.02
376.002	0.05
376.209	0.06
376.417	0.13
376.624	0.08
376.831	0.13
377.038	0.12
377.245	-0
377.452	0.09
377.659	0.09
377.866	0.11
378.073	0.09
378.28	0.13
378.487	0.16
378.694	0.13
378.901	0.1
379.108	0.06
379.315	0.12
379.522	0.22
379.729	0.12
379.936	0.07
380.143	0.13
380.35	0.14
380.557	0.1
380.763	0.08
380.97	0.1
381.177	0.12
381.384	0.13
381.591	0.1
381.797	0.12
382.004	0.17
382.211	0.12
382.418	0.13
382.624	0.17
382.831	0.18
383.038	0.11
383.244	0.08
383.451	0.09
383.658	0.14
383.864	0.1
384.071	0.06
384.277	0.2
384.484	0.1
384.69	0.14
384.897	0.08
385.103	0.07
385.31	0.09
385.516	0.11
385.723	0.09
385.929	0.14
386.136	0.08
386.342	0.12
386.549	0.1
386.755	0.19
386.961	0.14
387.168	0.08
387.374	0.15
387.58	0.18
387.787	0.1
387.993	0.13
388.199	0.09
388.406	0.11
388.612	0.13
388.818	0.09
389.024	0.07
389.231	0.16
389.437	0.18
389.643	0.14
389.849	0.09
390.055	0.09
390.261	0.13
390.467	0.09
390.674	0.09
390.88	0.09
391.086	0.13
391.292	0.09
391.498	0.14
391.704	0.14
391.91	0.1
392.116	0.14
392.322	0.03
392.528	0.15
392.734	0.08
392.94	0.12
393.146	0.12
393.352	0.16
393.557	0.13
393.763	0.16
393.969	0.16
394.175	0.13
394.381	0.15
394.587	0.1
394.792	0.15
394.998	0.14
395.204	0.15
395.41	0.06
395.615	0.14
395.821	0.17
396.027	0.14
396.233	0.11
396.438	0.17
396.644	0.21
396.85	0.13
397.055	0.16
397.261	0.13
397.466	0.19
397.672	0.14
397.878	0.17
398.083	0.14
398.289	0.13
398.494	0.2
398.7	0.15
398.905	0.1
399.111	0.24
399.316	0.09
399.522	0.08
399.727	0.17
399.932	0.15
400.138	0.14
400.343	0.18
400.549	0.17
400.754	0.11
400.959	0.15
401.165	0.16
401.37	0.19
401.575	0.25
401.78	0.16
401.986	0.15
402.191	0.15
402.396	0.18
402.601	0.2
402.807	0.23
403.012	0.22
403.217	0.19
403.422	0.18
403.627	0.19
403.832	0.17
404.037	0.18
404.243	0.17
404.448	0.19
404.653	0.16
404.858	0.2
405.063	0.26
405.268	0.18
405.473	0.15
405.678	0.17
405.883	0.35
406.088	0.24
406.293	0.18
406.498	0.12
406.703	0.24
406.907	0.2
407.112	0.16
407.317	0.23
407.522	0.3
407.727	0.21
407.932	0.28
408.136	0.34
408.341	0.26
408.546	0.26
408.751	0.28
408.956	0.24
409.16	0.28
409.365	0.28
409.57	0.24
409.774	0.31
409.979	0.34
410.184	0.29
410.388	0.32
410.593	0.35
410.798	0.35
411.002	0.31
411.207	0.38
411.411	0.33
411.616	0.27
411.82	0.37
412.025	0.42
412.229	0.35
412.434	0.5
412.638	0.48
412.843	0.41
413.047	0.43
413.252	0.4
413.456	0.47
413.66	0.49
413.865	0.46
414.069	0.63
414.273	0.53
414.478	0.47
414.682	0.56
414.886	0.54
415.091	0.53
415.295	0.55
415.499	0.67
415.703	0.63
415.908	0.75
416.112	0.62
416.316	0.8
416.52	0.75
416.724	0.72
416.929	0.79
417.133	0.96
417.337	0.88
417.541	0.92
417.745	0.96
417.949	0.99
418.153	1.01
418.357	0.99
418.561	1.24
418.765	1.18
418.969	1.27
419.173	1.25
419.377	1.29
419.581	1.46
419.785	1.42
419.989	1.44
420.193	1.51
420.397	1.61
420.601	1.69
420.804	1.81
421.008	1.77
421.212	1.88
421.416	1.87
421.62	1.85
421.823	1.96
422.027	2.11
422.231	2.03
422.435	2.05
422.638	2.18
422.842	2.25
423.046	2.33
423.249	2.43
423.453	2.48
423.657	2.59
423.86	2.63
424.064	2.83
424.268	2.89
424.471	2.94
424.675	3.08
424.878	3.27
425.082	3.35
425.285	3.6
425.489	3.53
425.692	3.68
425.896	3.7
426.099	3.83
426.303	3.97
426.506	4.09
426.71	4.26
426.913	4.48
427.116	4.73
427.32	4.63
427.523	4.8
427.726	5.06
427.93	5.12
428.133	5.3
428.336	5.6
428.54	5.75
428.743	5.95
428.946	6.12
429.149	6.26
429.353	6.3
429.556	6.38
429.759	6.54
429.962	6.59
430.165	6.79
430.368	6.52
430.571	6.59
430.775	6.69
430.978	6.69
431.181	6.74
431.384	6.9
431.587	7.11
431.79	7.51
431.993	7.39
432.196	7.66
432.399	8.02
432.602	8.19
432.805	8.25
433.008	8.79
433.211	8.73
433.414	8.96
433.616	9.17
433.819	9.18
434.022	9.33
434.225	9.56
434.428	9.54
434.631	10.1
434.833	9.87
435.036	10.1
435.239	10.26
435.442	10.5
435.645	10.71
435.847	10.87
436.05	11.25
436.253	11.45
436.455	11.45
436.658	11.55
436.861	11.85
437.063	12.04
437.266	12.13
437.468	12.52
437.671	12.88
437.874	12.99
438.076	12.93
438.279	13.52
438.481	13.67
438.684	14.62
438.886	14.24
439.089	14.67
439.291	14.87
439.494	15.45
439.696	15.64
439.899	16.34
440.101	17.11
440.303	17.17
440.506	18.3
440.708	18.15
440.91	18.57
441.113	18.97
441.315	19.4
441.517	19.43
441.72	20.14
441.922	19.95
442.124	20.13
442.326	20.68
442.529	21.05
442.731	21.29
442.933	21.99
443.135	21.74
443.337	22.01
443.539	22.9
443.742	22.64
443.944	23.62
444.146	23.45
444.348	23.52
444.55	23.77
444.752	24.21
444.954	24.37
445.156	24.39
445.358	25.35
445.56	25.69
445.762	25.69
445.964	26.23
446.166	26.12
446.368	26.3
446.57	26.58
446.772	26
446.974	25.88
447.175	26.38
447.377	26.14
447.579	26.87
447.781	26.52
447.983	26.34
448.184	25.75
448.386	26.26
448.588	25.8
448.79	25.85
448.991	26.47
449.193	26.54
449.395	25.49
449.597	24.92
449.798	24.94
450	24.17
450.202	24.09
450.403	24.27
450.605	23.98
450.806	23.51
451.008	23.41
451.21	22.8
451.411	22.24
451.613	21.09
451.814	21.44
452.016	21.24
452.217	20.23
452.419	20.24
452.62	19.7
452.821	19.24
453.023	19.02
453.224	18.5
453.426	17.95
453.627	16.59
453.828	16.84
454.03	16.93
454.231	16.85
454.432	16.58
454.634	16.02
454.835	15.58
455.036	15.46
455.238	14.87
455.439	14.26
455.64	13.94
455.841	13.7
456.042	13.72
456.244	13.31
456.445	12.97
456.646	12.49
456.847	12.27
457.048	12.4
457.249	12.11
457.45	11.64
457.651	11.11
457.852	10.78
458.054	10.31
458.255	10.25
458.456	10.25
458.657	10.23
458.858	9.45
459.058	9.36
459.259	9.37
459.46	9.06
459.661	8.92
459.862	9.04
460.063	8.92
460.264	8.65
460.465	8.3
460.666	8.25
460.866	7.96
461.067	7.57
461.268	7.59
461.469	7.52
461.67	7.28
461.87	7.11
462.071	7.02
462.272	6.96
462.473	6.84
462.673	6.96
462.874	6.82
463.075	6.76
463.275	6.69
463.476	6.76
463.676	6.61
463.877	6.34
464.078	6.26
464.278	6.34
464.479	6.18
464.679	5.97
464.88	5.9
465.08	5.81
465.281	5.5
465.481	5.22
465.682	4.96
465.882	4.91
466.083	4.89
466.283	4.76
466.483	4.6
466.684	4.41
466.884	4.12
467.085	4.14
467.285	4.22
467.485	4.1
467.686	3.94
467.886	3.89
468.086	3.76
468.286	3.53
468.487	3.66
468.687	3.43
468.887	3.34
469.087	3.41
469.287	3.33
469.488	3.06
469.688	3.16
469.888	3.13
470.088	3.07
470.288	2.95
470.488	2.86
470.688	2.69
470.888	2.68
471.088	2.49
471.288	2.56
471.488	2.47
471.688	2.41
471.888	2.35
472.088	2.45
472.288	2.31
472.488	2.19
472.688	2.1
472.888	2.11
473.088	2.13
473.288	1.97
473.488	1.91
473.688	2.01
473.887	1.92
474.087	1.85
474.287	1.9
474.487	1.76
474.687	1.75
474.886	1.7
475.086	1.63
475.286	1.59
475.486	1.59
475.685	1.53
475.885	1.5
476.085	1.51
476.284	1.5
476.484	1.49
476.684	1.42
476.883	1.48
477.083	1.32
477.282	1.32
477.482	1.3
477.681	1.3
477.881	1.2
478.08	1.16
478.28	1.16
478.479	1.21
478.679	1.2
478.878	1.1
479.078	1.11
479.277	1.11
479.477	1.02
479.676	1.05
479.875	1.04
480.075	0.92
480.274	1
480.473	1.03
480.673	0.9
480.872	0.95
481.071	0.9
481.271	0.9
481.47	0.85
481.669	0.87
481.868	0.8
482.067	0.81
482.267	0.76
482.466	0.78
482.665	0.74
482.864	0.7
483.063	0.68
483.262	0.75
483.461	0.75
483.661	0.73
483.86	0.67
484.059	0.69
484.258	0.65
484.457	0.63
484.656	0.61
484.855	0.64
485.054	0.52
485.253	0.53
485.452	0.51
485.651	0.55
485.849	0.52
486.048	0.53
486.247	0.51
486.446	0.51
486.645	0.43
486.844	0.47
487.043	0.44
487.241	0.48
487.44	0.4
487.639	0.4
487.838	0.44
488.037	0.42
488.235	0.45
488.434	0.4
488.633	0.36
488.831	0.4
489.03	0.4
489.229	0.37
489.427	0.36
489.626	0.39
489.825	0.4
490.023	0.34
490.222	0.3
490.42	0.34
490.619	0.37
490.817	0.31
491.016	0.27
491.214	0.35
491.413	0.29
491.611	0.27
491.81	0.28
492.008	0.28
492.207	0.29
492.405	0.27
492.604	0.21
492.802	0.27
493	0.25
493.199	0.23
493.397	0.24
493.595	0.25
493.794	0.23
493.992	0.3
494.19	0.24
494.388	0.25
494.587	0.24
494.785	0.22
494.983	0.19
495.181	0.2
495.379	0.2
495.578	0.2
495.776	0.21
495.974	0.23
496.172	0.19
496.37	0.2
496.568	0.17
496.766	0.16
496.964	0.21
497.162	0.18
497.36	0.16
497.558	0.17
497.756	0.22
497.954	0.16
498.152	0.15
498.35	0.18
498.548	0.16
498.746	0.16
498.944	0.12
499.142	0.14
499.34	0.12
499.538	0.15
499.736	0.15
499.933	0.19
500.131	0.16
500.329	0.13
500.527	0.16
500.725	0.19
500.922	0.17
501.12	0.13
501.318	0.15
501.516	0.13
501.713	0.15
501.911	0.13
502.109	0.1
502.306	0.14
502.504	0.09
502.701	0.09
502.899	0.1
503.097	0.16
503.294	0.13
503.492	0.1
503.689	0.15
503.887	0.13
504.084	0.16
504.282	0.13
504.479	0.07
504.677	0.11
504.874	0.1
505.072	0.12
505.269	0.09
505.466	0.12
505.664	0.13
505.861	0.06
506.059	0.07
506.256	0.15
506.453	0.1
506.651	0.14
506.848	0.13
507.045	0.1
507.242	0.11
507.44	0.09
507.637	0.1
507.834	0.1
508.031	0.11
508.229	0.06
508.426	0.1
508.623	0.09
508.82	0.07
509.017	0.07
509.214	0.08
509.411	0.11
509.608	0.08
509.805	0.1
510.003	0.07
510.2	0.07
510.397	0.11
510.594	0.05
510.791	0.05
510.988	0.08
511.184	0.11
511.381	0.07
511.578	0.04
511.775	0.12
511.972	0.08
512.169	0.07
512.366	0.07
512.563	0.12
512.76	0.06
512.956	0.08
513.153	0.05
513.35	0.08
513.547	0.07
513.744	0.04
513.94	0.03
514.137	0.07
514.334	0.1
514.53	0.07
514.727	0.08
514.924	0.13
515.12	0.05
515.317	0.03
515.514	0.04
515.71	0.06
515.907	0.07
516.103	0.09
516.3	0.08
516.497	0.09
516.693	0.12
516.89	0.07
517.086	0.06
517.283	0.11
517.479	0.08
517.676	0.06
517.872	0.07
518.068	0.03
518.265	0.05
518.461	0.06
518.658	0.02
518.854	0.06
519.05	0.05
519.247	0.05
519.443	0.09
519.639	0.06
519.836	0.06
520.032	0.06
520.228	0.06
520.424	0.08
520.621	0.11
520.817	0.06
521.013	0.06
521.209	0.07
521.405	0.11
521.601	0.06
521.798	0.08
521.994	0.1
522.19	0.04
522.386	0.04
522.582	0.07
522.778	0.07
522.974	0.04
523.17	0.05
523.366	0.06
523.562	0.07
523.758	0.06
523.954	0.04
524.15	0.05
524.346	0.08
524.542	0.05
524.738	0.05
524.934	0.04
525.129	0.04
525.325	0.05
525.521	0.06
525.717	0.1
525.913	0.06
526.109	0.05
526.304	0.05
526.5	0.07
526.696	0.07
526.892	0.06
527.087	0.06
527.283	0.02
527.479	0.08
527.674	0.04
527.87	0.05
528.066	0.02
528.261	0.07
528.457	0.07
528.653	0.05
528.848	0.05
529.044	0.04
529.239	0.06
529.435	0.06
529.63	0.05
529.826	0.11
530.021	0.08
530.217	0.06
530.412	0.03
530.608	0.04
530.803	0.06
530.999	0.03
531.194	0.02
531.389	0.05
531.585	-0.02
531.78	0.04
531.975	0.03
532.171	0.07
532.366	0.03
532.561	0.06
532.757	0.02
532.952	0.05
533.147	0.06
533.342	0.06
533.538	0.04
533.733	0.08
533.928	0.05
534.123	0.04
534.318	0.04
534.513	0.02
534.709	0.07
534.904	0.03
535.099	0.03
535.294	0.06
535.489	0.04
535.684	0.04
535.879	0
536.074	0.04
536.269	0.02
536.464	0.03
536.659	0.05
536.854	0.04
537.049	0.05
537.244	0.07
537.439	0.03
537.634	0.08
537.828	0.05
538.023	0.03
538.218	0
538.413	0.04
538.608	0.01
538.803	0.05
538.997	0.01
539.192	0.07
539.387	0.04
539.582	0.04
539.776	0.05
539.971	0.03
540.166	0.05
540.36	0.02
540.555	0.04
540.75	0.04
540.944	0.05
541.139	0
541.334	0.04
541.528	0.04
541.723	0.07
541.917	0.04
542.112	0.01
542.306	0.03
542.501	0.03
542.695	0.06
542.89	0.04
543.084	0.07
543.279	0.02
543.473	0.04
543.668	0.05
543.862	0.02
544.056	0.07
544.251	0.05
544.445	0.06
544.64	0.03
544.834	0.03
545.028	0.03
545.222	0.03
545.417	0.04
545.611	0.06
545.805	0.05
546	0.02
546.194	0.04
546.388	0.04
546.582	0.06
546.776	0.04
546.97	0.04
547.165	0.06
547.359	0.05
547.553	0.02
547.747	0.06
547.941	0.05
548.135	0.06
548.329	0.06
548.523	0.06
548.717	0.01
548.911	0.03
549.105	0.01
549.299	0.04
549.493	0.07
549.687	0.05
549.881	0.07
550.075	0.04
550.269	-0.01
550.463	0.08
550.657	0
550.85	0.03
551.044	0.01
551.238	0.05
551.432	0.03
551.626	0.02
551.82	0.04
552.013	0.02
552.207	0.04
552.401	0.02
552.594	0.05
552.788	0
552.982	0.03
553.176	0.01
553.369	0.04
553.563	0.04
553.756	-0.01
553.95	0
554.144	0.05
554.337	0.05
554.531	0.04
554.724	0.05
554.918	0.05
555.111	0.06
555.305	0.05
555.498	0.1
555.692	0.04
555.885	0.02
556.079	0.05
556.272	0.04
556.466	0.06
556.659	0.04
556.852	0.03
557.046	0.03
557.239	0.07
557.432	-0
557.626	0.04
557.819	0.04
558.012	0.05
558.206	0.04
558.399	0.05
558.592	0.04
558.785	0.03
558.979	0.07
559.172	0.03
559.365	0.06
559.558	0.06
559.751	0.04
559.944	0.04
560.138	0.03
560.331	0.02
560.524	0.03
560.717	0.03
560.91	0.03
561.103	0.05
561.296	0.06
561.489	0.05
561.682	0.03
561.875	0.05
562.068	0.06
562.261	0.06
562.454	0.06
562.647	0.05
562.84	0.07
563.032	0.01
563.225	0.01
563.418	0.02
563.611	0.03
563.804	0.01
563.997	0.02
564.19	0.01
564.382	0.05
564.575	0.03
564.768	0.04
564.961	0.02
565.153	0
565.346	0.06
565.539	0.06
565.731	0.06
565.924	0.05
566.117	0.05
566.309	0.01
566.502	0.03
566.695	0.02
566.887	0.04
567.08	0.01
567.272	0.04
567.465	0.03
567.657	0.04
567.85	0.06
568.042	0.05
568.235	0.09
568.427	0.01
568.62	0.04
568.812	0.06
569.005	0.03
569.197	-0.01
569.389	0.03
569.582	0.04
569.774	0.04
569.966	-0.01
570.159	0.01
570.351	0.02
570.543	0.01
570.736	0.03
570.928	0.01
571.12	0.03
571.312	0.02
571.505	-0.01
571.697	0.07
571.889	0.01
572.081	0.03
572.273	0.01
572.465	0.08
572.658	0.03
572.85	0.02
573.042	0.02
573.234	0.04
573.426	0.07
573.618	0.01
573.81	0.03
574.002	0.05
574.194	0.07
574.386	0.01
574.578	-0.05
574.77	0
574.962	0.02
575.154	0.01
575.346	0.05
575.538	0.05
575.729	0.02
575.921	0.02
576.113	0.04
576.305	0.05
576.497	0.01
576.689	0.02
576.88	0.01
577.072	0.09
577.264	0.01
577.456	0.02
577.647	-0.05
577.839	0.06
578.031	0.07
578.223	-0.02
578.414	0.01
578.606	0.03
578.798	0.05
578.989	0.01
579.181	0.02
579.372	0.03
579.564	0.02
579.755	0.02
579.947	0.03
580.139	0.04
580.33	-0.01
580.522	0.01
580.713	-0.04
580.905	0.04
581.096	0.04
581.287	0.03
581.479	0
581.67	0.04
581.862	0.03
582.053	0
582.244	-0.01
582.436	0.02
582.627	0.04
582.818	0.02
583.01	0
583.201	0.05
583.392	0.05
583.583	0.03
583.775	-0
583.966	0.03
584.157	0.01
584.348	0.02
584.54	-0.01
584.731	0.02
584.922	0.03
585.113	0.02
585.304	0.04
585.495	0.04
585.686	0.04
585.877	0.02
586.068	0.05
586.259	0.06
586.45	0.02
586.641	0.02
586.832	-0.01
587.023	0.03
587.214	0.02
587.405	0.02
587.596	-0
587.787	0.06
587.978	0.04
588.169	0
588.36	0
588.551	0.02
588.742	0.01
588.932	0.05
589.123	0.02
589.314	0.07
589.505	0.05
589.696	0.03
589.886	-0.01
590.077	-0.03
590.268	0.02
590.458	-0.02
590.649	-0.02
590.84	0.07
591.03	0.02
591.221	-0.01
591.412	-0.01
591.602	0.07
591.793	0.07
591.984	-0.01
592.174	0.02
592.365	0.09
592.555	-0.01
592.746	0.03
592.936	0.06
593.127	0.04
593.317	0.06
593.508	0.02
593.698	0.03
593.889	0.04
594.079	0.05
594.269	-0.01
594.46	-0
594.65	0
594.84	0.01
595.031	-0.01
595.221	-0
595.411	-0
595.602	0.04
595.792	0.02
595.982	0.02
596.172	0.07
596.363	0.02
596.553	0.04
596.743	0.01
596.933	0.04
597.123	0.07
597.314	0.01
597.504	-0.01
597.694	0.09
597.884	0.05
598.074	0.03
598.264	0.01
598.454	0.04
598.644	0.02
598.834	0.04
599.024	-0.04
599.214	0.03
599.404	0.05
599.594	0
599.784	0.02
599.974	0.09
600.164	0.07
600.354	-0.02
600.544	0.01
600.734	0.05
600.924	0.08
601.114	0.03
601.303	-0.01
601.493	0.04
601.683	0.05
601.873	0.03
602.063	-0.03
602.252	0.06
602.442	-0.03
602.632	-0.01
602.821	-0.04
603.011	0.03
603.201	0
603.39	-0.01
603.58	0
603.77	0.06
603.959	0.07
604.149	0.01
604.339	0.01
604.528	0.06
604.718	0.04
604.907	0.02
605.097	-0.03
605.286	-0
605.476	0.06
605.665	0.03
605.855	0.03
606.044	0.06
606.234	0.05
606.423	0.02
606.612	-0.01
606.802	0.03
606.991	0.04
607.181	0.06
607.37	-0.03
607.559	0.01
607.749	-0.02
607.938	0
608.127	-0
608.316	0
608.506	-0
608.695	0.01
608.884	0
609.073	0.03
609.263	0.06
609.452	0.03
609.641	0.04
609.83	-0.01
610.019	0.02
610.208	-0.02
610.397	0.06
610.586	0.08
610.775	-0.01
610.965	0.04
611.154	-0
611.343	0.02
611.532	-0
611.721	-0.02
611.91	0.01
612.099	0.05
612.287	0.01
612.476	-0.01
612.665	0.04
612.854	-0.01
613.043	0.04
613.232	0.01
613.421	-0.02
613.61	0.04
613.798	-0.01
613.987	0.04
614.176	0.01
614.365	0.07
614.554	0.05
614.742	0.02
614.931	0.03
615.12	0.04
615.309	0.01
615.497	0.04
615.686	0
615.875	0.02
616.063	0.05
616.252	-0.01
616.44	0.02
616.629	0.06
616.818	0.04
617.006	0.03
617.195	0.03
617.383	0.02
617.572	0.02
617.76	0.04
617.949	-0.01
618.137	0.03
618.326	0.04
618.514	-0.01
618.703	0.02
618.891	0.09
619.079	-0.04
619.268	0.05
619.456	-0.01
619.644	0.05
619.833	0.02
620.021	-0.02
620.209	-0.03
620.398	0.03
620.586	0.04
620.774	0.04
620.962	0
621.151	0.1
621.339	-0
621.527	-0.03
621.715	-0.01
621.903	-0.02
622.092	-0.02
622.28	0.03
622.468	0.03
622.656	0.03
622.844	0.04
623.032	0.01
623.22	-0.05
623.408	0.04
623.596	0.04
623.784	0.05
623.972	-0.02
624.16	0.02
624.348	0.07
624.536	0.02
624.724	0.01
624.912	0.06
625.1	0.05
625.288	-0.01
625.476	0.01
625.664	0.03
625.851	-0.02
626.039	0.02
626.227	0.02
626.415	0.03
626.603	-0.02
626.79	0.03
626.978	-0
627.166	0.06
627.354	0.01
627.541	0.01
627.729	-0.06
627.917	0.06
628.104	0.05
628.292	0.05
628.48	0.01
628.667	0.04
628.855	0.02
629.042	0.03
629.23	0
629.418	-0.01
629.605	0
629.793	0
629.98	-0.01
630.168	0.02
630.355	0.01
630.543	0.05
630.73	-0.01
630.917	0.06
631.105	0.09
631.292	0
631.48	0.01
631.667	0.15
631.854	0.02
632.042	0.02
632.229	-0.06
632.416	0.03
632.604	0.03
632.791	-0.02
632.978	0.01
633.165	0.03
633.353	0.09
633.54	0.03
633.727	-0.01
633.914	-0.01
634.101	-0.05
634.289	0.05
634.476	-0.02
634.663	0
634.85	0.03
635.037	-0.03
635.224	-0.03
635.411	0.04
635.598	0.05
635.785	0.01
635.972	-0.01
636.159	0.05
636.346	-0.03
636.533	0.01
636.72	-0
636.907	0.04
637.094	0.03
637.281	0.02
637.468	0.03
637.655	0.01
637.842	0
638.029	-0
638.215	0.05
638.402	0.01
638.589	-0.01
638.776	0.02
638.963	-0
639.149	0.07
639.336	0.11
639.523	-0.01
639.709	0.04
639.896	0.01
640.083	0.07
640.27	0.01
640.456	0.01
640.643	0.03
640.829	0.01
641.016	-0.01
641.203	-0.01
641.389	0.06
641.576	0.03
641.762	0.02
641.949	0.01
642.135	0.04
642.322	0.01
642.508	-0.02
642.695	0.02
642.881	0.04
643.068	-0
643.254	0.02
643.441	0.06
643.627	0.01
643.813	-0.01
644	0.06
644.186	0
644.372	0.02
644.559	0.03
644.745	0
644.931	0
645.118	0
645.304	-0
645.49	0
645.676	0.01
645.862	0
646.049	0.07
646.235	0.01
646.421	0.08
646.607	0.06
646.793	0.01
646.979	0
647.165	0.05
647.352	0.05
647.538	0.04
647.724	-0.01
647.91	0.05
648.096	0.08
648.282	0.05
648.468	-0
648.654	0.02
648.84	0.01
649.026	0.03
649.212	0.03
649.397	-0.02
649.583	-0.02
649.769	0.06
649.955	0.03
650.141	0.04
650.327	0.09
650.513	-0.01
650.698	0.03
650.884	-0.04
651.07	0.05
651.256	0.01
651.442	0.01
651.627	-0.01
651.813	0.02
651.999	0.03
652.184	0.03
652.37	0.01
652.556	-0.03
652.741	0.11
652.927	-0.06
653.113	0.03
653.298	0.02
653.484	-0.01
653.669	-0.01
653.855	0.01
654.04	0.05
654.226	0.03
654.412	0.02
654.597	-0
654.782	0.01
654.968	0.07
655.153	0.02
655.339	0.01
655.524	-0.04
655.71	0.07
655.895	0.02
656.08	-0
656.266	0.06
656.451	0.04
656.636	-0.05
656.822	0.02
657.007	-0.01
657.192	-0.03
657.378	-0.04
657.563	0.04
657.748	0.05
657.933	0.03
658.118	0
658.304	-0.01
658.489	0.04
658.674	0.02
658.859	-0.03
659.044	0.04
659.229	0.03
659.414	0.02
659.599	-0
659.785	-0.02
659.97	0.01
660.155	0.04
660.34	-0.01
660.525	-0.02
660.71	0.02
660.895	0.05
661.08	-0.01
661.264	-0.01
661.449	0.06
661.634	0.05
661.819	0.02
662.004	0.04
662.189	-0.03
662.374	0.01
662.559	-0.01
662.743	-0.07
662.928	0.03
663.113	-0.02
663.298	-0.06
663.483	-0.03
663.667	0.02
663.852	0
664.037	0.08
664.221	-0.01
664.406	0.07
664.591	0.02
664.775	0.02
664.96	-0.04
665.145	0.02
665.329	0.05
665.514	-0.01
665.698	0.02
665.883	-0.07
666.068	0.09
666.252	-0
666.437	-0.03
666.621	0.02
666.806	0.07
666.99	0.03
667.174	-0
667.359	0.1
667.543	0.04
667.728	0.02
667.912	-0.07
668.096	0.04
668.281	-0.02
668.465	0.02
668.649	0
668.834	-0.02
669.018	-0.01
669.202	-0.02
669.387	-0.01
669.571	0.1
669.755	-0.04
669.939	0.03
670.124	0.01
670.308	0.08
670.492	0.05
670.676	-0
670.86	-0.02
671.044	-0.04
671.228	0.08
671.413	-0.05
671.597	-0.01
671.781	-0.02
671.965	0.04
672.149	0.03
672.333	-0.02
672.517	-0.02
672.701	0.02
672.885	0.04
673.069	-0.04
673.253	0.09
673.437	-0.03
673.621	-0.03
673.804	0.01
673.988	0.02
674.172	0.02
674.356	-0.06
674.54	0.02
674.724	0.1
674.908	-0
675.091	0.06
675.275	0.01
675.459	0.09
675.643	-0.01
675.826	0.06
676.01	0.04
676.194	0.03
676.377	0.04
676.561	0.03
676.745	0.01
676.928	0.04
677.112	0.02
677.296	-0.01
677.479	0.02
677.663	0.01
677.846	0.06
678.03	0.03
678.213	0.01
678.397	0.04
678.58	0.05
678.764	0.02
678.947	-0.01
679.131	0.02
679.314	0.03
679.498	0.03
679.681	0.02
679.865	0.05
680.048	0.03
680.231	0.01
680.415	0.02
680.598	-0.01
680.781	-0.01
680.965	-0.03
681.148	0
681.331	0.03
681.514	0.04
681.698	0
681.881	-0
682.064	0.02
682.247	0.02
682.43	-0.05
682.614	0.04
682.797	0.03
682.98	0.07
683.163	-0.03
683.346	0.01
683.529	0.03
683.712	-0.07
683.895	0.05
684.078	-0.03
684.261	-0.01
684.444	0.04
684.627	0.06
684.81	-0.02
684.993	-0.02
685.176	0.03
685.359	-0.01
685.542	-0.02
685.725	0.13
685.908	-0.01
686.091	-0
686.274	0.1
686.457	0.04
686.639	0.05
686.822	0.05
687.005	0.03
687.188	0.1
687.371	0.08
687.553	0.02
687.736	0.05
687.919	0.09
688.102	0.09
688.284	0.01
688.467	0.01
688.65	-0
688.832	0.02
689.015	0.02
689.197	-0.06
689.38	0.07
689.563	0.1
689.745	0.02
689.928	-0.05
690.11	0.02
690.293	0.04
690.475	-0.04
690.658	0.02
690.84	-0.04
691.023	0.07
691.205	0.02
691.388	0.03
691.57	0.1
691.752	0.09
691.935	-0.06
692.117	0.01
692.3	0.03
692.482	0.03
692.664	0.02
692.847	0.04
693.029	0.08
693.211	0.06
693.393	0.04
693.576	0.02
693.758	0
693.94	0.05
694.122	0
694.304	0.06
694.487	-0.02
694.669	0.13
694.851	-0.07
695.033	0.03
695.215	-0.01
695.397	0.02
695.579	0.05
695.761	0.01
695.943	-0.02
696.125	0.07
696.308	0.06
696.49	-0.1
696.671	0.11
696.853	-0.01
697.035	0.12
697.217	-0.03
697.399	0.05
697.581	-0.05
697.763	0.02
697.945	-0.03
698.127	0.02
698.309	0.09
698.491	0.06
698.672	0.07
698.854	0.09
699.036	0.08
699.218	-0.01
699.399	0.08
699.581	0.09
699.763	0.06
699.945	-0.05
700.126	-0.04
700.308	0.06
700.49	0.02
700.671	-0.06
700.853	-0.04
701.035	-0
701.216	0.03
701.398	-0.07
701.579	-0.04
701.761	0.05
701.943	-0.03
702.124	-0.04
702.306	0.02
702.487	0.15
702.669	0.02
702.85	-0.03
703.031	-0.07
703.213	0.12
703.394	0.09
703.576	0.01
703.757	0.15
703.938	0.05
704.12	0.16
704.301	-0.02
704.483	-0.05
704.664	0.06
704.845	0.15
705.026	0
705.208	0.05
705.389	0.02
705.57	0.07
705.751	0.01
705.933	0.03
706.114	0.02
706.295	0.02
706.476	-0.06
706.657	0.03
706.838	0.06
707.02	0.05
707.201	-0.05
707.382	-0.04
707.563	0.06
707.744	0
707.925	-0.05
708.106	-0.02
708.287	0.07
708.468	0.22
708.649	0.02
708.83	0.04
709.011	-0.02
709.192	0.09
709.373	-0.05
709.554	0.01
709.734	0.02
709.915	0.09
710.096	0.02
710.277	-0.07
710.458	0.1
710.639	0.04
710.819	-0.09
711	0.04
711.181	0.08
711.362	0.09
711.542	0.05
711.723	0.05
711.904	0.11
712.085	0.01
712.265	0.09
712.446	-0.03
712.627	-0.02
712.807	0.01
712.988	0.01
713.168	0
713.349	0.08
713.53	-0.12
713.71	-0.05
713.891	-0.02
714.071	0.02
714.252	-0.06
714.432	-0.01
714.613	-0.11
714.793	0.03
714.974	0.13
715.154	0.14
715.334	0.1
715.515	0.11
715.695	0.07
715.876	0.03
716.056	-0.01
716.236	-0.01
716.417	0
716.597	-0.11
716.777	0.17
716.957	0.02
717.138	-0.01
717.318	0.01
717.498	-0.04
717.678	0.1
717.859	0.07
718.039	-0.03
718.219	0.05
718.399	0.1
718.579	-0.06
718.759	-0.01
718.939	0.05
719.12	0.09
719.3	0.06
719.48	-0.17
719.66	-0.1
719.84	0.13
720.02	0.02
720.2	-0
720.38	0
720.56	0.11
720.74	-0.02
720.92	0.05
721.1	0.1
721.279	0.08
721.459	0.01
721.639	-0.05
721.819	0.05
721.999	0.01
722.179	0.02
722.359	-0.07
722.538	0.06
722.718	-0.01
722.898	0.01
723.078	0.01
723.257	0.03
723.437	0.14
723.617	-0.02
723.797	-0.03
723.976	-0.04
724.156	-0.03
724.336	0.15
724.515	0.21
724.695	-0.09
724.874	-0.04
725.054	0.09
725.234	-0.02
725.413	0.02
725.593	0.02
725.772	-0.06
725.952	-0.01
726.131	0.02
726.311	-0
726.49	0.02
726.67	-0.02
726.849	-0.02
727.028	0.1
727.208	0.02
727.387	0.09
727.567	-0.03
727.746	0.03
727.925	0.01
728.105	-0.01
728.284	-0.02
728.463	0.03
728.643	0.09
728.822	-0.01
729.001	0.05
729.18	-0.02
729.359	0.05
729.539	-0
729.718	0.02
729.897	0.13
730.076	0.01
730.255	-0.09
730.434	0.07
730.614	0.11
730.793	0.04
730.972	0
731.151	-0.04
731.33	0.17
731.509	0.07
731.688	0.01
731.867	-0.03
732.046	-0.03
732.225	0.28
732.404	0.08
732.583	-0.07
732.762	-0.02
732.941	0.15
733.12	0.1
733.298	-0
733.477	0.08
733.656	-0.02
733.835	-0.13
734.014	0.13
734.193	0.01
734.371	0.19
734.55	0.1
734.729	-0.05
734.908	0.09
735.086	0.09
735.265	0.17
735.444	-0.15
735.623	-0.13
735.801	-0.04
735.98	0.01
736.159	0.08
736.337	0.05
736.516	0.03
736.694	0.05
736.873	0.09
737.052	0.12
737.23	0.18
737.409	0.02
737.587	0.18
737.766	-0.15
737.944	0.05
738.123	0.11
738.301	0.11
738.479	-0.03
738.658	0.06
738.836	-0.06
739.015	0
739.193	0.27
739.371	-0.05
739.55	0.02
739.728	-0.17
739.906	0.17
740.085	0.17
740.263	0.01
740.441	-0.09
740.62	0.05
740.798	0.11
740.976	-0.02
741.154	-0.1
741.332	0.24
741.511	0.15
741.689	0.13
741.867	0.05
742.045	0.12
742.223	0.02
742.401	-0.08
742.579	-0.11
742.757	0.16
742.935	-0.06
743.114	-0
743.292	-0.1
743.47	-0.03
743.648	0.09
743.826	-0.02
744.004	0.18
744.181	0.16
744.359	-0.1
744.537	0.01
744.715	-0.06
744.893	-0.08
745.071	-0
745.249	-0.02
745.427	0.01
745.605	0.07
745.782	-0.05
745.96	0.09
746.138	0.11
746.316	0.18
746.493	0.08
746.671	0.07
746.849	-0.02
747.027	0.16
747.204	-0.08
747.382	-0.01
747.56	-0.09
747.737	0.02
747.915	0.01
748.093	0.11
748.27	0.01
748.448	-0.03
748.625	-0.02
748.803	-0.07
748.98	-0.03
749.158	0.07
749.335	0.1
749.513	0
749.69	-0.08
749.868	0.1
750.045	0.08
750.223	-0.06
750.4	-0.18
750.578	0.22
750.755	0.04
750.932	-0.12
751.11	0.19
751.287	-0.1
751.464	0.09
751.642	-0.06
751.819	0.15
751.996	-0.02
752.173	-0.1
752.351	-0.14
752.528	0.11
752.705	0.11
752.882	-0.11
753.06	0.04
753.237	0.17
753.414	0.27
753.591	0.16
753.768	0.07
753.945	-0.05
754.122	0.02
754.299	0.09
754.476	-0.05
754.654	0.03
754.831	0.05
755.008	0.14
755.185	0.01
755.362	-0.02
755.539	0.1
755.716	0.05
755.892	0.01
756.069	0.07
756.246	0.08
756.423	0.12
756.6	0.19
756.777	-0.01
756.954	0.1
757.131	0.06
757.307	0.02
757.484	-0.12
757.661	0.08
757.838	0.14
758.015	-0.11
758.191	0.03
758.368	-0.13
758.545	0.2
758.721	0.22
758.898	-0.18
759.075	0.14
759.251	0.15
759.428	0.12
759.605	-0.15
759.781	-0.04
759.958	0.14
760.134	0
760.311	0.03
760.488	0.19
760.664	0.2
760.841	0.07
761.017	-0.09
761.194	0.12
761.37	0.16
761.547	-0.02
761.723	-0.01
761.899	0.25
762.076	-0.02
762.252	-0.01
762.429	0.02
762.605	0.13
762.781	0.1
762.958	0.17
763.134	0.03
763.31	-0.03
763.486	0.26
763.663	-0.13
763.839	0.06
764.015	-0.2
764.191	-0.03
764.368	-0
764.544	-0.06
764.72	-0.03
764.896	0.09
765.072	0.04
765.248	-0.05
765.425	-0.09
765.601	0.05
765.777	0.01
765.953	-0.16
766.129	0.07
766.305	-0.05
766.481	0.07
766.657	0.01
766.833	0.23
767.009	-0.13
767.185	-0.03
767.361	0.09
767.537	-0.16
767.713	0.32
767.889	-0.15
768.065	0.1
768.24	-0.04
768.416	0.08
768.592	-0.03
768.768	-0.02
768.944	0.17
769.12	-0.05
769.295	-0.07
769.471	0.05
769.647	0
769.823	0.22
769.998	-0.06
770.174	-0.08
770.35	0.26
770.525	0.32
770.701	0.08
770.877	0.07
771.052	0.02
771.228	0.24
771.403	0.02
771.579	-0.04
771.755	0.29
771.93	0
772.106	-0.14
772.281	-0.15
772.457	0.05
772.632	0.13
772.808	-0.13
772.983	0.14
773.159	-0.27
773.334	0.15
773.509	0.07
773.685	-0.1
773.86	0.3
774.036	0.15
774.211	-0
774.386	0.09
774.562	0.02
774.737	0.29
774.912	-0.2
775.087	0.19
775.263	-0.08
775.438	0.1
775.613	-0.11
775.788	-0.02
775.964	0.22
776.139	0.37
776.314	-0.12
776.489	0.09
776.664	0.04
776.839	0.03
777.014	0.24
777.19	0.2
777.365	0.31
777.54	0.23
777.715	-0.11
777.89	-0.04
778.065	-0.14
778.24	0.02
778.415	0.15
778.59	0.05
778.765	-0.03
778.94	0.11
779.115	0.05
779.289	-0.15
779.464	0.08
779.639	0
779.814	-0.12
779.989	-0.17
780.164	0.33
780.339	0.1
780.513	-0.02
780.688	-0.01
780.863	-0.01
781.038	0.07
781.212	-0.05
781.387	-0.03
781.562	0.38
781.737	0.08
781.911	0.2
782.086	-0.19
782.261	0.09
782.435	0.23
782.61	-0.05
782.784	0.03
782.959	0.23
783.134	0
783.308	-0.35
783.483	-0.15
783.657	0.53
783.832	0.37
784.006	-0.17
784.181	0.04
784.355	0.23
784.53	0
784.704	-0.2
784.878	0.33
785.053	0.03
785.227	0.21
785.402	0.22
785.576	-0.09
785.75	-0.02
785.925	0.01
786.099	-0.08
786.273	0.09
786.448	0.02
786.622	0.22
786.796	-0.17
786.97	-0.14
787.145	0.62
787.319	-0.14
787.493	-0.04
787.667	-0.36
787.841	-0.03
788.015	0.46
788.19	-0.06
788.364	0.19
788.538	-0.01
788.712	0.25
788.886	0.23
789.06	0.18
789.234	0.2
789.408	-0.13
789.582	0.06
789.756	-0.03
789.93	-0.17
790.104	0.09
790.278	-0.08
790.452	-0.2
790.626	0.31
790.8	-0.07
790.973	0.11
791.147	0.35
791.321	0.24
791.495	0.29
791.669	0.1
791.843	0.26
792.016	0
792.19	0.45
792.364	0.04
792.538	0.52
792.711	0.4
792.885	0.08
793.059	-0.28
793.233	-0.2
793.406	0.3
793.58	-0.2
793.754	0.18
793.927	-0.01
794.101	0.39
794.274	0.08
794.448	0.44
794.622	-0.11
794.795	0.53
794.969	-0.07
795.142	0.33
795.316	-0.06
795.489	-0.21
795.663	0.37
795.836	0.16
796.009	-0.26
796.183	0.4
796.356	-0.02
796.53	-0.07
796.703	0.05
796.876	0.65
797.05	0.03
797.223	-0.09
797.396	0.31
797.57	0
797.743	0.39
797.916	0.06
798.09	0.12
798.263	0.46
798.436	-0.03
798.609	0.04
798.782	0.09
798.956	0.08
799.129	0.04
799.302	-0.02
799.475	-0.13
799.648	0.09
799.821	0.32
799.994	-0.01
800.167	-0.38
800.34	0.03
800.514	0.3
800.687	-0.03
800.86	-0.07
801.033	0.29
801.206	0.03
801.379	-0.11
801.551	0.07
801.724	0.1
801.897	0.54
802.07	0.3
802.243	-0.64
802.416	0.12
802.589	-0.06
802.762	0.2
802.935	-0.11
803.107	0.21
803.28	0.46
803.453	0.3
803.626	-0.58
803.798	0.35
803.971	-0.24
804.144	0.1
804.317	0.3
804.489	0.5
804.662	0.09
804.835	0.18
805.007	-0.07
805.18	0.57
805.353	0.19
805.525	0.1
805.698	-0.15
805.87	0.11
806.043	0.68
806.215	-0.41
806.388	-0.21
806.56	0.1
806.733	0.1
806.905	0.16
807.078	-0.17
807.25	-0.17
807.423	0.14
807.595	0.25
807.768	0.03
807.94	0.61
808.112	0.54
808.285	0.25
808.457	-0.18
808.629	0.15
808.802	0.29
808.974	-0.14
809.146	-0.12
809.318	-0.35
809.491	0.44
809.663	0.07
809.835	-0.06
810.007	0.16
810.18	0.19
810.352	-0.37
810.524	0.25
810.696	0.39
810.868	0.61
811.04	0
811.212	0.08
811.384	0.61
811.556	-0.09
811.728	0.31
811.901	1.06
812.073	-0.02
812.245	0.56
812.417	-0.01
812.589	-0.41
812.76	0.48
812.932	0.11
813.104	0.21
813.276	-0.18
813.448	0.4
813.62	0.6
813.792	0.36
813.964	0.18
814.136	0.1
814.307	-0.09
814.479	-0.42
814.651	-0.15
814.823	0.78
814.995	0.17
815.166	0.22
815.338	0.05
815.51	-0.37
815.681	0.84
815.853	-0.01
816.025	0.29
816.196	0.89
816.368	0.46
816.54	-0.34
816.711	-0.08
816.883	0.21
817.054	1.23
817.226	-0.32
817.398	0.17
817.569	-0.03
817.741	-0
817.912	-0.17
818.084	0.02
818.255	0.2
818.426	-0.28
818.598	0.03
818.769	-0.18
818.941	0.02
819.112	0.55
819.283	0.41
819.455	-0.22
819.626	0.19
819.798	0.31
819.969	0.29
820.14	-0.08
820.311	-0.16
820.483	0.49
820.654	0.32
820.825	0.07
820.996	0.1
821.168	-0.26
821.339	-0.22
821.51	-0.18
821.681	-0.16
821.852	0.17
822.023	-0.12
822.195	-1
822.366	0.57
822.537	-0.02
822.708	0.31
822.879	-0.15
823.05	1.02
823.221	-0.09
823.392	0.26
823.563	0.08
823.734	0.39
823.905	0.3
824.076	-0.07
824.247	-0.36
824.418	-0.36
824.589	0.66
824.759	0.11
824.93	-0.24
825.101	-0.25
825.272	0.65
825.443	0.43
825.614	0.38
825.784	-0.37
825.955	1.12
826.126	0.43
826.297	0.21
826.467	0.64
826.638	0.68
826.809	-0.97
826.98	-0.1
827.15	0.17
827.321	0.12
827.492	1.21
827.662	-0.11
827.833	1.15
828.003	0.96
828.174	-0.56
828.345	-0.72
828.515	0.25
828.686	0.5
828.856	0.15
829.027	0.42
829.197	0.56
829.368	0.12
829.538	-0.27
829.709	-0.49
829.879	-0.26
830.049	0.01
830.22	-0.1
830.39	0.36
830.56	1.12
830.731	0.12
830.901	-0.61
831.072	-0.04
831.242	0.63
831.412	0.74
831.582	-0.19
831.753	-1.07
831.923	0.3
832.093	0.67
832.263	-0.19
832.434	-0.78
832.604	0.12
832.774	0.64
832.944	-0.1
833.114	-0.13
833.284	0.47
833.454	-0.36
833.624	-0.45
833.795	0.19
833.965	0.61
834.135	0.8
834.305	-0.48
834.475	-0.56
834.645	-0.24
834.815	-0.11
834.985	-0.21
835.155	-0.41
835.325	0.48
835.494	0.23
835.664	-0.44
835.834	-0.39
836.004	0.06
836.174	0.02
836.344	0.31
836.514	-0.73
836.684	-0.11
836.853	0.4
837.023	-0.08
837.193	-0.17
837.363	1.15
837.532	0.69
837.702	-0.27
837.872	-1.11
838.041	0.31
838.211	1.66
838.381	-0.47
838.55	0.45
838.72	1.73
838.89	0.86
839.059	-0.16
839.229	-0.86
839.398	1.33
839.568	0.29
839.738	-0.48
839.907	0.39
840.077	0.44
840.246	-0.01
840.416	-0.46
840.585	-0.8
840.755	1.17
840.924	0.71
841.093	-1.23
841.263	-0.53
841.432	0.59
841.602	-0.17
841.771	-0.16
841.94	0.55
842.11	2.02
842.279	1.35
842.448	-0.99
842.617	-0.14
842.787	0.85
842.956	-0.66
843.125	0.15
843.294	0.1
843.464	1.13
843.633	-0.72
843.802	-0.8
843.971	-0.62
844.14	0.27
844.309	0.81
844.479	0.32
844.648	-0.62
844.817	0.25
844.986	0.12
845.155	-0.37
845.324	-0.14
845.493	-0.09
845.662	0.05
845.831	0.05
846	0.81
846.169	-0.11
846.338	1.57
846.507	0.58
846.676	0.91
846.844	-0.25
847.013	1.41
847.182	-0.01
847.351	-0.41
847.52	0.01
847.689	0.66
847.858	-0.28
848.026	-0.64
848.195	0.24
848.364	0.54
848.533	-1.29
848.701	-0.18
848.87	0.04
849.039	0.83
849.207	0.11
849.376	1.3
849.545	1.03
849.713	0.04
849.882	0.12
850.051	0.1
850.219	-0.08
850.388	0.82
850.556	-0.75
850.725	-1.1
850.893	0.13
851.062	0.11
851.23	0.19
851.399	-1.22
851.567	-0.78
851.736	-1.01
851.904	-1.42
852.073	0.01
852.241	1.18
852.41	0.01
852.578	-0.55
852.746	-0.17
852.915	0.71
853.083	-0.34
853.251	-0.2
853.42	-0.71
853.588	0.66
853.756	0.69
853.924	-0.84
854.093	-0.69
854.261	-0.16
854.429	-0.89
854.597	-0.29
854.765	-1.02
854.934	0.99
855.102	1.75
855.27	0.6
855.438	0.77
855.606	1.06
855.774	0.89
855.942	-0.93
856.11	-1.19
856.278	-0.94
856.446	1.62
856.614	0.4
856.782	0.15
856.95	2.15
857.118	0.65
857.286	-0.02
857.454	-0.69
857.622	1.71
857.79	0.42
857.958	-0.99
858.126	0.15
858.294	-2.9
858.462	0.32
858.629	-0.48
858.797	-1.31
858.965	0.26
859.133	0.38
859.301	-0.61
859.468	-0.1
859.636	0.32
859.804	2.01
859.971	0.6
860.139	-0.87
860.307	2.13
860.474	0.3
860.642	-1.01
860.81	-0.81
860.977	-0.1
861.145	1.78
861.313	-0.37
861.48	0.34
861.648	1.18
861.815	0.86
861.983	-0.55
862.15	-1.43
862.318	1.23
862.485	0.29
862.653	-0.97
862.82	-0.63
862.988	3.5
863.155	1.17
863.322	-1.47
863.49	-0.97
863.657	-0.89
863.824	2.18
863.992	-0.3
864.159	1.24
864.326	1.18
864.494	-0.85
864.661	2.43
864.828	-1.02
864.996	2.53
865.163	1.76
865.33	-0.18
865.497	-2.05
865.664	-1.36
865.832	-2.67
865.999	-0.5
866.166	-1.85
866.333	-0.56
866.5	-1.42
866.667	0.65
866.834	-0.71
867.001	2.25
867.168	-1.7
867.335	-0.75
867.502	-1.83
867.669	-0.35
867.836	1.21
868.003	-1.22
868.17	0.81
868.337	3.06
868.504	3.45
868.671	-0.96
868.838	-1.6
869.005	-0.1
869.172	0.48
869.339	-0.01
869.505	0.29
869.672	0.88
869.839	2.79
870.006	-0.1
870.173	-0.72
870.339	0.81
870.506	1.87
870.673	-0.92
870.84	0.77
871.006	0.91
871.173	1.83
871.34	0.28
871.506	-1.11
871.673	0.61
871.839	-1.56
872.006	-0.01
872.173	-0.15
872.339	0.21
872.506	2.64
872.672	-0.02
872.839	-1.82
873.005	1.04
873.172	2.76
873.338	1.09
873.505	1.32
873.671	0.63
873.838	1.04
874.004	-2.44
874.171	-1.85
874.337	0.51
874.503	1.4
874.67	0.34
874.836	0.27
875.002	3.31
875.169	1.94
875.335	0.69
875.501	-0.78
875.668	1.86
875.834	-0.43
876	0.47
876.166	0.62
876.332	1.98
876.499	4.88
876.665	-0.99
876.831	0.28
876.997	2.3
877.163	2.73
877.329	-1.16
877.495	0.74
877.662	0.74
877.828	0.45
877.994	1.08
878.16	-2.26
878.326	-0.1
878.492	1.46
878.658	-0.43
878.824	-0.32
878.99	2.06
879.156	-1.44
879.322	2.81
879.487	-0.96
879.653	1.52
879.819	1.15
879.985	-0.64
880.151	0.2
880.317	0.74
880.483	0.85
880.648	1.82
880.814	-3.59
880.98	0.78
881.146	-1.88
881.312	-1.04
881.477	-1.49
881.643	2.94
881.809	1.31
881.974	2.04
882.14	-1.72
882.306	-1.33
882.471	3.89
882.637	0.2
882.803	2.48
882.968	2.63
883.134	5.02
883.299	0.48
883.465	0.03
883.63	1.11
883.796	0.78
883.961	1.74
884.127	0.61
884.292	-4.8
884.458	-2.43
884.623	-2.42
