Data from Apollo_Calib_20240827__AbsoluteIrradiance__653__10-02-00-072.txt Node

Date: Wed Aug 28 10:02:00 BST 2024
User: biology
Spectrometer: FLMT08252
Trigger mode: 0
Integration Time (sec): 5.000000E-1
Scans to average: 5
Electric dark correction enabled: true
Nonlinearity correction enabled: false
Boxcar width: 0
XAxis mode: Wavelengths
Number of Pixels in Spectrum: 3648
>>>>>Begin Spectral Data<<<<<
179.588	-0
179.809	-0
180.03	-0
180.251	-0
180.473	-0
180.694	0
180.915	0
181.136	-0
181.357	0
181.578	-0
181.799	-0
182.02	-0
182.241	0
182.462	-0
182.683	0
182.904	0
183.125	-0
183.346	-0
183.567	0
183.788	-0
184.009	-0
184.23	0
184.451	0
184.672	-0
184.892	-0
185.113	0
185.334	0
185.555	-0
185.776	-0
185.996	0
186.217	0
186.438	-0
186.659	-0
186.879	0
187.1	-0
187.321	-0
187.541	-0
187.762	0
187.983	0
188.203	0
188.424	-0
188.644	-0
188.865	-0
189.086	-0
189.306	-0
189.527	-0
189.747	0
189.968	-0
190.188	-0
190.409	0
190.629	0
190.849	-0
191.07	-0
191.29	0
191.511	-0
191.731	-0
191.951	-0
192.172	-0
192.392	-0
192.612	-0
192.833	0
193.053	0
193.273	0
193.493	-0
193.714	-0
193.934	0
194.154	0
194.374	0
194.594	0
194.815	0
195.035	0
195.255	0
195.475	-0
195.695	0
195.915	0
196.135	0
196.355	0
196.575	0
196.795	-0
197.015	-0
197.235	-0
197.455	-0
197.675	-0
197.895	-0
198.115	0
198.335	0
198.555	-0
198.775	0
198.995	0
199.214	0
199.434	-0
199.654	-0
199.874	0
200.094	0.87
200.313	-0.4
200.533	-0.22
200.753	-0.96
200.973	0.7
201.192	0.26
201.412	-0.94
201.632	-0.23
201.851	0.96
202.071	-0.41
202.291	-0.3
202.51	-0.72
202.73	0.2
202.95	-0.23
203.169	-0.36
203.389	0.03
203.608	-0.05
203.828	-0.05
204.047	-0.5
204.267	0.22
204.486	0.13
204.706	0.28
204.925	-0.09
205.145	0.01
205.364	0.36
205.583	0.3
205.803	-0.18
206.022	-0.4
206.242	0.57
206.461	-0.05
206.68	-0.14
206.9	0.08
207.119	0.5
207.338	0.28
207.557	-0.37
207.777	0.01
207.996	-0.23
208.215	0.67
208.434	-0.43
208.654	-0.36
208.873	0.16
209.092	0.54
209.311	-0.05
209.53	-0.2
209.749	-0.22
209.968	-0.44
210.187	-0.02
210.407	-0.31
210.626	-0.41
210.845	0.14
211.064	-0.2
211.283	-0.42
211.502	0.17
211.721	0.17
211.94	0.04
212.159	0.24
212.377	0.23
212.596	0.27
212.815	-0.05
213.034	0.07
213.253	0.21
213.472	0.38
213.691	-0.08
213.91	-0.27
214.128	-0
214.347	0.43
214.566	-0.39
214.785	-0.35
215.003	0.3
215.222	0.03
215.441	-0.18
215.66	-0.19
215.878	-0.08
216.097	0.3
216.316	-0.25
216.534	-0.11
216.753	0.1
216.972	-0
217.19	-0.28
217.409	-0.35
217.627	-0.22
217.846	-0.09
218.064	-0.09
218.283	-0.17
218.501	0.29
218.72	0.16
218.938	-0.23
219.157	-0.08
219.375	0.06
219.594	0.19
219.812	-0.29
220.031	-0.21
220.249	0.27
220.467	0.4
220.686	-0.09
220.904	-0.19
221.122	-0.09
221.341	0.37
221.559	0.06
221.777	-0.21
221.995	-0.03
222.214	0.14
222.432	-0.22
222.65	0.05
222.868	-0.13
223.086	0.04
223.305	0.09
223.523	0.01
223.741	0.18
223.959	-0.06
224.177	-0.24
224.395	-0.2
224.613	0
224.831	0.15
225.049	-0.14
225.267	-0.09
225.485	0.1
225.703	-0.07
225.921	0.02
226.139	-0.04
226.357	0.12
226.575	0.13
226.793	-0
227.011	0.45
227.229	0
227.447	0.1
227.665	-0.1
227.883	-0.18
228.1	0.03
228.318	0.03
228.536	-0.29
228.754	-0.26
228.972	0.02
229.189	0.16
229.407	0.02
229.625	-0.03
229.843	0.11
230.06	0.12
230.278	-0.17
230.496	-0.12
230.713	0.13
230.931	0.11
231.149	-0.03
231.366	-0.23
231.584	-0.03
231.801	0.36
232.019	-0.07
232.236	-0.13
232.454	-0.1
232.671	0.02
232.889	-0.01
233.106	-0.15
233.324	0.03
233.541	-0.07
233.759	0.05
233.976	-0.01
234.194	0.08
234.411	-0.09
234.628	-0.17
234.846	-0.01
235.063	0.05
235.28	-0.07
235.498	-0.03
235.715	-0.09
235.932	0.11
236.149	0.08
236.367	-0.13
236.584	0.02
236.801	-0.07
237.018	-0.03
237.236	-0.04
237.453	-0.16
237.67	0.13
237.887	0.06
238.104	-0.12
238.321	-0.09
238.538	-0.05
238.755	0.09
238.973	-0.17
239.19	-0.01
239.407	0.11
239.624	0.1
239.841	-0.11
240.058	-0.02
240.275	0.06
240.492	-0.08
240.709	-0.01
240.925	-0.08
241.142	-0.04
241.359	-0.1
241.576	-0.06
241.793	-0.03
242.01	-0.06
242.227	0.12
242.444	0.01
242.66	-0.03
242.877	-0.01
243.094	-0.08
243.311	0.09
243.527	-0.04
243.744	0.05
243.961	0.08
244.178	-0.13
244.394	0.01
244.611	0.06
244.828	0.13
245.044	-0.06
245.261	-0.02
245.477	-0.01
245.694	0.04
245.911	-0.02
246.127	0.02
246.344	0.23
246.56	0.02
246.777	-0.03
246.993	-0.01
247.21	0.04
247.426	0.06
247.643	-0.11
247.859	-0.06
248.076	-0.02
248.292	0.15
248.508	-0.06
248.725	0.01
248.941	0.1
249.157	0
249.374	-0.02
249.59	-0.05
249.806	0.02
250.023	0.03
250.239	-0.02
250.455	-0.05
250.671	0.08
250.888	0.02
251.104	0.08
251.32	-0.14
251.536	0.07
251.752	-0.04
251.969	-0.06
252.185	0.07
252.401	0.2
252.617	-0.08
252.833	-0.07
253.049	0
253.265	0.07
253.481	-0.06
253.697	0.01
253.913	-0.01
254.129	0.04
254.345	-0.04
254.561	-0.01
254.777	0.02
254.993	0.11
255.209	-0
255.425	0.02
255.641	-0.05
255.857	0.08
256.073	0.06
256.288	-0.12
256.504	-0.05
256.72	-0.01
256.936	0.14
257.152	-0.04
257.367	-0.13
257.583	0.07
257.799	-0.01
258.015	-0.05
258.23	0.02
258.446	0.12
258.662	0.01
258.877	-0.06
259.093	-0.07
259.309	0
259.524	0.01
259.74	0
259.955	-0.11
260.171	-0.01
260.387	0.02
260.602	0.07
260.818	0
261.033	-0.05
261.249	-0.04
261.464	-0.04
261.68	-0.1
261.895	0.09
262.11	0.06
262.326	-0.04
262.541	-0.11
262.757	0.04
262.972	0.09
263.187	0.04
263.403	-0.03
263.618	0.09
263.833	-0.02
264.049	-0.08
264.264	0.01
264.479	0.05
264.694	0.13
264.91	-0.08
265.125	-0.02
265.34	0.07
265.555	0.16
265.77	0.01
265.986	-0.04
266.201	0.04
266.416	0.07
266.631	-0.06
266.846	-0.01
267.061	0.02
267.276	0.13
267.491	-0.12
267.706	0.03
267.921	-0.02
268.136	0.01
268.351	0.03
268.566	-0.06
268.781	0.12
268.996	0.04
269.211	0.01
269.426	-0.04
269.641	-0.04
269.856	0.09
270.071	-0.09
270.285	-0.06
270.5	0.07
270.715	0.08
270.93	0.07
271.145	0.04
271.359	0.04
271.574	-0.07
271.789	0.02
272.004	-0.06
272.218	-0.06
272.433	0.08
272.648	-0.06
272.862	0.07
273.077	0
273.292	0.02
273.506	-0
273.721	0.01
273.936	0.06
274.15	-0.01
274.365	0
274.579	0.06
274.794	0.06
275.008	0.05
275.223	-0.09
275.437	0
275.652	0.13
275.866	-0.02
276.081	-0.01
276.295	0.09
276.509	0.03
276.724	0.04
276.938	-0.02
277.153	0.04
277.367	0.03
277.581	-0.05
277.796	-0.04
278.01	-0.07
278.224	0.1
278.438	0.14
278.653	-0.05
278.867	-0.04
279.081	-0.16
279.295	0.01
279.51	0
279.724	-0.07
279.938	0.07
280.152	0.02
280.366	-0
280.58	0.01
280.794	0.09
281.008	0.01
281.222	0
281.437	0.1
281.651	0
281.865	0.04
282.079	-0.02
282.293	-0.11
282.507	-0
282.721	0.05
282.935	-0.01
283.148	-0.04
283.362	-0.01
283.576	-0.08
283.79	-0.05
284.004	-0.04
284.218	0.07
284.432	-0.04
284.646	0
284.859	-0.01
285.073	-0.04
285.287	0.06
285.501	-0
285.714	0
285.928	0.03
286.142	-0.03
286.356	-0.03
286.569	-0.01
286.783	0.06
286.997	0.03
287.21	-0.05
287.424	0
287.637	-0.02
287.851	-0
288.065	0.07
288.278	-0.03
288.492	0.01
288.705	-0.03
288.919	0.01
289.132	-0.09
289.346	0.06
289.559	-0.12
289.773	-0.01
289.986	-0.04
290.2	-0.01
290.413	0.05
290.626	-0.01
290.84	-0
291.053	-0.01
291.267	0.09
291.48	-0.02
291.693	-0.02
291.906	0
292.12	-0.01
292.333	-0.06
292.546	-0.01
292.76	0.07
292.973	0.02
293.186	0.02
293.399	-0.01
293.612	0.01
293.826	0
294.039	0.05
294.252	0.02
294.465	0.01
294.678	0.02
294.891	-0.02
295.104	0.01
295.317	0.01
295.53	0
295.743	0.01
295.956	0.02
296.169	0.07
296.382	0.05
296.595	-0.01
296.808	-0.05
297.021	0.09
297.234	0.04
297.447	-0.03
297.66	0.08
297.873	0.03
298.086	0.04
298.299	-0
298.511	-0.04
298.724	-0.05
298.937	-0.05
299.15	-0.01
299.363	0.01
299.575	0.03
299.788	0.07
300.001	0
300.213	-0.06
300.426	-0
300.639	-0.04
300.852	-0.01
301.064	0.02
301.277	0.1
301.489	0.05
301.702	0.03
301.915	-0.02
302.127	-0.03
302.34	0.01
302.552	0.04
302.765	-0.01
302.977	0.08
303.19	0
303.402	-0.01
303.615	0.01
303.827	0.01
304.04	-0.02
304.252	0.03
304.464	0.02
304.677	0.07
304.889	0.05
305.102	-0.09
305.314	-0.03
305.526	0.06
305.739	0.02
305.951	-0.04
306.163	-0.01
306.375	0.11
306.588	-0.01
306.8	-0.02
307.012	-0.07
307.224	0.07
307.436	0.04
307.649	-0.07
307.861	0.01
308.073	0.04
308.285	-0.01
308.497	-0.01
308.709	0.01
308.921	-0.02
309.133	0.07
309.346	-0.04
309.558	0.01
309.77	0.04
309.982	0.06
310.194	0.05
310.406	-0
310.617	0.08
310.829	0.05
311.041	0.03
311.253	-0.02
311.465	-0.03
311.677	-0.01
311.889	0.01
312.101	-0.02
312.313	0.04
312.524	0.03
312.736	-0.01
312.948	-0.01
313.16	0.11
313.372	0.04
313.583	0.02
313.795	-0.01
314.007	-0.03
314.218	0.01
314.43	-0.02
314.642	-0.02
314.853	-0.07
315.065	0.02
315.277	-0.04
315.488	0.03
315.7	0.03
315.912	0.01
316.123	-0.04
316.335	0.01
316.546	0.13
316.758	-0.02
316.969	0.03
317.181	0.02
317.392	-0.02
317.604	0.07
317.815	-0.03
318.026	-0.01
318.238	0.01
318.449	0.02
318.661	-0.05
318.872	-0.05
319.083	-0.1
319.295	0.02
319.506	-0.02
319.717	0.03
319.929	0.04
320.14	-0.01
320.351	-0
320.562	-0.02
320.774	-0.03
320.985	0.02
321.196	-0.02
321.407	-0.02
321.618	0.03
321.829	0.03
322.041	0.05
322.252	-0.01
322.463	0.03
322.674	0.01
322.885	-0.06
323.096	-0.04
323.307	-0.03
323.518	0.01
323.729	-0.06
323.94	-0.03
324.151	-0.02
324.362	0.03
324.573	0.03
324.784	0
324.995	0.05
325.206	0.01
325.417	-0.01
325.628	-0.02
325.838	0.02
326.049	-0.02
326.26	0.03
326.471	-0.01
326.682	-0.02
326.892	0.01
327.103	-0.08
327.314	-0.05
327.525	0.06
327.735	0
327.946	-0.04
328.157	-0.03
328.368	0.01
328.578	-0
328.789	0.01
328.999	0.01
329.21	-0
329.421	0.04
329.631	-0.02
329.842	-0.03
330.052	0.05
330.263	-0.01
330.473	0.04
330.684	0
330.894	0.03
331.105	-0.02
331.315	0.02
331.526	-0.06
331.736	0.04
331.947	0
332.157	-0
332.367	-0.05
332.578	0
332.788	0.06
332.999	0.04
333.209	0.02
333.419	-0.04
333.629	0.04
333.84	0.01
334.05	-0.04
334.26	0.07
334.47	-0.01
334.681	0.05
334.891	-0
335.101	0.01
335.311	0.11
335.521	-0.03
335.732	-0.04
335.942	0.06
336.152	0.05
336.362	0
336.572	0.02
336.782	0.01
336.992	-0.03
337.202	0.02
337.412	-0.02
337.622	0.03
337.832	0
338.042	0.04
338.252	-0.03
338.462	-0.02
338.672	0
338.882	-0.02
339.092	0.02
339.302	0.05
339.511	0.05
339.721	-0.03
339.931	-0.05
340.141	0.1
340.351	0.03
340.561	0.04
340.77	-0.02
340.98	-0.01
341.19	0.01
341.4	0.02
341.609	-0.03
341.819	-0.04
342.029	-0.02
342.238	0.02
342.448	-0.02
342.658	0.03
342.867	0
343.077	0.01
343.286	0.03
343.496	0.04
343.706	0.01
343.915	-0.05
344.125	0.03
344.334	0.01
344.544	-0.08
344.753	0.03
344.963	-0.03
345.172	-0.01
345.381	-0.02
345.591	-0.05
345.8	0.02
346.01	0.06
346.219	0.03
346.428	-0.11
346.638	0.01
346.847	-0.04
347.056	0.06
347.266	-0
347.475	-0.03
347.684	0
347.893	-0
348.103	0.04
348.312	-0.02
348.521	-0
348.73	0
348.94	0
349.149	-0.04
349.358	-0.05
349.567	0.01
349.776	-0.07
349.985	-0.03
350.194	0.01
350.403	0.06
350.612	-0.05
350.821	-0.02
351.03	-0.05
351.239	-0.05
351.448	-0.05
351.657	-0.03
351.866	0.06
352.075	-0.03
352.284	0.06
352.493	-0.04
352.702	0.06
352.911	0.03
353.12	0.02
353.329	-0.04
353.538	0.04
353.746	0.01
353.955	-0.05
354.164	0.06
354.373	-0.01
354.582	0.04
354.79	0.02
354.999	0.02
355.208	-0.01
355.416	0.02
355.625	-0.04
355.834	-0.01
356.042	-0.01
356.251	-0.01
356.46	-0.03
356.668	0.02
356.877	0.06
357.085	0.02
357.294	-0.07
357.503	0.05
357.711	-0.04
357.92	0.11
358.128	0.01
358.337	-0
358.545	-0
358.754	-0.02
358.962	0
359.17	-0.05
359.379	0.02
359.587	0.01
359.796	0
360.004	0.05
360.212	0.01
360.421	0.05
360.629	0.02
360.837	-0
361.046	0.03
361.254	0.12
361.462	-0
361.67	-0.02
361.879	0.01
362.087	0.04
362.295	0.04
362.503	-0.02
362.711	-0.08
362.92	-0.06
363.128	-0.01
363.336	-0.02
363.544	-0.04
363.752	-0.07
363.96	-0.04
364.168	-0.04
364.376	0
364.584	0.03
364.792	0.01
365	0.02
365.208	-0.04
365.416	0.02
365.624	0.04
365.832	0.02
366.04	0.04
366.248	-0.01
366.456	0.06
366.664	-0.01
366.872	-0.01
367.079	-0.05
367.287	0.02
367.495	0.01
367.703	-0.01
367.911	-0.01
368.118	-0
368.326	-0.01
368.534	-0.01
368.742	0.06
368.949	-0.05
369.157	-0.06
369.365	0.02
369.572	0.02
369.78	-0.05
369.988	0.06
370.195	0.03
370.403	0.02
370.61	-0.01
370.818	-0.01
371.026	0.03
371.233	-0.04
371.441	0
371.648	0.01
371.856	0.04
372.063	-0
372.271	-0
372.478	0.01
372.685	-0.03
372.893	0.02
373.1	-0
373.308	0.01
373.515	0.09
373.722	0.02
373.93	0.03
374.137	0.02
374.344	0.06
374.552	0.02
374.759	0.02
374.966	-0.01
375.173	-0.02
375.381	0.02
375.588	0.01
375.795	-0.03
376.002	-0.01
376.209	-0.01
376.417	-0
376.624	0.01
376.831	0.03
377.038	-0.05
377.245	-0.05
377.452	-0.04
377.659	-0.03
377.866	-0.07
378.073	-0.04
378.28	0.02
378.487	0.01
378.694	0.03
378.901	-0.03
379.108	0
379.315	0.06
379.522	0.06
379.729	0.01
379.936	-0.03
380.143	-0.02
380.35	0.04
380.557	0.01
380.763	-0.02
380.97	0.01
381.177	-0.01
381.384	-0.01
381.591	-0.08
381.797	-0.02
382.004	0.01
382.211	0.04
382.418	-0.04
382.624	-0.04
382.831	0.06
383.038	-0.01
383.244	0.04
383.451	-0.02
383.658	-0
383.864	-0.03
384.071	-0.05
384.277	0
384.484	-0.06
384.69	0.01
384.897	-0.08
385.103	0.04
385.31	-0.05
385.516	-0.05
385.723	-0.02
385.929	-0.04
386.136	-0.03
386.342	0.04
386.549	-0
386.755	0.06
386.961	0.03
387.168	-0.03
387.374	-0.01
387.58	0.03
387.787	0
387.993	-0
388.199	0
388.406	-0.02
388.612	-0
388.818	-0.03
389.024	-0
389.231	-0
389.437	0.06
389.643	0.07
389.849	0.01
390.055	0.01
390.261	0.03
390.467	0.01
390.674	-0.06
390.88	-0
391.086	0
391.292	-0.04
391.498	0.03
391.704	-0.04
391.91	-0.04
392.116	-0.04
392.322	-0.08
392.528	0.04
392.734	-0.04
392.94	-0.02
393.146	-0.01
393.352	0
393.557	-0.04
393.763	-0.03
393.969	0.01
394.175	-0.05
394.381	0.04
394.587	-0.05
394.792	-0.02
394.998	0.06
395.204	0.08
395.41	0
395.615	0.03
395.821	0.02
396.027	0.04
396.233	-0.03
396.438	0.01
396.644	0.04
396.85	0
397.055	0.02
397.261	-0.02
397.466	-0.03
397.672	-0.03
397.878	0.03
398.083	0.02
398.289	-0.04
398.494	0.07
398.7	0.02
398.905	-0.1
399.111	0.04
399.316	-0.08
399.522	-0.04
399.727	-0.01
399.932	-0.01
400.138	0.02
400.343	0.05
400.549	-0.02
400.754	0
400.959	0.01
401.165	0.01
401.37	0.02
401.575	-0.03
401.78	-0.01
401.986	-0.03
402.191	-0.01
402.396	0.03
402.601	0.02
402.807	0.01
403.012	0.01
403.217	0.05
403.422	0.03
403.627	-0.03
403.832	-0.03
404.037	-0.03
404.243	-0.01
404.448	-0.07
404.653	-0.04
404.858	0
405.063	0.05
405.268	-0.02
405.473	-0.02
405.678	-0.02
405.883	0.15
406.088	0.04
406.293	-0.06
406.498	-0.03
406.703	0.03
406.907	-0.01
407.112	-0.02
407.317	-0.04
407.522	0.02
407.727	-0.06
407.932	-0.03
408.136	0.05
408.341	-0.02
408.546	0.01
408.751	-0.01
408.956	-0.03
409.16	0.06
409.365	-0.03
409.57	-0
409.774	0.01
409.979	0.04
410.184	-0.01
410.388	-0.06
410.593	0.03
410.798	-0
411.002	-0.04
411.207	0.08
411.411	0.01
411.616	-0.04
411.82	0.02
412.025	0.02
412.229	-0.03
412.434	0.03
412.638	-0.03
412.843	-0.02
413.047	0
413.252	-0.05
413.456	0
413.66	0.03
413.865	-0.02
414.069	0.05
414.273	-0.02
414.478	-0.03
414.682	-0.03
414.886	-0.05
415.091	-0.08
415.295	-0.11
415.499	0.01
415.703	0.01
415.908	0.02
416.112	-0.12
416.316	0.02
416.52	-0.03
416.724	-0.08
416.929	-0.04
417.133	0.07
417.337	-0.01
417.541	-0.06
417.745	-0.01
417.949	0.02
418.153	0.02
418.357	-0.03
418.561	0.02
418.765	0
418.969	0.06
419.173	0.02
419.377	-0.03
419.581	0.07
419.785	-0.02
419.989	-0.06
420.193	-0.06
420.397	-0.04
420.601	0.07
420.804	0.04
421.008	-0.01
421.212	0.01
421.416	0.01
421.62	-0.04
421.823	-0.01
422.027	0.04
422.231	0.02
422.435	-0.01
422.638	0.01
422.842	-0.06
423.046	-0.02
423.249	0.04
423.453	0.02
423.657	0.02
423.86	0.01
424.064	0
424.268	0.05
424.471	0
424.675	0.09
424.878	0.05
425.082	-0.01
425.285	-0.02
425.489	-0
425.692	-0.01
425.896	-0.03
426.099	0.03
426.303	-0.04
426.506	-0.06
426.71	-0
426.913	0.07
427.116	0.07
427.32	-0.02
427.523	-0.01
427.726	0.04
427.93	-0.05
428.133	-0.04
428.336	-0.02
428.54	-0.04
428.743	0
428.946	0.03
429.149	0.02
429.353	0.04
429.556	0
429.759	0.04
429.962	-0.09
430.165	-0.03
430.368	0.01
430.571	-0.04
430.775	-0.01
430.978	-0.01
431.181	0.03
431.384	0
431.587	-0.03
431.79	-0
431.993	0.01
432.196	-0.04
432.399	-0.03
432.602	0.05
432.805	-0.04
433.008	0
433.211	-0.07
433.414	0.02
433.616	0.01
433.819	-0.02
434.022	-0.09
434.225	0.07
434.428	-0.01
434.631	0.07
434.833	-0.02
435.036	-0.03
435.239	0.01
435.442	-0.01
435.645	-0.03
435.847	-0.01
436.05	0.02
436.253	0.02
436.455	-0.09
436.658	-0.02
436.861	0.04
437.063	-0.03
437.266	-0.01
437.468	-0.01
437.671	0.09
437.874	-0
438.076	-0.08
438.279	-0.07
438.481	0
438.684	-0.04
438.886	0.01
439.089	-0.06
439.291	-0.03
439.494	0
439.696	-0.02
439.899	-0.03
440.101	0
440.303	-0.13
440.506	0.01
440.708	0.01
440.91	0
441.113	-0.05
441.315	-0.04
441.517	-0.07
441.72	0.05
441.922	-0.05
442.124	-0.05
442.326	0.01
442.529	0.05
442.731	-0.04
442.933	0.05
443.135	-0.07
443.337	-0.02
443.539	-0.01
443.742	-0.01
443.944	0
444.146	-0
444.348	-0.03
444.55	-0.05
444.752	0
444.954	-0.02
445.156	0.01
445.358	-0.04
445.56	0.03
445.762	-0.03
445.964	-0.03
446.166	-0.03
446.368	-0.01
446.57	0.04
446.772	-0.03
446.974	-0.03
447.175	-0
447.377	-0.03
447.579	-0.03
447.781	-0.1
447.983	0.04
448.184	-0.02
448.386	0.02
448.588	-0.08
448.79	0.04
448.991	-0.03
449.193	-0.02
449.395	0.01
449.597	0.03
449.798	-0.01
450	0.02
450.202	-0.03
450.403	-0.01
450.605	0.05
450.806	-0.02
451.008	-0.08
451.21	-0.01
451.411	-0
451.613	-0
451.814	-0.02
452.016	0.02
452.217	-0.05
452.419	0.03
452.62	0.01
452.821	0.03
453.023	0.1
453.224	0.06
453.426	-0.03
453.627	0.02
453.828	0.05
454.03	-0.01
454.231	0.03
454.432	-0.09
454.634	0.07
454.835	-0.02
455.036	-0.05
455.238	0.03
455.439	0.07
455.64	-0.07
455.841	-0.04
456.042	0.06
456.244	0.03
456.445	-0.05
456.646	-0.05
456.847	-0
457.048	0.04
457.249	0.04
457.45	0.12
457.651	-0.01
457.852	0.06
458.054	-0.01
458.255	-0.01
458.456	0.05
458.657	-0.03
458.858	-0.02
459.058	-0
459.259	0.04
459.46	-0
459.661	-0.04
459.862	0.12
460.063	-0.04
460.264	0.05
460.465	-0.08
460.666	0.08
460.866	-0.01
461.067	0.01
461.268	0
461.469	-0.01
461.67	0.06
461.87	-0.04
462.071	-0.03
462.272	0.01
462.473	-0.03
462.673	0
462.874	-0.07
463.075	-0.03
463.275	-0.02
463.476	0.03
463.676	-0.03
463.877	-0.01
464.078	-0.02
464.278	0
464.479	-0.04
464.679	-0.01
464.88	0
465.08	0.11
465.281	-0.04
465.481	-0.03
465.682	0
465.882	0.02
466.083	-0.01
466.283	-0.03
466.483	-0.03
466.684	-0.07
466.884	-0.05
467.085	-0.02
467.285	0.04
467.485	-0.06
467.686	-0.01
467.886	-0.05
468.086	-0.02
468.286	-0
468.487	-0.01
468.687	-0.07
468.887	0.02
469.087	0.05
469.287	0.01
469.488	-0.05
469.688	0.02
469.888	0.06
470.088	0.05
470.288	0.05
470.488	-0
470.688	-0.06
470.888	-0.02
471.088	-0.04
471.288	0
471.488	0.01
471.688	-0.02
471.888	-0.01
472.088	0.05
472.288	0.01
472.488	-0.02
472.688	-0.02
472.888	-0.01
473.088	-0.01
473.288	-0.01
473.488	-0.02
473.688	0.08
473.887	-0.02
474.087	-0.04
474.287	-0.02
474.487	-0.02
474.687	-0.01
474.886	-0.05
475.086	-0.01
475.286	-0
475.486	-0
475.685	0
475.885	-0.01
476.085	-0.01
476.284	0
476.484	-0.03
476.684	0.04
476.883	0.06
477.083	0.02
477.282	-0.01
477.482	0.04
477.681	0.06
477.881	0.04
478.08	-0.03
478.28	-0.02
478.479	0.01
478.679	0.08
478.878	-0.04
479.078	-0
479.277	-0.02
479.477	-0.05
479.676	0.03
479.875	0.01
480.075	-0.05
480.274	0.05
480.473	0.03
480.673	-0.04
480.872	0.03
481.071	0.01
481.271	0.01
481.47	-0
481.669	-0.02
481.868	-0.03
482.067	-0.04
482.267	-0.01
482.466	-0.01
482.665	-0.04
482.864	-0.03
483.063	-0.04
483.262	0.01
483.461	0.04
483.661	0.03
483.86	0.01
484.059	0
484.258	-0.03
484.457	-0
484.656	-0
484.855	0.06
485.054	-0.06
485.253	-0.04
485.452	-0.02
485.651	0
485.849	-0.02
486.048	-0.03
486.247	-0.02
486.446	0.01
486.645	-0.01
486.844	-0.03
487.043	-0.02
487.241	0.03
487.44	-0.02
487.639	-0.02
487.838	0.03
488.037	0.01
488.235	0.04
488.434	0
488.633	-0.01
488.831	0.01
489.03	0.02
489.229	0
489.427	-0.03
489.626	0.02
489.825	0.04
490.023	-0.02
490.222	-0
490.42	0
490.619	0.02
490.817	-0.02
491.016	-0.03
491.214	0.04
491.413	-0.01
491.611	-0
491.81	0.02
492.008	0.02
492.207	0.02
492.405	0.01
492.604	-0.04
492.802	-0.01
493	-0
493.199	-0.02
493.397	-0
493.595	-0.01
493.794	-0.01
493.992	0.04
494.19	-0.01
494.388	-0.01
494.587	-0.01
494.785	0.01
494.983	-0.02
495.181	-0.01
495.379	-0
495.578	-0.02
495.776	0
495.974	-0.02
496.172	-0.03
496.37	-0.02
496.568	-0.04
496.766	-0.04
496.964	0.04
497.162	0.01
497.36	-0.02
497.558	0.02
497.756	0.02
497.954	0
498.152	-0.04
498.35	0.01
498.548	-0
498.746	-0
498.944	-0.01
499.142	-0.03
499.34	-0.03
499.538	-0.04
499.736	-0.03
499.933	0.04
500.131	0.03
500.329	-0.01
500.527	0.02
500.725	0.02
500.922	0.03
501.12	0
501.318	0.02
501.516	-0.03
501.713	0.01
501.911	-0
502.109	-0.02
502.306	0.02
502.504	-0.01
502.701	-0.01
502.899	-0.02
503.097	0.02
503.294	-0.01
503.492	-0.01
503.689	-0.01
503.887	0.01
504.084	0.02
504.282	-0.01
504.479	-0.05
504.677	-0.02
504.874	-0.03
505.072	-0
505.269	-0
505.466	0.01
505.664	0
505.861	-0.05
506.059	-0.05
506.256	0.01
506.453	-0.01
506.651	0.02
506.848	0.02
507.045	0.03
507.242	-0.01
507.44	-0.03
507.637	0
507.834	-0.01
508.031	0.01
508.229	-0.03
508.426	0
508.623	0.01
508.82	-0.01
509.017	-0.02
509.214	-0.02
509.411	-0.02
509.608	-0.01
509.805	-0.02
510.003	-0.01
510.2	-0.03
510.397	0.02
510.594	-0.01
510.791	-0.03
510.988	-0.03
511.184	0.02
511.381	0.01
511.578	-0.01
511.775	0.01
511.972	-0.04
512.169	0.01
512.366	0.01
512.563	0.01
512.76	0.01
512.956	0.02
513.153	-0.01
513.35	0.01
513.547	-0
513.744	-0.02
513.94	-0.03
514.137	0.02
514.334	0
514.53	-0.01
514.727	0.02
514.924	0.03
515.12	-0.02
515.317	-0.04
515.514	-0.01
515.71	-0.04
515.907	-0.03
516.103	0.01
516.3	0.01
516.497	-0
516.693	0.01
516.89	0
517.086	0
517.283	0
517.479	-0.01
517.676	-0.02
517.872	0
518.068	0.01
518.265	-0.02
518.461	-0.02
518.658	-0.01
518.854	0.02
519.05	-0.01
519.247	-0.01
519.443	0.02
519.639	0.01
519.836	-0
520.032	0
520.228	0.01
520.424	0.03
520.621	0
520.817	-0.01
521.013	0.01
521.209	0.01
521.405	0.02
521.601	-0
521.798	-0.02
521.994	0.01
522.19	-0.04
522.386	-0.03
522.582	-0.03
522.778	0.01
522.974	-0.01
523.17	0.01
523.366	-0.01
523.562	0.02
523.758	0
523.954	-0.03
524.15	-0.01
524.346	-0
524.542	-0.02
524.738	-0.02
524.934	-0.01
525.129	-0.1
525.325	0.01
525.521	0
525.717	0.01
525.913	0.01
526.109	0.01
526.304	0.02
526.5	0.01
526.696	0.03
526.892	-0.01
527.087	0.01
527.283	-0.03
527.479	0
527.674	-0.01
527.87	-0.03
528.066	-0.03
528.261	0.01
528.457	0
528.653	-0.02
528.848	-0.01
529.044	-0
529.239	0.01
529.435	0.03
529.63	0.01
529.826	0.04
530.021	0
530.217	0.03
530.412	-0.01
530.608	-0.02
530.803	0.01
530.999	-0.02
531.194	-0.04
531.389	-0.03
531.585	-0.05
531.78	-0.02
531.975	-0
532.171	-0
532.366	-0.03
532.561	-0
532.757	-0.04
532.952	-0.02
533.147	0.01
533.342	0.01
533.538	-0.02
533.733	0.03
533.928	-0.03
534.123	0.01
534.318	-0.03
534.513	-0
534.709	0.01
534.904	-0.01
535.099	0
535.294	-0.02
535.489	0.01
535.684	-0.02
535.879	-0.07
536.074	0.01
536.269	-0.03
536.464	0
536.659	0
536.854	-0
537.049	-0
537.244	-0.01
537.439	-0.01
537.634	0.03
537.828	0.01
538.023	-0.02
538.218	-0.02
538.413	-0.01
538.608	-0.03
538.803	0
538.997	-0.06
539.192	0.03
539.387	-0.01
539.582	0.03
539.776	-0
539.971	-0.01
540.166	-0
540.36	-0.05
540.555	0.01
540.75	-0.03
540.944	-0.01
541.139	-0.04
541.334	-0.01
541.528	-0
541.723	0.01
541.917	-0.03
542.112	-0.02
542.306	-0.03
542.501	-0.01
542.695	0.01
542.89	-0.01
543.084	-0.02
543.279	-0.03
543.473	-0.01
543.668	0
543.862	0
544.056	0.02
544.251	-0.02
544.445	0.02
544.64	-0.01
544.834	-0.03
545.028	-0
545.222	-0.02
545.417	0.01
545.611	0.01
545.805	-0.01
546	-0.02
546.194	-0.01
546.388	-0.03
546.582	0.01
546.776	0.01
546.97	0.01
547.165	0.01
547.359	0.03
547.553	-0.01
547.747	-0
547.941	-0.01
548.135	-0.01
548.329	0.02
548.523	-0.01
548.717	0
548.911	-0.02
549.105	-0.02
549.299	-0
549.493	0.02
549.687	0.02
549.881	-0
550.075	-0.02
550.269	-0.04
550.463	0.01
550.657	-0.01
550.85	-0
551.044	-0.03
551.238	-0
551.432	-0.01
551.626	-0.01
551.82	-0.02
552.013	-0.03
552.207	-0.01
552.401	0
552.594	-0.01
552.788	-0.01
552.982	-0
553.176	-0.02
553.369	0
553.563	0
553.756	-0.04
553.95	-0.05
554.144	-0.01
554.337	0.04
554.531	-0.01
554.724	0
554.918	-0
555.111	0.01
555.305	0.01
555.498	0.04
555.692	0.01
555.885	-0
556.079	0.01
556.272	-0.01
556.466	0.02
556.659	0.02
556.852	-0.01
557.046	0
557.239	0.03
557.432	-0.04
557.626	-0.04
557.819	0
558.012	0
558.206	0
558.399	-0
558.592	-0.02
558.785	-0.03
558.979	0.02
559.172	0.01
559.365	0
559.558	0
559.751	-0.02
559.944	-0.01
560.138	-0
560.331	-0.01
560.524	-0.01
560.717	-0.02
560.91	-0.03
561.103	0.01
561.296	-0
561.489	-0.03
561.682	0.01
561.875	0.05
562.068	0.02
562.261	0
562.454	0.02
562.647	0.02
562.84	-0.01
563.032	-0.01
563.225	-0.01
563.418	-0.01
563.611	-0.02
563.804	-0.02
563.997	-0.04
564.19	-0.01
564.382	-0.03
564.575	-0.01
564.768	0.01
564.961	0.01
565.153	-0.04
565.346	0.03
565.539	0
565.731	0.04
565.924	-0.01
566.117	-0.01
566.309	0
566.502	0
566.695	-0.01
566.887	0.01
567.08	-0.02
567.272	-0.02
567.465	-0.02
567.657	0.01
567.85	0
568.042	-0
568.235	0.02
568.427	-0
568.62	0.01
568.812	0.02
569.005	-0.01
569.197	-0.04
569.389	0
569.582	-0.01
569.774	0.02
569.966	-0.03
570.159	-0.03
570.351	0
570.543	-0.02
570.736	-0.01
570.928	-0.03
571.12	0
571.312	-0.01
571.505	-0.02
571.697	0.01
571.889	-0.04
572.081	-0
572.273	-0.03
572.465	0.02
572.658	-0.02
572.85	0.01
573.042	-0.01
573.234	0
573.426	0.02
573.618	-0.04
573.81	-0.02
574.002	0.04
574.194	0.02
574.386	-0.03
574.578	-0.07
574.77	-0.03
574.962	-0.02
575.154	-0.04
575.346	-0.01
575.538	-0.01
575.729	-0.05
575.921	-0.02
576.113	0
576.305	0.03
576.497	-0.03
576.689	0
576.88	-0.03
577.072	-0.01
577.264	-0.03
577.456	0.02
577.647	-0.09
577.839	-0.03
578.031	0.04
578.223	-0.02
578.414	-0.04
578.606	0.01
578.798	-0
578.989	-0.04
579.181	0.03
579.372	-0.01
579.564	-0.02
579.755	-0.02
579.947	-0
580.139	0.01
580.33	-0.05
580.522	-0.05
580.713	-0.06
580.905	-0.03
581.096	0
581.287	-0.02
581.479	-0.01
581.67	-0
581.862	-0.01
582.053	-0.01
582.244	-0.02
582.436	-0.02
582.627	-0.01
582.818	-0.02
583.01	-0.05
583.201	0.01
583.392	0.03
583.583	-0.01
583.775	-0.03
583.966	-0.04
584.157	-0.01
584.348	-0.01
584.54	-0.04
584.731	0.01
584.922	-0.03
585.113	-0.03
585.304	0
585.495	0.01
585.686	-0.01
585.877	0.01
586.068	0
586.259	-0.01
586.45	0
586.641	-0.03
586.832	-0.06
587.023	0.01
587.214	-0.03
587.405	-0
587.596	-0.03
587.787	0.02
587.978	-0.01
588.169	-0.05
588.36	-0.02
588.551	-0
588.742	-0.01
588.932	-0.01
589.123	0.02
589.314	0.04
589.505	-0
589.696	0
589.886	-0.03
590.077	-0.05
590.268	-0.03
590.458	-0.05
590.649	-0.04
590.84	0.03
591.03	-0.04
591.221	-0.05
591.412	-0.03
591.602	-0.01
591.793	-0.01
591.984	-0.04
592.174	-0.04
592.365	0.06
592.555	-0.02
592.746	0
592.936	0.01
593.127	0.01
593.317	0.03
593.508	-0.01
593.698	-0.03
593.889	-0
594.079	0
594.269	-0.03
594.46	-0.01
594.65	0
594.84	-0.01
595.031	-0
595.221	-0.02
595.411	-0.04
595.602	0.02
595.792	-0.02
595.982	-0.02
596.172	0.06
596.363	0.02
596.553	-0.02
596.743	-0.02
596.933	-0.02
597.123	0.02
597.314	-0.03
597.504	-0.04
597.694	0.04
597.884	0
598.074	-0.02
598.264	-0.02
598.454	-0
598.644	-0.01
598.834	-0.01
599.024	-0.03
599.214	-0
599.404	0.02
599.594	-0.04
599.784	-0.04
599.974	0
600.164	0.02
600.354	-0.05
600.544	-0.02
600.734	0.02
600.924	0.02
601.114	-0.04
601.303	0
601.493	-0
601.683	-0.01
601.873	0
602.063	-0.04
602.252	0.03
602.442	-0.05
602.632	-0.03
602.821	-0.06
603.011	0
603.201	-0.01
603.39	-0.04
603.58	-0.04
603.77	0.01
603.959	0.01
604.149	-0
604.339	-0.01
604.528	0.02
604.718	0.02
604.907	-0.01
605.097	-0.01
605.286	-0.02
605.476	0.02
605.665	0.01
605.855	-0.05
606.044	0.03
606.234	0.02
606.423	-0.03
606.612	-0.05
606.802	-0.02
606.991	0.01
607.181	0
607.37	-0.06
607.559	-0.03
607.749	-0.05
607.938	-0.04
608.127	-0.04
608.316	-0.01
608.506	-0.01
608.695	-0.03
608.884	-0.01
609.073	-0.02
609.263	0
609.452	0.01
609.641	-0.01
609.83	-0.05
610.019	-0.03
610.208	-0.04
610.397	-0.02
610.586	0.04
610.775	-0.02
610.965	-0.02
611.154	-0.03
611.343	0.01
611.532	-0
611.721	-0.04
611.91	-0.05
612.099	-0
612.287	-0.02
612.476	-0.04
612.665	-0.01
612.854	-0.05
613.043	0.03
613.232	-0.02
613.421	-0.03
613.61	-0.01
613.798	-0.05
613.987	0.03
614.176	0.01
614.365	0.02
614.554	-0.03
614.742	0.03
614.931	-0.04
615.12	0.01
615.309	-0.05
615.497	-0.01
615.686	-0.03
615.875	0.03
616.063	-0.01
616.252	-0.01
616.44	-0.02
616.629	-0.02
616.818	0.02
617.006	-0.02
617.195	-0.02
617.383	0.03
617.572	-0.02
617.76	-0.04
617.949	0.01
618.137	-0
618.326	0.01
618.514	-0.04
618.703	-0.05
618.891	0.05
619.079	-0.1
619.268	-0
619.456	-0.03
619.644	0.05
619.833	-0.02
620.021	-0.04
620.209	-0.04
620.398	0
620.586	-0.01
620.774	0.01
620.962	-0.01
621.151	0.02
621.339	0
621.527	-0.04
621.715	-0.05
621.903	-0.05
622.092	-0.02
622.28	0
622.468	-0.01
622.656	-0.01
622.844	0.02
623.032	-0.01
623.22	-0.07
623.408	0
623.596	0.02
623.784	0.01
623.972	-0.02
624.16	0.01
624.348	0.05
624.536	-0.03
624.724	-0.01
624.912	0.01
625.1	0.03
625.288	-0.04
625.476	-0.04
625.664	0.02
625.851	-0.05
626.039	0.02
626.227	0.02
626.415	-0.02
626.603	-0.07
626.79	0
626.978	0.02
627.166	0.01
627.354	-0.02
627.541	-0.04
627.729	-0.06
627.917	0.02
628.104	0.02
628.292	0
628.48	0.02
628.667	0.01
628.855	0
629.042	0.03
629.23	-0.05
629.418	-0.01
629.605	-0.02
629.793	-0.03
629.98	-0.02
630.168	-0
630.355	-0.04
630.543	0
630.73	-0.06
630.917	-0.01
631.105	0.03
631.292	-0.04
631.48	-0.02
631.667	0.07
631.854	0.02
632.042	-0.02
632.229	-0.05
632.416	-0.03
632.604	-0
632.791	-0.03
632.978	0.02
633.165	0.02
633.353	0.04
633.54	0.04
633.727	-0.06
633.914	-0.01
634.101	0.01
634.289	0.02
634.476	-0.06
634.663	-0.04
634.85	-0.01
635.037	-0.05
635.224	-0.08
635.411	0.04
635.598	0.02
635.785	-0.02
635.972	-0.03
636.159	0.04
636.346	-0.03
636.533	-0.02
636.72	-0.03
636.907	-0.02
637.094	0.02
637.281	-0.02
637.468	0
637.655	-0.02
637.842	-0.01
638.029	-0.06
638.215	0.01
638.402	-0
638.589	-0.04
638.776	-0.02
638.963	-0.03
639.149	-0.01
639.336	0.05
639.523	-0.04
639.709	-0.03
639.896	-0.01
640.083	0.04
640.27	-0.02
640.456	-0.02
640.643	0
640.829	-0.05
641.016	-0.01
641.203	-0.04
641.389	0.01
641.576	0.01
641.762	-0.03
641.949	-0.04
642.135	0.03
642.322	0.01
642.508	-0.07
642.695	-0.02
642.881	-0
643.068	-0.01
643.254	0
643.441	0.04
643.627	-0.04
643.813	-0.03
644	0.05
644.186	-0.01
644.372	-0.05
644.559	0.04
644.745	-0.01
644.931	0
645.118	-0.02
645.304	0.01
645.49	-0.01
645.676	-0.06
645.862	0.01
646.049	0.06
646.235	-0
646.421	0.02
646.607	0.05
646.793	-0.05
646.979	-0.02
647.165	0
647.352	-0
647.538	0
647.724	0.01
647.91	0.02
648.096	0.01
648.282	0.05
648.468	-0.01
648.654	-0.02
648.84	0.01
649.026	0
649.212	0
649.397	-0.02
649.583	-0.06
649.769	0.01
649.955	0.03
650.141	-0
650.327	0.03
650.513	-0.05
650.698	0
650.884	-0.07
651.07	0.01
651.256	0
651.442	-0.01
651.627	-0.02
651.813	0.02
651.999	-0
652.184	0
652.37	-0.02
652.556	-0.01
652.741	0.06
652.927	-0.05
653.113	0.02
653.298	0
653.484	-0
653.669	-0.01
653.855	-0.03
654.04	0
654.226	0.01
654.412	-0.04
654.597	-0.02
654.782	-0.02
654.968	0.02
655.153	0.01
655.339	-0.03
655.524	-0.02
655.71	0.05
655.895	-0.02
656.08	0.03
656.266	0.05
656.451	0.01
656.636	-0.02
656.822	-0.01
657.007	-0
657.192	-0.04
657.378	-0.03
657.563	-0.01
657.748	0.03
657.933	0.01
658.118	-0.02
658.304	-0.02
658.489	0.02
658.674	-0
658.859	-0.05
659.044	0.01
659.229	0.02
659.414	-0.01
659.599	-0.02
659.785	-0.06
659.97	0
660.155	0.04
660.34	-0.02
660.525	-0.01
660.71	0.02
660.895	0.08
661.08	-0.01
661.264	-0.03
661.449	0.03
661.634	0.06
661.819	0.06
662.004	0.01
662.189	-0.09
662.374	-0.04
662.559	-0.03
662.743	-0.08
662.928	0.02
663.113	-0.01
663.298	-0.07
663.483	-0.01
663.667	0.02
663.852	-0.01
664.037	0.06
664.221	-0.01
664.406	0.06
664.591	0.02
664.775	0.03
664.96	0.01
665.145	0.02
665.329	0.02
665.514	-0.03
665.698	0.01
665.883	-0.07
666.068	0.1
666.252	0.02
666.437	-0.03
666.621	0.04
666.806	0.06
666.99	0.01
667.174	-0.01
667.359	0.07
667.543	-0.02
667.728	0.02
667.912	-0.06
668.096	0.01
668.281	0.03
668.465	0.01
668.649	0.01
668.834	-0.03
669.018	0
669.202	-0.01
669.387	0
669.571	0.04
669.755	-0.04
669.939	-0.01
670.124	0.01
670.308	0.08
670.492	0.04
670.676	0.04
670.86	0.02
671.044	-0.02
671.228	0.05
671.413	0
671.597	-0.03
671.781	-0.01
671.965	0.03
672.149	0.02
672.333	0.02
672.517	0
672.701	0.04
672.885	-0.01
673.069	-0.02
673.253	0.09
673.437	0.02
673.621	-0.01
673.804	0.01
673.988	0.02
674.172	-0.02
674.356	-0.02
674.54	0.04
674.724	0.14
674.908	0.01
675.091	0.1
675.275	0.01
675.459	0.07
675.643	0.04
675.826	0.05
676.01	0.03
676.194	0.02
676.377	0.12
676.561	0.09
676.745	0.04
676.928	0.08
677.112	0.09
677.296	-0.01
677.479	0.04
677.663	0.03
677.846	0.06
678.03	0.03
678.213	0.1
678.397	0.08
678.58	0.05
678.764	0.02
678.947	0.07
679.131	0.03
679.314	0.08
679.498	0.03
679.681	0.09
679.865	0.12
680.048	0.06
680.231	0.09
680.415	0.04
680.598	0.05
680.781	0.07
680.965	0.03
681.148	0.08
681.331	0.06
681.514	0.13
681.698	0.05
681.881	0.1
682.064	0.09
682.247	0.07
682.43	0.03
682.614	0.09
682.797	0.09
682.98	0.16
683.163	0.03
683.346	0.11
683.529	0.05
683.712	0.06
683.895	0.15
684.078	0.04
684.261	0.1
684.444	0.12
684.627	0.13
684.81	0.09
684.993	0.11
685.176	0.13
685.359	0.08
685.542	0.09
685.725	0.17
685.908	0.16
686.091	0.09
686.274	0.16
686.457	0.14
686.639	0.08
686.822	0.18
687.005	0.1
687.188	0.14
687.371	0.22
687.553	0.14
687.736	0.18
687.919	0.26
688.102	0.24
688.284	0.09
688.467	0.13
688.65	0.1
688.832	0.12
689.015	0.13
689.197	0.08
689.38	0.21
689.563	0.24
689.745	0.14
689.928	0.12
690.11	0.15
690.293	0.21
690.475	0.1
690.658	0.23
690.84	0.16
691.023	0.21
691.205	0.23
691.388	0.21
691.57	0.26
691.752	0.2
691.935	0.16
692.117	0.19
692.3	0.23
692.482	0.17
692.664	0.22
692.847	0.23
693.029	0.3
693.211	0.25
693.393	0.25
693.576	0.21
693.758	0.23
693.94	0.22
694.122	0.2
694.304	0.26
694.487	0.21
694.669	0.33
694.851	0.22
695.033	0.28
695.215	0.26
695.397	0.27
695.579	0.33
695.761	0.26
695.943	0.25
696.125	0.39
696.308	0.34
696.49	0.21
696.671	0.42
696.853	0.32
697.035	0.46
697.217	0.35
697.399	0.37
697.581	0.28
697.763	0.3
697.945	0.31
698.127	0.36
698.309	0.43
698.491	0.37
698.672	0.47
698.854	0.44
699.036	0.48
699.218	0.42
699.399	0.46
699.581	0.46
699.763	0.41
699.945	0.38
700.126	0.43
700.308	0.47
700.49	0.44
700.671	0.39
700.853	0.42
701.035	0.45
701.216	0.47
701.398	0.46
701.579	0.47
701.761	0.55
701.943	0.51
702.124	0.47
702.306	0.54
702.487	0.68
702.669	0.52
702.85	0.59
703.031	0.49
703.213	0.66
703.394	0.65
703.576	0.6
703.757	0.66
703.938	0.71
704.12	0.72
704.301	0.61
704.483	0.66
704.664	0.7
704.845	0.82
705.026	0.72
705.208	0.74
705.389	0.69
705.57	0.79
705.751	0.76
705.933	0.79
706.114	0.85
706.295	0.83
706.476	0.72
706.657	0.95
706.838	0.89
707.02	0.87
707.201	0.86
707.382	0.84
707.563	0.96
707.744	0.91
707.925	0.89
708.106	0.95
708.287	1.05
708.468	1.07
708.649	1.05
708.83	1
709.011	1.02
709.192	1.02
709.373	0.94
709.554	1.03
709.734	1.07
709.915	1.1
710.096	1.11
710.277	1.08
710.458	1.17
710.639	1.18
710.819	1.08
711	1.19
711.181	1.36
711.362	1.29
711.542	1.26
711.723	1.26
711.904	1.43
712.085	1.34
712.265	1.36
712.446	1.24
712.627	1.35
712.807	1.48
712.988	1.45
713.168	1.39
713.349	1.43
713.53	1.37
713.71	1.48
713.891	1.51
714.071	1.62
714.252	1.56
714.432	1.61
714.613	1.55
714.793	1.65
714.974	1.78
715.154	1.9
715.334	1.75
715.515	1.92
715.695	1.84
715.876	1.87
716.056	1.9
716.236	1.85
716.417	2.06
716.597	1.88
716.777	2.14
716.957	2.06
717.138	2.12
717.318	2.14
717.498	2.2
717.678	2.22
717.859	2.18
718.039	2.24
718.219	2.29
718.399	2.42
718.579	2.25
718.759	2.43
718.939	2.47
719.12	2.46
719.3	2.6
719.48	2.46
719.66	2.52
719.84	2.79
720.02	2.71
720.2	2.72
720.38	2.78
720.56	3
720.74	2.88
720.92	3.04
721.1	3.16
721.279	3.12
721.459	3.15
721.639	3.09
721.819	3.18
721.999	3.2
722.179	3.25
722.359	3.18
722.538	3.45
722.718	3.41
722.898	3.46
723.078	3.57
723.257	3.59
723.437	3.63
723.617	3.71
723.797	3.8
723.976	3.81
724.156	3.95
724.336	3.99
724.515	4.16
724.695	4.03
724.874	4.03
725.054	4.26
725.234	4.16
725.413	4.29
725.593	4.31
725.772	4.29
725.952	4.48
726.131	4.28
726.311	4.57
726.49	4.55
726.67	4.64
726.849	4.64
727.028	4.77
727.208	4.74
727.387	5
727.567	4.89
727.746	4.91
727.925	4.97
728.105	5.02
728.284	5.18
728.463	5.04
728.643	5.29
728.822	5.18
729.001	5.43
729.18	5.55
729.359	5.62
729.539	5.71
729.718	5.61
729.897	5.74
730.076	5.81
730.255	5.83
730.434	5.89
730.614	6.14
730.793	6.21
730.972	6.11
731.151	6.37
731.33	6.33
731.509	6.47
731.688	6.47
731.867	6.6
732.046	6.48
732.225	6.88
732.404	6.66
732.583	6.77
732.762	6.9
732.941	7.03
733.12	7.15
733.298	7.1
733.477	7.34
733.656	7.04
733.835	7.23
734.014	7.46
734.193	7.31
734.371	7.57
734.55	7.64
734.729	7.53
734.908	7.56
735.086	7.66
735.265	7.8
735.444	7.53
735.623	7.62
735.801	7.66
735.98	7.9
736.159	7.68
736.337	7.7
736.516	7.8
736.694	7.6
736.873	7.68
737.052	7.86
737.23	7.7
737.409	7.6
737.587	7.83
737.766	7.47
737.944	7.34
738.123	7.69
738.301	7.57
738.479	7.37
738.658	7.35
738.836	7.09
739.015	7.13
739.193	7.01
739.371	6.84
739.55	6.57
739.728	6.38
739.906	6.6
740.085	6.63
740.263	6.54
740.441	6
740.62	6.27
740.798	5.9
740.976	5.51
741.154	5.56
741.332	5.69
741.511	5.29
741.689	5.1
741.867	5.01
742.045	4.75
742.223	4.65
742.401	4.58
742.579	4.37
742.757	4.39
742.935	4.12
743.114	4.04
743.292	3.86
743.47	3.83
743.648	3.84
743.826	3.51
744.004	3.5
744.181	3.46
744.359	3.27
744.537	3.2
744.715	2.95
744.893	2.84
745.071	2.65
745.249	2.74
745.427	2.61
745.605	2.55
745.782	2.46
745.96	2.44
746.138	2.38
746.316	2.11
746.493	2.17
746.671	2.14
746.849	1.92
747.027	2.16
747.204	1.96
747.382	1.88
747.56	1.64
747.737	1.53
747.915	1.64
748.093	1.64
748.27	1.43
748.448	1.43
748.625	1.35
748.803	1.42
748.98	1.2
749.158	1.33
749.335	1.32
749.513	1.17
749.69	1.11
749.868	1.08
750.045	1.14
750.223	1.03
750.4	0.87
750.578	1.18
750.755	0.96
750.932	0.74
751.11	1.08
751.287	0.68
751.464	1
751.642	0.84
751.819	0.86
751.996	0.7
752.173	0.75
752.351	0.69
752.528	0.77
752.705	0.67
752.882	0.63
753.06	0.73
753.237	0.64
753.414	0.68
753.591	0.77
753.768	0.68
753.945	0.5
754.122	0.44
754.299	0.57
754.476	0.4
754.654	0.51
754.831	0.6
755.008	0.42
755.185	0.46
755.362	0.22
755.539	0.49
755.716	0.31
755.892	0.24
756.069	0.41
756.246	0.35
756.423	0.27
756.6	0.51
756.777	0.38
756.954	0.43
757.131	0.4
757.307	0.21
757.484	0.24
757.661	0.37
757.838	0.32
758.015	0.1
758.191	0.42
758.368	0.19
758.545	0.36
758.721	0.32
758.898	0.2
759.075	0.28
759.251	0.33
759.428	0.4
759.605	0.09
759.781	0.11
759.958	0.2
760.134	0.36
760.311	0.12
760.488	0.22
760.664	0.34
760.841	0.18
761.017	0.13
761.194	0.22
761.37	0.28
761.547	0.26
761.723	0.14
761.899	0.24
762.076	0.09
762.252	-0.01
762.429	-0.02
762.605	0.12
762.781	0.12
762.958	0.39
763.134	0.17
763.31	0.11
763.486	0.21
763.663	-0.02
763.839	0.23
764.015	-0.08
764.191	0.02
764.368	0.09
764.544	0.06
764.72	0.06
764.896	0.22
765.072	0.22
765.248	0.11
765.425	-0
765.601	0.08
765.777	0.06
765.953	-0.13
766.129	0
766.305	-0.07
766.481	0.17
766.657	0.08
766.833	0.19
767.009	-0.04
767.185	0.04
767.361	0.12
767.537	-0.03
767.713	0.26
767.889	-0.05
768.065	0.12
768.24	0.1
768.416	0.12
768.592	-0.02
768.768	-0.07
768.944	0.13
769.12	-0.21
769.295	0.13
769.471	0.04
769.647	0.1
769.823	0.29
769.998	0
770.174	-0.09
770.35	0.28
770.525	0.29
770.701	0.18
770.877	0.04
771.052	-0.04
771.228	0.15
771.403	0.05
771.579	0.1
771.755	0.2
771.93	-0.06
772.106	-0.07
772.281	-0.24
772.457	0.08
772.632	0.07
772.808	-0.24
772.983	-0.03
773.159	-0.12
773.334	0.2
773.509	0.07
773.685	0.02
773.86	0.42
774.036	0.27
774.211	0.02
774.386	-0.11
774.562	-0.04
774.737	0.15
774.912	-0.02
775.087	0.11
775.263	0.04
775.438	-0.03
775.613	-0.1
775.788	0
775.964	0.06
776.139	0.16
776.314	-0.19
776.489	0.09
776.664	0.12
776.839	-0.09
777.014	0.12
777.19	0.09
777.365	0.22
777.54	0.31
777.715	-0.08
777.89	0.08
778.065	-0.09
778.24	0.02
778.415	0.05
778.59	-0.23
778.765	-0.18
778.94	-0.09
779.115	0.06
779.289	-0.17
779.464	-0.07
779.639	-0.07
779.814	-0.17
779.989	-0.07
780.164	0.05
780.339	0.03
780.513	-0.08
780.688	-0.07
780.863	-0.02
781.038	0.15
781.212	0.11
781.387	0.01
781.562	0.22
781.737	-0.13
781.911	0.13
782.086	-0.07
782.261	0.01
782.435	0.21
782.61	-0.19
782.784	0.06
782.959	0.32
783.134	0.04
783.308	-0.22
783.483	0.05
783.657	0.38
783.832	0.12
784.006	-0.29
784.181	-0.07
784.355	0.2
784.53	-0.14
784.704	-0.12
784.878	0.18
785.053	0.28
785.227	0.1
785.402	0.4
785.576	-0.24
785.75	-0.23
785.925	-0.07
786.099	0.08
786.273	0.03
786.448	0.01
786.622	0.25
786.796	-0.15
786.97	-0.07
787.145	0.45
787.319	-0.29
787.493	-0.09
787.667	-0.27
787.841	0.07
788.015	0.26
788.19	-0.15
788.364	-0.05
788.538	-0.02
788.712	0.03
788.886	0.03
789.06	0.19
789.234	0.28
789.408	-0.24
789.582	-0.03
789.756	0.06
789.93	-0.13
790.104	-0.27
790.278	-0.13
790.452	-0.21
790.626	-0.04
790.8	-0.05
790.973	0.22
791.147	0.13
791.321	0.02
791.495	0.1
791.669	0.11
791.843	0.18
792.016	-0.06
792.19	0.16
792.364	0.03
792.538	0.49
792.711	0.13
792.885	-0.01
793.059	-0.15
793.233	-0.47
793.406	0.23
793.58	0.08
793.754	0.1
793.927	-0.02
794.101	0.24
794.274	0.06
794.448	0.06
794.622	-0.22
794.795	0.3
794.969	-0.24
795.142	0.45
795.316	-0.08
795.489	-0.13
795.663	0.38
795.836	-0.07
796.009	-0.33
796.183	0.31
796.356	0.01
796.53	0.15
796.703	0.12
796.876	0.6
797.05	-0.14
797.223	0.16
797.396	-0.08
797.57	0.08
797.743	0.49
797.916	0.07
798.09	0.05
798.263	0.27
798.436	0.09
798.609	-0.18
798.782	-0.21
798.956	-0.28
799.129	-0.13
799.302	-0.03
799.475	-0.37
799.648	-0.37
799.821	-0.32
799.994	-0.04
800.167	-0.37
800.34	0.09
800.514	-0.07
800.687	-0.21
800.86	-0.16
801.033	-0.02
801.206	-0.05
801.379	-0.29
801.551	0.19
801.724	0.46
801.897	0.17
802.07	-0.32
802.243	-0.61
802.416	0.04
802.589	-0.12
802.762	0.08
802.935	-0.33
803.107	0.09
803.28	0.26
803.453	0.3
803.626	-0.12
803.798	0.24
803.971	-0.23
804.144	-0.05
804.317	0.4
804.489	0.36
804.662	-0.13
804.835	0.15
805.007	-0.22
805.18	0.08
805.353	-0.02
805.525	-0.38
805.698	-0.06
805.87	0.08
806.043	0.38
806.215	-0.37
806.388	-0.27
806.56	-0.13
806.733	0.09
806.905	0.15
807.078	-0.1
807.25	-0.12
807.423	-0.12
807.595	-0.06
807.768	-0
807.94	0.17
808.112	-0.09
808.285	0.09
808.457	-0.27
808.629	-0.18
808.802	0.4
808.974	-0.03
809.146	-0.02
809.318	-0.6
809.491	0.01
809.663	0.26
809.835	-0.52
810.007	0.07
810.18	0.07
810.352	-0.44
810.524	-0.09
810.696	0.32
810.868	0.3
811.04	-0.17
811.212	-0.17
811.384	0.48
811.556	0.13
811.728	0.03
811.901	0.47
812.073	0.04
812.245	0.23
812.417	-0.15
812.589	-0.72
812.76	0.09
812.932	0.09
813.104	0.08
813.276	-0.06
813.448	0.09
813.62	-0.25
813.792	0.11
813.964	-0.18
814.136	0.33
814.307	-0.17
814.479	-0.32
814.651	-0
814.823	0.71
814.995	-0.3
815.166	-0.22
815.338	0.05
815.51	-0.13
815.681	0.74
815.853	-0.15
816.025	0.2
816.196	0.38
816.368	0.04
816.54	-0.42
816.711	-0.26
816.883	-0.16
817.054	0.79
817.226	-0.56
817.398	-0.02
817.569	-0.07
817.741	0.53
817.912	-0.1
818.084	-0.08
818.255	0.12
818.426	0.07
818.598	0.03
818.769	-0.03
818.941	0.28
819.112	0.55
819.283	0.09
819.455	-0.25
819.626	-0.18
819.798	0.03
819.969	0.13
820.14	-0.07
820.311	-0.29
820.483	0.17
820.654	0.25
820.825	0.07
820.996	-0.29
821.168	-0.59
821.339	-0.62
821.51	-0.67
821.681	0.95
821.852	0.01
822.023	-0.16
822.195	-0.34
822.366	0.45
822.537	0.26
822.708	-0.02
822.879	-0.28
823.05	0.36
823.221	-0.39
823.392	0.52
823.563	-0.36
823.734	-0.16
823.905	-0.37
824.076	-0.02
824.247	-0.46
824.418	-0.38
824.589	0.5
824.759	-0.28
824.93	-0.23
825.101	-0.56
825.272	0.18
825.443	0.44
825.614	0.07
825.784	-0.9
825.955	1.28
826.126	0.73
826.297	-0.15
826.467	0.29
826.638	0.51
826.809	-0.57
826.98	-0.27
827.15	0.04
827.321	-0.2
827.492	0.7
827.662	0.03
827.833	1.13
828.003	0.05
828.174	-0.73
828.345	-0.11
828.515	0.43
828.686	0.1
828.856	-0.18
829.027	0.22
829.197	0.32
829.368	0.18
829.538	-0.24
829.709	-0.43
829.879	0.25
830.049	-0.21
830.22	-1.08
830.39	-0.28
830.56	0.34
830.731	-0.2
830.901	-0.62
831.072	0.03
831.242	-0.22
831.412	0.12
831.582	0.44
831.753	-0.27
831.923	0.25
832.093	-0.12
832.263	-0.34
832.434	-0.72
832.604	-0.1
832.774	0.4
832.944	0.03
833.114	-0.26
833.284	0.79
833.454	-0.56
833.624	-0.1
833.795	-0.07
833.965	0.06
834.135	0.53
834.305	-0.51
834.475	-0.53
834.645	-0.38
834.815	-0.5
834.985	-0.32
835.155	-0.53
835.325	0.23
835.494	0.46
835.664	-0.78
835.834	-0.92
836.004	-0.37
836.174	-0.13
836.344	-0.3
836.514	-0.95
836.684	0.21
836.853	0.11
837.023	0.22
837.193	-0
837.363	0.67
837.532	0.36
837.702	0.04
837.872	-0.48
838.041	0.9
838.211	0.68
838.381	-0.96
838.55	-0.45
838.72	1.53
838.89	0.98
839.059	-0.6
839.229	-0.18
839.398	0.96
839.568	0.11
839.738	0.43
839.907	0.79
840.077	0.38
840.246	-0.64
840.416	-0.63
840.585	-0.82
840.755	0.96
840.924	0.61
841.093	-0.73
841.263	0.3
841.432	0.13
841.602	-0.58
841.771	-0.9
841.94	0.26
842.11	2.03
842.279	0.81
842.448	-0.91
842.617	-1.21
842.787	0.93
842.956	-0.44
843.125	-0.4
843.294	0.27
843.464	0.86
843.633	-0.21
843.802	-0.97
843.971	0.12
844.14	1.2
844.309	0.4
844.479	-1.05
844.648	-0
844.817	-0.17
844.986	0.16
845.155	-0
845.324	0.12
845.493	-0.09
845.662	-1.26
845.831	0.24
846	0.15
846.169	-0.08
846.338	0.3
846.507	0.13
846.676	-0.1
846.844	-0.36
847.013	0.98
847.182	0.42
847.351	-0.65
847.52	0.17
847.689	-0.37
847.858	-0.22
848.026	-0.69
848.195	-0.35
848.364	-0.42
848.533	-0.54
848.701	-0.49
848.87	0
849.039	-0.26
849.207	0.96
849.376	1.38
849.545	0.2
849.713	-0.04
849.882	-0.22
850.051	-0.39
850.219	-0.13
850.388	0.47
850.556	-0.39
850.725	-0.53
850.893	0.26
851.062	0.07
851.23	0.42
851.399	-1.26
851.567	-0.14
851.736	0.11
851.904	-0.48
852.073	0.16
852.241	0.15
852.41	-0.44
852.578	-0.22
852.746	0.24
852.915	0.51
853.083	-0.6
853.251	-0.08
853.42	0.39
853.588	-0.27
853.756	0.17
853.924	0.4
854.093	-0.08
854.261	-0.13
854.429	-1.85
854.597	0.45
854.765	-1.02
854.934	0.25
855.102	0.35
855.27	-0.08
855.438	0.52
855.606	0.72
855.774	0.99
855.942	-1.76
856.11	-1.3
856.278	0.64
856.446	0.36
856.614	0.12
856.782	-0.57
856.95	0.92
857.118	-0.59
857.286	-0.49
857.454	-0.33
857.622	1.17
857.79	1.17
857.958	-1.66
858.126	-0.72
858.294	-1.49
858.462	-0.41
858.629	-0.2
858.797	-1.44
858.965	-0.61
859.133	0.31
859.301	-0.68
859.468	0.18
859.636	0.4
859.804	-0.09
859.971	-0.25
860.139	-0.19
860.307	0.58
860.474	0.29
860.642	0.33
860.81	0.66
860.977	0.04
861.145	0.62
861.313	-0.96
861.48	-0.01
861.648	0.54
861.815	1.08
861.983	-2.07
862.15	-0.8
862.318	0.96
862.485	1.24
862.653	-0.29
862.82	-0.36
862.988	2.13
863.155	-0.31
863.322	-1
863.49	-1.54
863.657	0.12
863.824	2.41
863.992	0.88
864.159	0.59
864.326	0.86
864.494	-0.68
864.661	2.33
864.828	-1.06
864.996	0.44
865.163	1.95
865.33	-1.21
865.497	-2.07
865.664	-0.41
865.832	-1.44
865.999	-2.03
866.166	-0.98
866.333	0.07
866.5	-0.35
866.667	-0.28
866.834	-0.4
867.001	0.11
867.168	-2.7
867.335	0.1
867.502	-0.47
867.669	0.47
867.836	3.15
868.003	-0.75
868.17	1.9
868.337	-2.09
868.504	2.7
868.671	-0.58
868.838	-0.91
869.005	0.86
869.172	-0.55
869.339	-0.57
869.505	1.36
869.672	-0.4
869.839	1.33
870.006	-0.02
870.173	-1.11
870.339	0.73
870.506	1.92
870.673	-2.28
870.84	1.25
871.006	0.15
871.173	-1.7
871.34	0.15
871.506	-1.34
871.673	1.06
871.839	-1.33
872.006	-0.42
872.173	-0.65
872.339	-0.49
872.506	0.87
872.672	-1.02
872.839	-1.07
873.005	0.32
873.172	3.43
873.338	-0.69
873.505	-0.34
873.671	1.66
873.838	2.13
874.004	-1.28
874.171	-1.82
874.337	0.52
874.503	0.82
874.67	0.11
874.836	-0.44
875.002	2.36
875.169	1.21
875.335	0.15
875.501	0.45
875.668	2.16
875.834	-0.19
876	-0.17
876.166	1.58
876.332	1.41
876.499	3.56
876.665	0.61
876.831	0.14
876.997	2.7
877.163	-0.47
877.329	-1.14
877.495	1.16
877.662	1.16
877.828	0.39
877.994	0.69
878.16	-1.71
878.326	-0.27
878.492	-1.1
878.658	-1.01
878.824	1.1
878.99	-0.14
879.156	-1.54
879.322	0.92
879.487	0.18
879.653	1.07
879.819	0.16
879.985	-0.27
880.151	1.86
880.317	1.71
880.483	0.48
880.648	2.74
880.814	-1.95
880.98	-0.03
881.146	-0.59
881.312	-1.02
881.477	0.27
881.643	0.61
881.809	0.54
881.974	2.04
882.14	-1.74
882.306	-0.29
882.471	4.83
882.637	0.61
882.803	0.72
882.968	1.69
883.134	4.14
883.299	-0.33
883.465	0.14
883.63	0.94
883.796	0.42
883.961	0.33
884.127	2.2
884.292	-4.09
884.458	-1.14
884.623	-1.13
