Data from Apollo_Calib_20240827__AbsoluteIrradiance__349__04-58-00-768.txt Node

Date: Wed Aug 28 04:58:00 BST 2024
User: biology
Spectrometer: FLMT08252
Trigger mode: 0
Integration Time (sec): 5.000000E-1
Scans to average: 5
Electric dark correction enabled: true
Nonlinearity correction enabled: false
Boxcar width: 0
XAxis mode: Wavelengths
Number of Pixels in Spectrum: 3648
>>>>>Begin Spectral Data<<<<<
179.588	-0
179.809	-0
180.03	-0
180.251	-0
180.473	-0
180.694	0
180.915	0
181.136	-0
181.357	0
181.578	-0
181.799	-0
182.02	-0
182.241	0
182.462	-0
182.683	0
182.904	-0
183.125	0
183.346	0
183.567	0
183.788	0
184.009	-0
184.23	0
184.451	0
184.672	-0
184.892	-0
185.113	0
185.334	0
185.555	-0
185.776	0
185.996	0
186.217	0
186.438	0
186.659	-0
186.879	0
187.1	0
187.321	0
187.541	-0
187.762	0
187.983	0
188.203	0
188.424	0
188.644	0
188.865	0
189.086	-0
189.306	0
189.527	0
189.747	0
189.968	-0
190.188	0
190.409	0
190.629	0
190.849	0
191.07	0
191.29	0
191.511	0
191.731	-0
191.951	-0
192.172	-0
192.392	0
192.612	-0
192.833	0
193.053	0
193.273	0
193.493	0
193.714	-0
193.934	0
194.154	0
194.374	0
194.594	0
194.815	0
195.035	0
195.255	0
195.475	-0
195.695	0
195.915	0
196.135	-0
196.355	0
196.575	0
196.795	0
197.015	-0
197.235	-0
197.455	0
197.675	0
197.895	-0
198.115	0
198.335	0
198.555	0
198.775	0
198.995	0
199.214	0
199.434	-0
199.654	0
199.874	0
200.094	1.71
200.313	-0.14
200.533	-0.22
200.753	-0.49
200.973	1.34
201.192	1.16
201.412	-0.61
201.632	0.5
201.851	1.48
202.071	-0.08
202.291	-0.14
202.51	0.23
202.73	0.98
202.95	0.48
203.169	-0.2
203.389	0.49
203.608	0.43
203.828	0.08
204.047	0.23
204.267	0.94
204.486	0.27
204.706	0.67
204.925	0.42
205.145	0.31
205.364	0.99
205.583	0.73
205.803	0.21
206.022	-0.22
206.242	0.09
206.461	0.14
206.68	-0.09
206.9	0.32
207.119	0.76
207.338	0.94
207.557	-0.27
207.777	0.18
207.996	0.21
208.215	0.78
208.434	-0.03
208.654	-0.18
208.873	0.39
209.092	0.94
209.311	0.06
209.53	-0.1
209.749	0.06
209.968	0.12
210.187	0.33
210.407	-0.35
210.626	0.2
210.845	0.41
211.064	0.04
211.283	-0.07
211.502	0.48
211.721	0.12
211.94	0.19
212.159	0.22
212.377	0.46
212.596	0.31
212.815	-0.04
213.034	0.14
213.253	0.47
213.472	0.25
213.691	0.17
213.91	0.04
214.128	0.06
214.347	0.5
214.566	-0.33
214.785	-0.08
215.003	0.59
215.222	0.35
215.441	0.31
215.66	0.02
215.878	0.22
216.097	0.41
216.316	0.06
216.534	0.03
216.753	0.22
216.972	0.19
217.19	0.21
217.409	-0.07
217.627	0.06
217.846	0.09
218.064	0.21
218.283	0.06
218.501	0.62
218.72	0.45
218.938	-0.05
219.157	0.03
219.375	0.43
219.594	0.28
219.812	-0.03
220.031	-0.16
220.249	0.53
220.467	0.47
220.686	0.08
220.904	-0.03
221.122	0.05
221.341	0.56
221.559	0.19
221.777	-0.03
221.995	0.29
222.214	0.15
222.432	0.1
222.65	0.2
222.868	0.27
223.086	0.26
223.305	0.24
223.523	0.22
223.741	0.49
223.959	0.07
224.177	-0.16
224.395	0.06
224.613	0.22
224.831	0.32
225.049	0.03
225.267	0.11
225.485	0.18
225.703	0.09
225.921	0.07
226.139	0.08
226.357	0.29
226.575	0.25
226.793	0.02
227.011	0.84
227.229	0.12
227.447	0.23
227.665	0.13
227.883	-0.07
228.1	0.13
228.318	0.15
228.536	-0.14
228.754	-0.01
228.972	0.19
229.189	0.35
229.407	0.16
229.625	0.1
229.843	0.26
230.06	0.27
230.278	0.05
230.496	0.14
230.713	0.17
230.931	0.2
231.149	0.05
231.366	-0.03
231.584	0.11
231.801	0.53
232.019	0.03
232.236	0
232.454	0.09
232.671	0.16
232.889	0.11
233.106	0
233.324	0.11
233.541	0.09
233.759	0.08
233.976	0.03
234.194	0.01
234.411	0.04
234.628	-0.03
234.846	0.07
235.063	0.17
235.28	0.14
235.498	0.02
235.715	0.03
235.932	0.23
236.149	0.13
236.367	-0.06
236.584	0.19
236.801	0.04
237.018	0.24
237.236	0.02
237.453	-0.08
237.67	0.18
237.887	0.19
238.104	0.06
238.321	-0.04
238.538	0.05
238.755	0.32
238.973	-0.04
239.19	0.12
239.407	0.2
239.624	0.19
239.841	-0.04
240.058	-0.02
240.275	0.18
240.492	0.09
240.709	0.11
240.925	-0.03
241.142	0.02
241.359	0.05
241.576	-0.01
241.793	0.11
242.01	0.12
242.227	0.28
242.444	0.24
242.66	0.17
242.877	0.09
243.094	0.12
243.311	0.12
243.527	-0.01
243.744	0.13
243.961	0.16
244.178	-0
244.394	0.16
244.611	0.19
244.828	0.19
245.044	-0.02
245.261	0.09
245.477	0.1
245.694	0.25
245.911	0
246.127	0.08
246.344	0.24
246.56	0.16
246.777	0.06
246.993	0.1
247.21	0.06
247.426	0.19
247.643	0.05
247.859	-0.08
248.076	0.05
248.292	0.25
248.508	0.01
248.725	0.06
248.941	0.11
249.157	0.21
249.374	-0.01
249.59	0.08
249.806	0.11
250.023	0.23
250.239	0.04
250.455	0.01
250.671	0.1
250.888	0.13
251.104	0.04
251.32	0.06
251.536	0.09
251.752	0.06
251.969	0.11
252.185	0.07
252.401	0.21
252.617	0.12
252.833	0.06
253.049	0.1
253.265	0.11
253.481	0.12
253.697	0.1
253.913	-0.01
254.129	0.07
254.345	0.15
254.561	0.06
254.777	0.03
254.993	0.15
255.209	0.13
255.425	0.04
255.641	-0
255.857	0.12
256.073	0.12
256.288	-0.03
256.504	0.11
256.72	0.1
256.936	0.17
257.152	-0.01
257.367	0.04
257.583	0.15
257.799	0.21
258.015	0.06
258.23	0.03
258.446	0.18
258.662	0.08
258.877	0.01
259.093	0.04
259.309	0.07
259.524	0.09
259.74	0.08
259.955	-0.03
260.171	0.14
260.387	0.1
260.602	0.17
260.818	0.13
261.033	-0
261.249	0.07
261.464	0
261.68	-0.02
261.895	0.15
262.11	0.16
262.326	0.05
262.541	-0.04
262.757	0.15
262.972	0.16
263.187	0.08
263.403	0.11
263.618	0.15
263.833	0.08
264.049	-0
264.264	0.06
264.479	0.15
264.694	0.18
264.91	0.03
265.125	0.05
265.34	0.13
265.555	0.21
265.77	0.11
265.986	0.06
266.201	0.12
266.416	0.24
266.631	0.02
266.846	0.08
267.061	0.1
267.276	0.17
267.491	-0.04
267.706	0.14
267.921	0.12
268.136	0.12
268.351	0.08
268.566	0
268.781	0.25
268.996	0.14
269.211	0.11
269.426	0.03
269.641	0.03
269.856	0.21
270.071	0.04
270.285	-0.01
270.5	0.17
270.715	0.17
270.93	0.05
271.145	0.07
271.359	0.12
271.574	0.05
271.789	0.07
272.004	-0.01
272.218	0.1
272.433	0.09
272.648	0.02
272.862	0.18
273.077	0.08
273.292	0.13
273.506	0.06
273.721	0.07
273.936	0.1
274.15	0.22
274.365	0.09
274.579	0.12
274.794	0.08
275.008	0.16
275.223	-0
275.437	0.09
275.652	0.2
275.866	0.14
276.081	0.11
276.295	0.14
276.509	0.08
276.724	0.12
276.938	0.11
277.153	0.06
277.367	0.08
277.581	0.05
277.796	0.07
278.01	0.05
278.224	0.18
278.438	0.23
278.653	-0.01
278.867	0.05
279.081	0.17
279.295	0.06
279.51	0.04
279.724	-0.02
279.938	0.09
280.152	0.13
280.366	0.02
280.58	0.1
280.794	0.2
281.008	0.15
281.222	0.12
281.437	0.16
281.651	0.14
281.865	0.2
282.079	0.06
282.293	0.01
282.507	0.01
282.721	0.08
282.935	0.09
283.148	-0.03
283.362	0.05
283.576	0.01
283.79	0.05
284.004	0.05
284.218	0.14
284.432	0.09
284.646	0.03
284.859	0.04
285.073	0.1
285.287	0.07
285.501	0.07
285.714	0.05
285.928	0.09
286.142	0.06
286.356	0.04
286.569	0.06
286.783	0.13
286.997	0.09
287.21	0.12
287.424	0.06
287.637	0.1
287.851	0.07
288.065	0.13
288.278	0.05
288.492	0.12
288.705	0.08
288.919	0.15
289.132	0.01
289.346	0.12
289.559	0.01
289.773	0.03
289.986	0.06
290.2	0.07
290.413	0.15
290.626	0.07
290.84	0.06
291.053	0.11
291.267	0.15
291.48	0.07
291.693	0.07
291.906	0.05
292.12	0.08
292.333	0.01
292.546	0.05
292.76	0.17
292.973	0.11
293.186	0.08
293.399	0.08
293.612	0.13
293.826	0.05
294.039	0.07
294.252	0.12
294.465	0.12
294.678	0.12
294.891	0.07
295.104	0.02
295.317	0.06
295.53	0.11
295.743	0.09
295.956	0.1
296.169	0.16
296.382	0.16
296.595	0.06
296.808	0.05
297.021	0.17
297.234	0.15
297.447	0.08
297.66	0.07
297.873	0.15
298.086	0.09
298.299	0.06
298.511	0.04
298.724	0.1
298.937	0.04
299.15	0.08
299.363	0.11
299.575	0.13
299.788	0.11
300.001	0.03
300.213	0.04
300.426	0.04
300.639	0.03
300.852	0.05
301.064	0.08
301.277	0.17
301.489	0.14
301.702	0.12
301.915	0.08
302.127	0.04
302.34	0.07
302.552	0.11
302.765	0.11
302.977	0.11
303.19	0.04
303.402	0.03
303.615	0.07
303.827	0.06
304.04	0.07
304.252	0.09
304.464	0.04
304.677	0.22
304.889	0.17
305.102	0.03
305.314	0.06
305.526	0.12
305.739	0.11
305.951	0.03
306.163	0.06
306.375	0.16
306.588	0.07
306.8	0.09
307.012	0.03
307.224	0.14
307.436	0.15
307.649	0.01
307.861	0.11
308.073	0.1
308.285	0.01
308.497	0.06
308.709	0.07
308.921	0.08
309.133	0.16
309.346	0.07
309.558	0.06
309.77	0.11
309.982	0.19
310.194	0.1
310.406	0.08
310.617	0.11
310.829	0.13
311.041	0.12
311.253	0.04
311.465	0.05
311.677	0.08
311.889	0.1
312.101	0.07
312.313	0.14
312.524	0.14
312.736	0.01
312.948	0.05
313.16	0.15
313.372	0.14
313.583	0.1
313.795	0.08
314.007	0.08
314.218	0.1
314.43	0.1
314.642	0.05
314.853	0.02
315.065	0.14
315.277	0.07
315.488	0.05
315.7	0.11
315.912	0.08
316.123	0.06
316.335	0.05
316.546	0.14
316.758	0.05
316.969	0.04
317.181	0.07
317.392	0.09
317.604	0.12
317.815	0.05
318.026	0.07
318.238	0.06
318.449	0.09
318.661	-0.04
318.872	-0.01
319.083	0.03
319.295	0.13
319.506	0.07
319.717	0.05
319.929	0.05
320.14	0.08
320.351	0.13
320.562	0.04
320.774	0.08
320.985	0.1
321.196	0.04
321.407	0.03
321.618	0.15
321.829	0.1
322.041	0.13
322.252	0.08
322.463	0.12
322.674	0.11
322.885	0.08
323.096	0.08
323.307	0.07
323.518	0.1
323.729	0.07
323.94	0.07
324.151	0.06
324.362	0.1
324.573	0.06
324.784	0.06
324.995	0.15
325.206	0.12
325.417	0.09
325.628	0.06
325.838	0.1
326.049	0.07
326.26	0.09
326.471	0.07
326.682	0.1
326.892	0.09
327.103	0.02
327.314	0.04
327.525	0.13
327.735	0.06
327.946	0.1
328.157	0.05
328.368	0.13
328.578	0.07
328.789	0.11
328.999	0.09
329.21	0.05
329.421	0.15
329.631	0.02
329.842	0.07
330.052	0.1
330.263	0.11
330.473	0.13
330.684	0.07
330.894	0.05
331.105	0.13
331.315	0.08
331.526	0.03
331.736	0.17
331.947	0.1
332.157	0.1
332.367	0.04
332.578	0.09
332.788	0.16
332.999	0.14
333.209	0.08
333.419	0.03
333.629	0.09
333.84	0.12
334.05	0.11
334.26	0.18
334.47	0.13
334.681	0.13
334.891	0.04
335.101	0.11
335.311	0.17
335.521	0.09
335.732	0.04
335.942	0.16
336.152	0.14
336.362	0.06
336.572	0.1
336.782	0.13
336.992	0.08
337.202	0.11
337.412	0.03
337.622	0.09
337.832	0.06
338.042	0.06
338.252	0.05
338.462	0.06
338.672	0.06
338.882	0.03
339.092	0.04
339.302	0.14
339.511	0.17
339.721	0.06
339.931	0.06
340.141	0.12
340.351	0.14
340.561	0.11
340.77	0.08
340.98	0.07
341.19	0.1
341.4	0.04
341.609	0.01
341.819	0.05
342.029	0.04
342.238	0.11
342.448	0.07
342.658	0.09
342.867	0.1
343.077	0.08
343.286	0.08
343.496	0.06
343.706	0.1
343.915	0.04
344.125	0.08
344.334	0.13
344.544	0.06
344.753	0.08
344.963	0.08
345.172	0.07
345.381	0.05
345.591	0.02
345.8	0.07
346.01	0.16
346.219	0.1
346.428	-0.05
346.638	0.04
346.847	0.12
347.056	0.15
347.266	0.08
347.475	0.06
347.684	0.13
347.893	0.13
348.103	0.16
348.312	0.09
348.521	0.09
348.73	0.11
348.94	0.1
349.149	0.05
349.358	0.06
349.567	0.11
349.776	0.06
349.985	0.06
350.194	0.17
350.403	0.13
350.612	0
350.821	0.07
351.03	0.06
351.239	0.05
351.448	0.09
351.657	0.03
351.866	0.14
352.075	0.09
352.284	0.16
352.493	0.02
352.702	0.12
352.911	0.12
353.12	0.1
353.329	0.1
353.538	0.1
353.746	0.11
353.955	0.05
354.164	0.09
354.373	0.09
354.582	0.14
354.79	0.08
354.999	0.12
355.208	0.07
355.416	0.15
355.625	0.03
355.834	0.07
356.042	0.08
356.251	0.06
356.46	0.07
356.668	0.11
356.877	0.17
357.085	0.15
357.294	0
357.503	0.09
357.711	0.08
357.92	0.21
358.128	0.09
358.337	0.08
358.545	0.08
358.754	0.1
358.962	0.12
359.17	0.07
359.379	0.15
359.587	0.11
359.796	0.08
360.004	0.12
360.212	0.05
360.421	0.18
360.629	0.08
360.837	0.05
361.046	0.14
361.254	0.18
361.462	0.11
361.67	0.04
361.879	0.12
362.087	0.17
362.295	0.09
362.503	0.07
362.711	0.06
362.92	0.05
363.128	0.07
363.336	0.04
363.544	0.05
363.752	0.04
363.96	0.07
364.168	0.07
364.376	0.05
364.584	0.06
364.792	0.13
365	0.12
365.208	0.11
365.416	0.1
365.624	0.1
365.832	0.08
366.04	0.12
366.248	0.09
366.456	0.11
366.664	0.12
366.872	0.1
367.079	0.09
367.287	0.04
367.495	0.1
367.703	0.08
367.911	0.07
368.118	0.07
368.326	0.07
368.534	0.05
368.742	0.12
368.949	0.03
369.157	0.05
369.365	0.14
369.572	0.07
369.78	0.04
369.988	0.13
370.195	0.13
370.403	0.11
370.61	0.05
370.818	0.09
371.026	0.1
371.233	0.04
371.441	0.11
371.648	0.08
371.856	0.13
372.063	0.13
372.271	0.08
372.478	0.05
372.685	0.08
372.893	0.11
373.1	0.09
373.308	0.05
373.515	0.14
373.722	0.15
373.93	0.07
374.137	0.12
374.344	0.15
374.552	0.13
374.759	0.11
374.966	0.06
375.173	0.09
375.381	0.13
375.588	0.1
375.795	0.02
376.002	0.11
376.209	0.07
376.417	0.09
376.624	0.06
376.831	0.12
377.038	0.09
377.245	-0.02
377.452	0.08
377.659	0.05
377.866	0.1
378.073	0.07
378.28	0.06
378.487	0.12
378.694	0.12
378.901	0.08
379.108	0.06
379.315	0.14
379.522	0.21
379.729	0.09
379.936	0.08
380.143	0.09
380.35	0.06
380.557	0.1
380.763	0.08
380.97	0.08
381.177	0.15
381.384	0.09
381.591	0.12
381.797	0.13
382.004	0.08
382.211	0.13
382.418	0.11
382.624	0.09
382.831	0.16
383.038	0.11
383.244	0.09
383.451	0.11
383.658	0.11
383.864	0.1
384.071	0.08
384.277	0.15
384.484	0.06
384.69	0.13
384.897	0.11
385.103	0.09
385.31	0.06
385.516	0.08
385.723	0.05
385.929	0.12
386.136	0.05
386.342	0.13
386.549	0.06
386.755	0.18
386.961	0.11
387.168	0.08
387.374	0.06
387.58	0.15
387.787	0.13
387.993	0.12
388.199	0.11
388.406	0.02
388.612	0.12
388.818	0.06
389.024	0.1
389.231	0.12
389.437	0.16
389.643	0.12
389.849	0.14
390.055	0.11
390.261	0.12
390.467	0.11
390.674	0.08
390.88	0.12
391.086	0.12
391.292	0.04
391.498	0.19
391.704	0.12
391.91	0.12
392.116	0.1
392.322	0.02
392.528	0.11
392.734	0.11
392.94	0.11
393.146	0.09
393.352	0.1
393.557	0.13
393.763	0.09
393.969	0.15
394.175	0.08
394.381	0.13
394.587	0.06
394.792	0.11
394.998	0.11
395.204	0.17
395.41	0.06
395.615	0.13
395.821	0.12
396.027	0.12
396.233	0.07
396.438	0.15
396.644	0.18
396.85	0.12
397.055	0.1
397.261	0.13
397.466	0.24
397.672	0.17
397.878	0.16
398.083	0.17
398.289	0.09
398.494	0.18
398.7	0.14
398.905	0.05
399.111	0.18
399.316	0.08
399.522	0.12
399.727	0.14
399.932	0.17
400.138	0.1
400.343	0.19
400.549	0.17
400.754	0.14
400.959	0.16
401.165	0.14
401.37	0.11
401.575	0.21
401.78	0.11
401.986	0.08
402.191	0.12
402.396	0.12
402.601	0.2
402.807	0.19
403.012	0.13
403.217	0.19
403.422	0.11
403.627	0.13
403.832	0.12
404.037	0.18
404.243	0.18
404.448	0.17
404.653	0.18
404.858	0.18
405.063	0.2
405.268	0.1
405.473	0.12
405.678	0.17
405.883	0.32
406.088	0.19
406.293	0.15
406.498	0.14
406.703	0.2
406.907	0.24
407.112	0.13
407.317	0.23
407.522	0.22
407.727	0.15
407.932	0.23
408.136	0.29
408.341	0.23
408.546	0.18
408.751	0.22
408.956	0.21
409.16	0.28
409.365	0.24
409.57	0.24
409.774	0.25
409.979	0.33
410.184	0.27
410.388	0.24
410.593	0.32
410.798	0.22
411.002	0.29
411.207	0.3
411.411	0.31
411.616	0.33
411.82	0.25
412.025	0.34
412.229	0.29
412.434	0.43
412.638	0.37
412.843	0.31
413.047	0.38
413.252	0.36
413.456	0.42
413.66	0.46
413.865	0.42
414.069	0.5
414.273	0.46
414.478	0.44
414.682	0.44
414.886	0.48
415.091	0.47
415.295	0.46
415.499	0.63
415.703	0.5
415.908	0.62
416.112	0.52
416.316	0.67
416.52	0.7
416.724	0.64
416.929	0.67
417.133	0.84
417.337	0.73
417.541	0.76
417.745	0.8
417.949	0.88
418.153	0.93
418.357	0.91
418.561	1.04
418.765	1.02
418.969	1.15
419.173	1.11
419.377	1.13
419.581	1.26
419.785	1.23
419.989	1.21
420.193	1.33
420.397	1.4
420.601	1.53
420.804	1.55
421.008	1.51
421.212	1.64
421.416	1.6
421.62	1.64
421.823	1.72
422.027	1.86
422.231	1.87
422.435	1.81
422.638	1.89
422.842	1.96
423.046	2.01
423.249	2.14
423.453	2.15
423.657	2.3
423.86	2.37
424.064	2.45
424.268	2.62
424.471	2.54
424.675	2.75
424.878	2.83
425.082	2.9
425.285	3.07
425.489	2.98
425.692	3.23
425.896	3.19
426.099	3.35
426.303	3.46
426.506	3.59
426.71	3.81
426.913	4.01
427.116	4.07
427.32	4.11
427.523	4.16
427.726	4.54
427.93	4.63
428.133	4.78
428.336	4.89
428.54	4.98
428.743	5.23
428.946	5.45
429.149	5.44
429.353	5.53
429.556	5.64
429.759	5.72
429.962	5.91
430.165	5.97
430.368	5.66
430.571	5.78
430.775	5.87
430.978	5.86
431.181	5.95
431.384	6.12
431.587	6.15
431.79	6.54
431.993	6.5
432.196	6.67
432.399	6.99
432.602	7.22
432.805	7.27
433.008	7.7
433.211	7.64
433.414	7.95
433.616	8.06
433.819	7.98
434.022	8.13
434.225	8.4
434.428	8.42
434.631	8.85
434.833	8.69
435.036	8.85
435.239	9.14
435.442	9.2
435.645	9.38
435.847	9.38
436.05	9.75
436.253	10.02
436.455	10.22
436.658	10.16
436.861	10.35
437.063	10.65
437.266	10.6
437.468	11.11
437.671	11.28
437.874	11.64
438.076	11.4
438.279	11.95
438.481	12.09
438.684	12.9
438.886	12.49
439.089	13.06
439.291	13.13
439.494	13.6
439.696	13.88
439.899	14.54
440.101	14.99
440.303	15.48
440.506	16.14
440.708	16.15
440.91	16.44
441.113	16.78
441.315	17.24
441.517	17.32
441.72	17.86
441.922	17.69
442.124	17.95
442.326	18.36
442.529	18.85
442.731	18.97
442.933	19.57
443.135	19.47
443.337	19.78
443.539	20.44
443.742	20.26
443.944	21.12
444.146	21.08
444.348	21.2
444.55	21.31
444.752	21.77
444.954	22.04
445.156	21.91
445.358	22.77
445.56	23.19
445.762	23.12
445.964	23.77
446.166	23.5
446.368	23.86
446.57	23.86
446.772	23.56
446.974	23.58
447.175	23.84
447.377	23.49
447.579	24.44
447.781	24.08
447.983	23.77
448.184	23.28
448.386	23.91
448.588	23.3
448.79	23.34
448.991	23.84
449.193	23.96
449.395	23.03
449.597	22.61
449.798	22.56
450	21.97
450.202	21.77
450.403	21.92
450.605	21.75
450.806	21.21
451.008	21.13
451.21	20.81
451.411	20.05
451.613	19.04
451.814	19.43
452.016	19.3
452.217	18.35
452.419	18.29
452.62	17.77
452.821	17.44
453.023	17.14
453.224	16.5
453.426	16.17
453.627	14.92
453.828	15.24
454.03	15.19
454.231	15.16
454.432	14.82
454.634	14.4
454.835	14.1
455.036	13.95
455.238	13.23
455.439	12.81
455.64	12.56
455.841	12.35
456.042	12.28
456.244	11.87
456.445	11.73
456.646	11.2
456.847	11.02
457.048	10.98
457.249	10.94
457.45	10.53
457.651	9.88
457.852	9.58
458.054	9.2
458.255	9.15
458.456	9.27
458.657	9.12
458.858	8.52
459.058	8.37
459.259	8.47
459.46	8.05
459.661	7.99
459.862	7.97
460.063	7.92
460.264	7.7
460.465	7.45
460.666	7.44
460.866	7.13
461.067	6.69
461.268	6.79
461.469	6.66
461.67	6.6
461.87	6.34
462.071	6.31
462.272	6.19
462.473	6.06
462.673	6.32
462.874	6.23
463.075	6.1
463.275	6
463.476	6.04
463.676	5.92
463.877	5.74
464.078	5.68
464.278	5.8
464.479	5.56
464.679	5.36
464.88	5.28
465.08	5.19
465.281	4.98
465.481	4.81
465.682	4.5
465.882	4.49
466.083	4.35
466.283	4.31
466.483	4.05
466.684	3.89
466.884	3.77
467.085	3.83
467.285	3.75
467.485	3.6
467.686	3.48
467.886	3.36
468.086	3.35
468.286	3.19
468.487	3.32
468.687	3.06
468.887	3.02
469.087	3.07
469.287	2.98
469.488	2.74
469.688	2.81
469.888	2.85
470.088	2.74
470.288	2.67
470.488	2.57
470.688	2.39
470.888	2.31
471.088	2.14
471.288	2.31
471.488	2.21
471.688	2.19
471.888	2.08
472.088	2.14
472.288	2.08
472.488	1.95
472.688	1.88
472.888	1.88
473.088	1.84
473.288	1.81
473.488	1.74
473.688	1.87
473.887	1.7
474.087	1.63
474.287	1.63
474.487	1.61
474.687	1.6
474.886	1.48
475.086	1.44
475.286	1.46
475.486	1.4
475.685	1.41
475.885	1.28
476.085	1.33
476.284	1.36
476.484	1.3
476.684	1.23
476.883	1.33
477.083	1.23
477.282	1.17
477.482	1.24
477.681	1.11
477.881	1.13
478.08	1.08
478.28	1.05
478.479	1.07
478.679	1.09
478.878	0.96
479.078	0.9
479.277	1.02
479.477	0.92
479.676	0.92
479.875	0.89
480.075	0.84
480.274	0.86
480.473	0.89
480.673	0.82
480.872	0.87
481.071	0.78
481.271	0.8
481.47	0.75
481.669	0.77
481.868	0.72
482.067	0.73
482.267	0.66
482.466	0.65
482.665	0.63
482.864	0.61
483.063	0.6
483.262	0.63
483.461	0.67
483.661	0.62
483.86	0.62
484.059	0.58
484.258	0.57
484.457	0.53
484.656	0.54
484.855	0.56
485.054	0.44
485.253	0.46
485.452	0.46
485.651	0.48
485.849	0.46
486.048	0.42
486.247	0.43
486.446	0.45
486.645	0.4
486.844	0.41
487.043	0.39
487.241	0.43
487.44	0.37
487.639	0.38
487.838	0.37
488.037	0.35
488.235	0.4
488.434	0.35
488.633	0.3
488.831	0.34
489.03	0.36
489.229	0.33
489.427	0.32
489.626	0.33
489.825	0.35
490.023	0.29
490.222	0.25
490.42	0.3
490.619	0.29
490.817	0.29
491.016	0.23
491.214	0.3
491.413	0.23
491.611	0.23
491.81	0.25
492.008	0.25
492.207	0.25
492.405	0.23
492.604	0.16
492.802	0.23
493	0.23
493.199	0.22
493.397	0.21
493.595	0.19
493.794	0.2
493.992	0.25
494.19	0.19
494.388	0.23
494.587	0.19
494.785	0.2
494.983	0.15
495.181	0.17
495.379	0.18
495.578	0.18
495.776	0.2
495.974	0.19
496.172	0.16
496.37	0.15
496.568	0.15
496.766	0.13
496.964	0.21
497.162	0.18
497.36	0.12
497.558	0.17
497.756	0.19
497.954	0.14
498.152	0.1
498.35	0.14
498.548	0.15
498.746	0.11
498.944	0.11
499.142	0.14
499.34	0.09
499.538	0.12
499.736	0.09
499.933	0.16
500.131	0.16
500.329	0.12
500.527	0.14
500.725	0.17
500.922	0.16
501.12	0.11
501.318	0.12
501.516	0.09
501.713	0.13
501.911	0.12
502.109	0.07
502.306	0.11
502.504	0.11
502.701	0.08
502.899	0.09
503.097	0.15
503.294	0.11
503.492	0.12
503.689	0.11
503.887	0.14
504.084	0.16
504.282	0.09
504.479	0.06
504.677	0.11
504.874	0.07
505.072	0.08
505.269	0.07
505.466	0.11
505.664	0.11
505.861	0.05
506.059	0.09
506.256	0.09
506.453	0.09
506.651	0.13
506.848	0.11
507.045	0.06
507.242	0.09
507.44	0.09
507.637	0.08
507.834	0.07
508.031	0.1
508.229	0.05
508.426	0.08
508.623	0.11
508.82	0.06
509.017	0.05
509.214	0.06
509.411	0.07
509.608	0.05
509.805	0.08
510.003	0.07
510.2	0.05
510.397	0.1
510.594	0.05
510.791	0.05
510.988	0.06
511.184	0.09
511.381	0.08
511.578	0.05
511.775	0.09
511.972	0.08
512.169	0.05
512.366	0.07
512.563	0.08
512.76	0.06
512.956	0.08
513.153	0.06
513.35	0.09
513.547	0.04
513.744	0.05
513.94	0.03
514.137	0.09
514.334	0.08
514.53	0.05
514.727	0.07
514.924	0.12
515.12	0.03
515.317	0.03
515.514	0.03
515.71	0.05
515.907	0.04
516.103	0.07
516.3	0.07
516.497	0.09
516.693	0.09
516.89	0.04
517.086	0.02
517.283	0.06
517.479	0.08
517.676	0.05
517.872	0.06
518.068	0.06
518.265	0.06
518.461	0.06
518.658	0.03
518.854	0.07
519.05	0.04
519.247	0.04
519.443	0.05
519.639	0.09
519.836	0.06
520.032	0.06
520.228	0.05
520.424	0.1
520.621	0.06
520.817	0.05
521.013	0.07
521.209	0.05
521.405	0.1
521.601	0.06
521.798	0.07
521.994	0.09
522.19	0.02
522.386	-0.01
522.582	0.05
522.778	0.06
522.974	0.04
523.17	0.04
523.366	0.08
523.562	0.07
523.758	0.05
523.954	0.02
524.15	0.04
524.346	0.08
524.542	0.05
524.738	0.04
524.934	0.03
525.129	0.05
525.325	0.05
525.521	0.05
525.717	0.05
525.913	0.04
526.109	0.04
526.304	0.03
526.5	0.05
526.696	0.07
526.892	0.05
527.087	0.05
527.283	0.02
527.479	0.05
527.674	0.02
527.87	0.03
528.066	0.05
528.261	0.06
528.457	0.05
528.653	0.03
528.848	0.03
529.044	0.06
529.239	0.03
529.435	0.07
529.63	0.06
529.826	0.11
530.021	0.05
530.217	0.09
530.412	0.03
530.608	0.04
530.803	0.03
530.999	0.05
531.194	-0
531.389	0.04
531.585	-0.02
531.78	0.02
531.975	0.04
532.171	0.06
532.366	0.05
532.561	0.04
532.757	0.02
532.952	0.04
533.147	0.07
533.342	0.04
533.538	0.03
533.733	0.06
533.928	0.04
534.123	0.03
534.318	0.02
534.513	0.03
534.709	0.04
534.904	0.04
535.099	0.02
535.294	0.04
535.489	0.05
535.684	0.04
535.879	0.02
536.074	0.05
536.269	0.04
536.464	0.04
536.659	0.04
536.854	0.04
537.049	0.05
537.244	0.03
537.439	0.02
537.634	0.06
537.828	0.08
538.023	0.05
538.218	-0
538.413	0.03
538.608	0.02
538.803	0.06
538.997	-0.01
539.192	0.06
539.387	0.05
539.582	0.04
539.776	0.06
539.971	0.02
540.166	0.05
540.36	0.01
540.555	0.05
540.75	0.02
540.944	0.03
541.139	-0
541.334	0.04
541.528	0.04
541.723	0.07
541.917	0.03
542.112	0.01
542.306	0.04
542.501	0.05
542.695	0.04
542.89	0.02
543.084	0.04
543.279	0.04
543.473	0.04
543.668	0.05
543.862	0.03
544.056	0.05
544.251	0.04
544.445	0.04
544.64	0.03
544.834	0.01
545.028	0.04
545.222	0.05
545.417	0.06
545.611	0.05
545.805	0.02
546	0.02
546.194	0.04
546.388	0.01
546.582	0.05
546.776	0.03
546.97	0.04
547.165	0.03
547.359	0.06
547.553	0.02
547.747	0.05
547.941	0.05
548.135	0.04
548.329	0.04
548.523	0.05
548.717	0.03
548.911	0.04
549.105	0.03
549.299	0.04
549.493	0.05
549.687	0.03
549.881	0.03
550.075	0.02
550.269	-0
550.463	0.05
550.657	0.03
550.85	0.02
551.044	0.01
551.238	0.04
551.432	0.01
551.626	0
551.82	0.03
552.013	0
552.207	0.03
552.401	0.05
552.594	0.05
552.788	0.03
552.982	0.04
553.176	-0.01
553.369	0.06
553.563	0.05
553.756	0
553.95	0.02
554.144	0.01
554.337	0.05
554.531	0.04
554.724	0.04
554.918	0.01
555.111	0.04
555.305	0.02
555.498	0.08
555.692	0.07
555.885	0.01
556.079	0.04
556.272	0.01
556.466	0.06
556.659	0.04
556.852	0.04
557.046	0.02
557.239	0.05
557.432	-0
557.626	0
557.819	0.03
558.012	0.04
558.206	0.03
558.399	0.04
558.592	0.03
558.785	0.02
558.979	0.06
559.172	0.04
559.365	0.07
559.558	0.03
559.751	0.03
559.944	0.02
560.138	0.01
560.331	0.01
560.524	-0
560.717	-0
560.91	0.03
561.103	0.05
561.296	0.03
561.489	0.03
561.682	0.04
561.875	0.05
562.068	0.04
562.261	0.03
562.454	0.07
562.647	0.04
562.84	0.05
563.032	0.03
563.225	0.05
563.418	0.02
563.611	0.03
563.804	0.02
563.997	0
564.19	0.01
564.382	0.04
564.575	0.02
564.768	0.02
564.961	0.03
565.153	0
565.346	0.05
565.539	0.07
565.731	0.06
565.924	0.03
566.117	0.04
566.309	0.04
566.502	0.02
566.695	0.03
566.887	0.04
567.08	0.01
567.272	0.02
567.465	0.03
567.657	0.04
567.85	0.05
568.042	0.04
568.235	0.06
568.427	0.03
568.62	0.02
568.812	0.05
569.005	0.05
569.197	-0.02
569.389	0.05
569.582	0.03
569.774	0.03
569.966	0.01
570.159	-0.02
570.351	0.05
570.543	0.01
570.736	0.04
570.928	0.01
571.12	0.03
571.312	-0
571.505	-0
571.697	0.07
571.889	0.02
572.081	0.04
572.273	0
572.465	0.05
572.658	0.01
572.85	0.05
573.042	0.02
573.234	0.02
573.426	0.06
573.618	-0.03
573.81	0.05
574.002	0.09
574.194	0.07
574.386	-0.03
574.578	-0.04
574.77	0
574.962	0.01
575.154	-0
575.346	-0
575.538	0.04
575.729	-0.01
575.921	0.01
576.113	0
576.305	0.06
576.497	0.02
576.689	0.04
576.88	-0
577.072	0.06
577.264	0.03
577.456	0.03
577.647	-0.04
577.839	0.03
578.031	0.04
578.223	-0
578.414	-0.02
578.606	0.05
578.798	0.03
578.989	0.01
579.181	0.02
579.372	0.02
579.564	0.02
579.755	0.06
579.947	0.03
580.139	0.04
580.33	-0.03
580.522	0.01
580.713	-0.03
580.905	0.02
581.096	0.04
581.287	0.03
581.479	0.03
581.67	0.02
581.862	0.04
582.053	0.03
582.244	-0.03
582.436	0.02
582.627	0.01
582.818	0.01
583.01	-0.02
583.201	0.04
583.392	0.07
583.583	0.04
583.775	0.02
583.966	0.01
584.157	0
584.348	0.02
584.54	-0.01
584.731	0.05
584.922	0.04
585.113	0
585.304	0.05
585.495	0.05
585.686	0.03
585.877	0.06
586.068	0.02
586.259	0.05
586.45	0
586.641	-0.01
586.832	-0.05
587.023	0.02
587.214	0.01
587.405	0.04
587.596	-0.02
587.787	0.08
587.978	0.05
588.169	-0.02
588.36	-0
588.551	0.03
588.742	0.02
588.932	0.05
589.123	0.04
589.314	0.03
589.505	0.05
589.696	0.03
589.886	-0.02
590.077	-0.03
590.268	0.03
590.458	-0.03
590.649	-0.02
590.84	0.04
591.03	0.02
591.221	-0.02
591.412	-0.02
591.602	0.03
591.793	0.04
591.984	-0
592.174	0.04
592.365	0.09
592.555	0
592.746	0.06
592.936	0.01
593.127	0.04
593.317	0.07
593.508	0.01
593.698	-0
593.889	0.03
594.079	0.02
594.269	-0
594.46	0.02
594.65	0.04
594.84	0.03
595.031	0
595.221	-0.01
595.411	-0.01
595.602	0.02
595.792	0
595.982	-0
596.172	0.08
596.363	0.02
596.553	0.02
596.743	0.01
596.933	0.02
597.123	0.07
597.314	-0.01
597.504	-0.02
597.694	0.07
597.884	0.05
598.074	0
598.264	0
598.454	0.04
598.644	0.01
598.834	0.03
599.024	-0.04
599.214	0.04
599.404	0.05
599.594	0.01
599.784	0.01
599.974	0.06
600.164	0.05
600.354	-0.03
600.544	-0.02
600.734	0.05
600.924	0.04
601.114	-0.01
601.303	0.01
601.493	0.03
601.683	0.01
601.873	0.02
602.063	-0.02
602.252	0.03
602.442	-0.02
602.632	-0
602.821	-0.01
603.011	0.03
603.201	0.01
603.39	-0.01
603.58	-0
603.77	0.02
603.959	0.02
604.149	0.01
604.339	0.02
604.528	0.06
604.718	0.04
604.907	-0.01
605.097	-0.02
605.286	-0.03
605.476	0.04
605.665	0.05
605.855	0.02
606.044	0.06
606.234	0.02
606.423	0.03
606.612	-0.02
606.802	0.03
606.991	0.03
607.181	0.03
607.37	-0.04
607.559	0.04
607.749	-0.02
607.938	0.02
608.127	0.01
608.316	0
608.506	0.05
608.695	0.01
608.884	0
609.073	0.03
609.263	0.04
609.452	0.02
609.641	0.04
609.83	-0.01
610.019	0.01
610.208	-0.01
610.397	0.02
610.586	0.06
610.775	0
610.965	0.01
611.154	-0
611.343	0.05
611.532	0.02
611.721	-0.01
611.91	-0.01
612.099	0.04
612.287	-0.01
612.476	-0.04
612.665	0.02
612.854	0.01
613.043	0.05
613.232	0.01
613.421	-0.02
613.61	0.03
613.798	-0.02
613.987	0.04
614.176	0.01
614.365	0.05
614.554	0.02
614.742	0.06
614.931	-0.01
615.12	0.07
615.309	0.02
615.497	0.02
615.686	-0.02
615.875	-0.01
616.063	0.04
616.252	0.03
616.44	-0.01
616.629	0.03
616.818	0.04
617.006	0.02
617.195	0.01
617.383	0.04
617.572	0.03
617.76	-0.03
617.949	0.02
618.137	0.04
618.326	0.04
618.514	-0.03
618.703	-0.01
618.891	0.09
619.079	-0.02
619.268	0.07
619.456	0.02
619.644	0.09
619.833	0.02
620.021	0.01
620.209	-0.01
620.398	0.05
620.586	-0.02
620.774	0.06
620.962	-0
621.151	0.07
621.339	0.02
621.527	-0.01
621.715	-0.03
621.903	-0.03
622.092	-0.02
622.28	0.01
622.468	-0.01
622.656	0.04
622.844	0.04
623.032	0
623.22	-0.03
623.408	0.03
623.596	0.04
623.784	0.06
623.972	-0.01
624.16	-0
624.348	0.05
624.536	0.01
624.724	-0
624.912	0.07
625.1	0.08
625.288	-0.02
625.476	-0
625.664	0.04
625.851	-0.01
626.039	0.01
626.227	0.01
626.415	0.01
626.603	-0.02
626.79	0.01
626.978	-0.01
627.166	0.04
627.354	0.02
627.541	0.02
627.729	-0.06
627.917	0.03
628.104	0.05
628.292	0.02
628.48	0.02
628.667	0.01
628.855	0.05
629.042	0.04
629.23	-0.01
629.418	0.01
629.605	0.05
629.793	-0
629.98	-0.03
630.168	0.01
630.355	0.04
630.543	0.02
630.73	-0
630.917	0.05
631.105	0.05
631.292	0.03
631.48	0.04
631.667	0.12
631.854	0.03
632.042	0
632.229	-0.04
632.416	0.04
632.604	-0.01
632.791	-0.05
632.978	0.03
633.165	0.04
633.353	0.07
633.54	0.05
633.727	-0.07
633.914	-0
634.101	-0.06
634.289	0.04
634.476	-0.04
634.663	-0.03
634.85	0.01
635.037	0.01
635.224	-0.03
635.411	0.06
635.598	0.03
635.785	-0.01
635.972	0
636.159	0.03
636.346	-0.01
636.533	0
636.72	0.02
636.907	0.01
637.094	0.03
637.281	0.02
637.468	0.04
637.655	0.02
637.842	0.03
638.029	-0
638.215	0.04
638.402	0.02
638.589	-0.02
638.776	-0.01
638.963	0.02
639.149	0.06
639.336	0.09
639.523	0.03
639.709	0.01
639.896	0.02
640.083	0.08
640.27	0.04
640.456	-0.01
640.643	0.04
640.829	-0.03
641.016	-0.01
641.203	-0.03
641.389	0.02
641.576	0
641.762	-0
641.949	-0.01
642.135	0.06
642.322	0.04
642.508	-0.05
642.695	-0
642.881	0.01
643.068	0.02
643.254	-0
643.441	0.03
643.627	0.01
643.813	-0.02
644	0.04
644.186	0
644.372	0.03
644.559	0.04
644.745	0.02
644.931	-0.01
645.118	0.02
645.304	0.01
645.49	-0.02
645.676	-0
645.862	0.02
646.049	0.07
646.235	0.01
646.421	0.08
646.607	0.06
646.793	0
646.979	0.01
647.165	0.05
647.352	0.04
647.538	0.08
647.724	0.01
647.91	0.01
648.096	0.05
648.282	0.04
648.468	-0
648.654	0
648.84	0.03
649.026	0.02
649.212	-0.02
649.397	0
649.583	-0
649.769	0.04
649.955	-0.02
650.141	0.01
650.327	0.09
650.513	-0.01
650.698	-0.01
650.884	-0.09
651.07	0.05
651.256	0.04
651.442	0
651.627	0
651.813	0.03
651.999	0.02
652.184	0.03
652.37	0.02
652.556	-0.02
652.741	0.12
652.927	-0.05
653.113	-0.02
653.298	0.03
653.484	-0.01
653.669	-0.02
653.855	-0
654.04	0.02
654.226	0.01
654.412	-0.01
654.597	-0.03
654.782	0.01
654.968	0.07
655.153	0.05
655.339	-0.01
655.524	-0.06
655.71	0.03
655.895	0.02
656.08	-0
656.266	0.04
656.451	0.01
656.636	-0.04
656.822	0.02
657.007	-0.06
657.192	-0
657.378	-0.02
657.563	0.02
657.748	0.06
657.933	0.04
658.118	0.01
658.304	-0.02
658.489	0.07
658.674	0.05
658.859	-0.03
659.044	0.03
659.229	0.04
659.414	0.01
659.599	-0
659.785	-0.06
659.97	-0.01
660.155	0.05
660.34	0.02
660.525	-0.01
660.71	-0.03
660.895	0.05
661.08	-0
661.264	0.03
661.449	0.04
661.634	0.05
661.819	0.02
662.004	0.03
662.189	-0.06
662.374	-0.04
662.559	-0.02
662.743	-0.06
662.928	-0.01
663.113	-0.01
663.298	-0.05
663.483	0.02
663.667	0.01
663.852	-0.04
664.037	0.09
664.221	-0.03
664.406	0.05
664.591	0.01
664.775	0.03
664.96	-0.03
665.145	0.01
665.329	0.03
665.514	-0.01
665.698	-0.02
665.883	-0.08
666.068	0.04
666.252	-0.02
666.437	-0.02
666.621	0.02
666.806	0.03
666.99	0.05
667.174	-0.06
667.359	0.08
667.543	-0.02
667.728	0
667.912	-0.08
668.096	0.03
668.281	0.02
668.465	0
668.649	0.04
668.834	0.03
669.018	0.01
669.202	0.02
669.387	0.04
669.571	0.01
669.755	0
669.939	-0.02
670.124	0.02
670.308	0.04
670.492	0.08
670.676	0.03
670.86	0
671.044	-0.02
671.228	0.09
671.413	-0
671.597	-0.03
671.781	-0
671.965	0.02
672.149	0.01
672.333	0.01
672.517	-0.01
672.701	0.03
672.885	-0.01
673.069	-0.06
673.253	0.05
673.437	0.01
673.621	-0
673.804	0.02
673.988	0
674.172	0.01
674.356	-0.05
674.54	-0.02
674.724	0.1
674.908	-0.02
675.091	0.06
675.275	-0
675.459	0.08
675.643	0.05
675.826	0.01
676.01	0.04
676.194	0.02
676.377	0.07
676.561	0.03
676.745	0.02
676.928	0.06
677.112	0.01
677.296	0
677.479	-0.05
677.663	-0
677.846	-0
678.03	0
678.213	-0.03
678.397	0.05
678.58	-0.01
678.764	-0
678.947	0.03
679.131	-0.05
679.314	0.1
679.498	-0.05
679.681	0.07
679.865	0.08
680.048	-0.01
680.231	-0.02
680.415	-0
680.598	0.02
680.781	-0
680.965	0.02
681.148	0.02
681.331	-0.02
681.514	-0.01
681.698	0
681.881	-0.01
682.064	0.04
682.247	-0
682.43	-0.03
682.614	0.01
682.797	0.03
682.98	0.02
683.163	-0
683.346	0.02
683.529	-0.02
683.712	-0.07
683.895	0.05
684.078	-0.05
684.261	0.02
684.444	0.02
684.627	0.04
684.81	-0.02
684.993	-0.02
685.176	0.05
685.359	-0.01
685.542	-0.02
685.725	0.08
685.908	0.04
686.091	0.01
686.274	0.06
686.457	0.01
686.639	0.06
686.822	0
687.005	0.03
687.188	0.05
687.371	0.12
687.553	0.03
687.736	0.04
687.919	0.11
688.102	0.08
688.284	-0.08
688.467	0.01
688.65	0.06
688.832	0.04
689.015	0.02
689.197	-0.06
689.38	0.11
689.563	0.08
689.745	-0.01
689.928	-0.06
690.11	0.03
690.293	0.04
690.475	-0.02
690.658	0.01
690.84	-0.05
691.023	0.01
691.205	-0.01
691.388	0.02
691.57	0.06
691.752	0.04
691.935	-0.08
692.117	0
692.3	-0
692.482	0.03
692.664	0.03
692.847	0.04
693.029	0.1
693.211	0.02
693.393	0.04
693.576	-0.01
693.758	0.03
693.94	0.03
694.122	0.04
694.304	0.03
694.487	-0.01
694.669	0.1
694.851	0.02
695.033	0.04
695.215	-0.04
695.397	0.01
695.579	0.02
695.761	-0.07
695.943	-0.05
696.125	0.09
696.308	0.08
696.49	-0.08
696.671	0.11
696.853	-0.03
697.035	0.14
697.217	0
697.399	0.05
697.581	-0.02
697.763	0.02
697.945	-0.06
698.127	0.03
698.309	0.05
698.491	0.03
698.672	0.08
698.854	0.12
699.036	0.13
699.218	-0.03
699.399	0.03
699.581	0.08
699.763	-0.01
699.945	-0.03
700.126	-0.01
700.308	0.03
700.49	0.03
700.671	-0.08
700.853	0.01
701.035	-0.01
701.216	0.02
701.398	-0.06
701.579	0.01
701.761	0.04
701.943	-0.01
702.124	-0.07
702.306	-0.03
702.487	0.16
702.669	0
702.85	-0.03
703.031	-0.04
703.213	0.13
703.394	0.09
703.576	-0
703.757	0.13
703.938	0.06
704.12	0.12
704.301	-0
704.483	-0.04
704.664	0.03
704.845	0.17
705.026	0.08
705.208	0.01
705.389	-0.03
705.57	0.04
705.751	0.02
705.933	-0.02
706.114	0.09
706.295	-0.03
706.476	-0.05
706.657	0.06
706.838	0.03
707.02	0.09
707.201	-0.05
707.382	-0
707.563	0.03
707.744	0.09
707.925	-0.08
708.106	-0.03
708.287	0.04
708.468	0.12
708.649	-0.03
708.83	0.03
709.011	-0.03
709.192	0.04
709.373	-0.07
709.554	0.02
709.734	0.02
709.915	0.05
710.096	0.02
710.277	-0.1
710.458	0.01
710.639	-0
710.819	-0.1
711	-0.02
711.181	0.08
711.362	0.09
711.542	-0.01
711.723	0.01
711.904	0.18
712.085	0.02
712.265	0.09
712.446	0.01
712.627	-0
712.807	-0.02
712.988	0.02
713.168	-0.09
713.349	0.04
713.53	-0.11
713.71	-0.06
713.891	-0.04
714.071	-0.05
714.252	0.03
714.432	-0.01
714.613	-0.06
714.793	0.01
714.974	0.09
715.154	0.08
715.334	-0
715.515	0.1
715.695	-0.05
715.876	0.04
716.056	-0.02
716.236	-0.08
716.417	0.01
716.597	-0.03
716.777	0.2
716.957	0.08
717.138	0.06
717.318	0.01
717.498	-0.08
717.678	0.05
717.859	0.08
718.039	-0.18
718.219	0.06
718.399	0.07
718.579	0.02
718.759	-0.04
718.939	0.06
719.12	0.05
719.3	0.06
719.48	-0.07
719.66	-0.05
719.84	0.1
720.02	-0.01
720.2	0.04
720.38	0.02
720.56	0.14
720.74	-0.01
720.92	0.03
721.1	0.09
721.279	0.1
721.459	0.03
721.639	-0.07
721.819	0.1
721.999	0.02
722.179	0.1
722.359	-0.06
722.538	0.04
722.718	0.06
722.898	-0.03
723.078	-0.03
723.257	-0.01
723.437	0.05
723.617	-0.02
723.797	-0.01
723.976	-0.04
724.156	0.04
724.336	0.12
724.515	0.17
724.695	-0.08
724.874	-0.02
725.054	0.12
725.234	-0.01
725.413	0.02
725.593	-0.02
725.772	0.02
725.952	-0.02
726.131	0.01
726.311	0.03
726.49	0.04
726.67	-0.1
726.849	-0.03
727.028	0.06
727.208	-0.01
727.387	0.04
727.567	-0.11
727.746	0.02
727.925	-0.02
728.105	-0.05
728.284	-0.08
728.463	0.01
728.643	0.04
728.822	0.02
729.001	-0.03
729.18	0.08
729.359	0.05
729.539	0.07
729.718	-0
729.897	0.13
730.076	-0.04
730.255	-0.07
730.434	0.03
730.614	0.07
730.793	0.1
730.972	-0.02
731.151	0.04
731.33	0.1
731.509	-0.08
731.688	0.06
731.867	0.06
732.046	-0.07
732.225	0.16
732.404	-0.02
732.583	-0.1
732.762	0.01
732.941	0.12
733.12	0.09
733.298	-0
733.477	0.03
733.656	0.01
733.835	0.01
734.014	0.11
734.193	0.02
734.371	0.1
734.55	0.05
734.729	-0.11
734.908	0.04
735.086	0.11
735.265	0.12
735.444	-0.14
735.623	-0
735.801	-0.11
735.98	-0.01
736.159	0.01
736.337	0.22
736.516	0.17
736.694	0.03
736.873	-0.04
737.052	0.16
737.23	0.18
737.409	0.07
737.587	0.06
737.766	-0.06
737.944	-0
738.123	0.18
738.301	0.09
738.479	-0.05
738.658	0.02
738.836	-0.18
739.015	0.05
739.193	0.07
739.371	-0.17
739.55	0.01
739.728	-0.01
739.906	0.12
740.085	0.15
740.263	0.06
740.441	-0.09
740.62	0.16
740.798	0.05
740.976	-0.12
741.154	-0.04
741.332	0.1
741.511	-0.03
741.689	0.08
741.867	0.13
742.045	0
742.223	0.02
742.401	-0.09
742.579	-0.09
742.757	0.07
742.935	-0.05
743.114	0.02
743.292	-0.04
743.47	0.05
743.648	0.06
743.826	0.15
744.004	-0.03
744.181	0.09
744.359	0.02
744.537	0.08
744.715	0.09
744.893	0.14
745.071	0.08
745.249	-0.04
745.427	0.04
745.605	0.07
745.782	0.11
745.96	0.16
746.138	0.1
746.316	0.09
746.493	0.04
746.671	0.08
746.849	0.02
747.027	-0
747.204	-0.01
747.382	0.13
747.56	-0.08
747.737	0.06
747.915	-0.08
748.093	0.07
748.27	-0.06
748.448	-0.03
748.625	-0.21
748.803	-0.07
748.98	-0.02
749.158	0.07
749.335	-0
749.513	0.03
749.69	-0.02
749.868	0.04
750.045	0.01
750.223	0.04
750.4	-0.15
750.578	0.14
750.755	0.03
750.932	-0.22
751.11	0.22
751.287	-0.05
751.464	0.11
751.642	-0.05
751.819	0.14
751.996	0.1
752.173	-0.01
752.351	-0.07
752.528	0.13
752.705	0.09
752.882	-0.05
753.06	0.09
753.237	0.13
753.414	0.17
753.591	0.12
753.768	0.01
753.945	0.03
754.122	-0.05
754.299	0.02
754.476	-0.15
754.654	0.12
754.831	0.09
755.008	0.05
755.185	-0.02
755.362	-0.1
755.539	0
755.716	-0.04
755.892	-0.06
756.069	-0.17
756.246	-0.03
756.423	-0.04
756.6	0.09
756.777	-0.09
756.954	0.12
757.131	0.04
757.307	-0.05
757.484	-0.21
757.661	0.08
757.838	-0.04
758.015	-0.07
758.191	0.08
758.368	0.07
758.545	0.16
758.721	0.03
758.898	-0.03
759.075	0.16
759.251	0.11
759.428	0.09
759.605	-0.15
759.781	-0.08
759.958	0.02
760.134	0.03
760.311	-0.06
760.488	0.12
760.664	0.15
760.841	0.04
761.017	-0.03
761.194	0.07
761.37	0.14
761.547	0.06
761.723	-0.13
761.899	0.13
762.076	-0.09
762.252	-0.11
762.429	-0.07
762.605	0.15
762.781	0.08
762.958	0.1
763.134	-0.04
763.31	-0.01
763.486	0.21
763.663	-0.12
763.839	-0.01
764.015	-0.21
764.191	-0.07
764.368	-0.06
764.544	-0
764.72	0.06
764.896	0.13
765.072	0.13
765.248	-0.06
765.425	-0.07
765.601	0.06
765.777	-0
765.953	-0.2
766.129	0.02
766.305	-0.22
766.481	0.05
766.657	0.07
766.833	0.18
767.009	-0.09
767.185	-0.03
767.361	0.01
767.537	-0.05
767.713	0.22
767.889	-0.14
768.065	0.1
768.24	0.01
768.416	0.14
768.592	-0.04
768.768	0.01
768.944	0.19
769.12	0.06
769.295	-0.02
769.471	-0.1
769.647	0.02
769.823	0.13
769.998	-0.14
770.174	-0.1
770.35	0.34
770.525	0.29
770.701	-0
770.877	0.13
771.052	-0.11
771.228	0.17
771.403	0.07
771.579	0.15
771.755	0.48
771.93	-0.03
772.106	-0.05
772.281	-0.23
772.457	-0.01
772.632	0.11
772.808	-0.21
772.983	-0.08
773.159	-0.19
773.334	0.1
773.509	-0.05
773.685	-0.11
773.86	0.3
774.036	0.15
774.211	0.01
774.386	-0.02
774.562	-0.01
774.737	0.05
774.912	-0.2
775.087	0.17
775.263	0.07
775.438	0.06
775.613	-0.1
775.788	0.05
775.964	0.24
776.139	0.39
776.314	-0.12
776.489	0.15
776.664	0.09
776.839	-0.12
777.014	0.2
777.19	0.2
777.365	0.25
777.54	0.22
777.715	-0.09
777.89	-0.04
778.065	-0.06
778.24	-0.09
778.415	0.08
778.59	-0.19
778.765	-0.03
778.94	0.08
779.115	0.06
779.289	-0.02
779.464	-0.1
779.639	-0
779.814	-0.25
779.989	-0.02
780.164	0.23
780.339	0.12
780.513	-0.34
780.688	-0.21
780.863	-0.08
781.038	0.09
781.212	-0.16
781.387	0.14
781.562	0.37
781.737	-0.05
781.911	0.1
782.086	-0.03
782.261	0.05
782.435	0.26
782.61	-0.13
782.784	0.01
782.959	0.33
783.134	0.02
783.308	-0.17
783.483	-0.06
783.657	0.38
783.832	0.38
784.006	-0.33
784.181	0.07
784.355	0.11
784.53	-0.25
784.704	-0.22
784.878	0.24
785.053	0.33
785.227	0.08
785.402	0.38
785.576	-0.17
785.75	0.1
785.925	0.07
786.099	0.16
786.273	0.14
786.448	0.13
786.622	0.22
786.796	0.09
786.97	-0.2
787.145	0.69
787.319	0.03
787.493	0.05
787.667	-0.49
787.841	-0.07
788.015	0.16
788.19	-0.23
788.364	0.39
788.538	0.02
788.712	0.19
788.886	0.03
789.06	0.16
789.234	0.28
789.408	-0.27
789.582	-0.05
789.756	0.01
789.93	-0.24
790.104	0.06
790.278	0.01
790.452	-0.05
790.626	0.08
790.8	-0.1
790.973	0.26
791.147	0.5
791.321	0.32
791.495	0.2
791.669	0.04
791.843	0.14
792.016	0.03
792.19	0.5
792.364	-0.22
792.538	0.37
792.711	0.05
792.885	-0.08
793.059	-0.19
793.233	-0.35
793.406	0.14
793.58	0.18
793.754	0.23
793.927	-0.14
794.101	0.19
794.274	0.09
794.448	0.3
794.622	-0.14
794.795	0.49
794.969	-0.15
795.142	0.46
795.316	-0.03
795.489	-0.28
795.663	0.46
795.836	0.18
796.009	-0.35
796.183	0.48
796.356	0.12
796.53	0.07
796.703	-0.05
796.876	0.47
797.05	-0.21
797.223	-0.04
797.396	0.26
797.57	0.05
797.743	0.21
797.916	0.07
798.09	-0.01
798.263	0.16
798.436	0.35
798.609	0.02
798.782	-0.03
798.956	0.35
799.129	-0.29
799.302	-0.03
799.475	-0.07
799.648	-0.2
799.821	-0.04
799.994	0.04
800.167	-0.29
800.34	-0.17
800.514	0.22
800.687	-0.03
800.86	-0.05
801.033	0.19
801.206	0.08
801.379	-0.19
801.551	0.1
801.724	0.38
801.897	0.42
802.07	-0
802.243	-0.39
802.416	0.14
802.589	-0.16
802.762	0.26
802.935	-0.01
803.107	-0.27
803.28	0.17
803.453	0.28
803.626	-0.14
803.798	0.27
803.971	-0.07
804.144	0.14
804.317	-0.14
804.489	0.29
804.662	0.03
804.835	0.11
805.007	-0.2
805.18	0.47
805.353	0.18
805.525	-0.09
805.698	-0.17
805.87	0.45
806.043	0.23
806.215	-0.31
806.388	-0.18
806.56	0.19
806.733	0.52
806.905	0.28
807.078	-0.22
807.25	0.01
807.423	-0
807.595	-0.15
807.768	0.13
807.94	0.43
808.112	0.4
808.285	0
808.457	-0.29
808.629	0.17
808.802	0.19
808.974	-0.16
809.146	-0.08
809.318	-0.26
809.491	-0.17
809.663	0.17
809.835	-0.07
810.007	0.21
810.18	0.09
810.352	-0.66
810.524	-0.16
810.696	0.11
810.868	0.49
811.04	0.18
811.212	-0.02
811.384	0.41
811.556	0.22
811.728	-0.06
811.901	0.81
812.073	0.03
812.245	0.7
812.417	0.2
812.589	-0.33
812.76	0.21
812.932	0.31
813.104	0.37
813.276	0.21
813.448	0.34
813.62	0.06
813.792	-0.09
813.964	0.16
814.136	0.14
814.307	-0.11
814.479	-0.57
814.651	-0.13
814.823	1.16
814.995	0
815.166	0.11
815.338	0.09
815.51	-0.62
815.681	0.67
815.853	-0.18
816.025	-0.63
816.196	0.72
816.368	0.54
816.54	-0.32
816.711	-0.29
816.883	0.16
817.054	0.84
817.226	-0.51
817.398	0.11
817.569	-0.16
817.741	-0.09
817.912	-0.04
818.084	-0.18
818.255	0.06
818.426	-0.54
818.598	-0.02
818.769	-0.09
818.941	-0.14
819.112	0.65
819.283	0.03
819.455	-0.13
819.626	0.27
819.798	0.36
819.969	0.05
820.14	-0.18
820.311	-0.06
820.483	-0.1
820.654	0.06
820.825	0.33
820.996	-0.22
821.168	-0.5
821.339	0.44
821.51	-0.17
821.681	-0.19
821.852	0.16
822.023	-0.2
822.195	-0.18
822.366	0.22
822.537	0.07
822.708	0.3
822.879	-0.15
823.05	0.78
823.221	0.28
823.392	0.15
823.563	0.65
823.734	0.26
823.905	-0.16
824.076	-0.06
824.247	-0.22
824.418	0.06
824.589	0.47
824.759	-0.42
824.93	-0.01
825.101	-0.56
825.272	0.32
825.443	0.54
825.614	0.31
825.784	-0.47
825.955	1.72
826.126	0.74
826.297	0.5
826.467	0.94
826.638	0.86
826.809	-0.64
826.98	0.01
827.15	0.2
827.321	0.02
827.492	1.02
827.662	0.25
827.833	0.67
828.003	0.58
828.174	-0.63
828.345	-0.63
828.515	0.72
828.686	0.39
828.856	0.11
829.027	0.19
829.197	0.21
829.368	0.85
829.538	-0.53
829.709	0.08
829.879	0.38
830.049	0.18
830.22	-0.1
830.39	-0.08
830.56	0.29
830.731	-0.18
830.901	-0.54
831.072	0.23
831.242	0.26
831.412	0.34
831.582	0.03
831.753	-0.31
831.923	0.26
832.093	0.4
832.263	0.17
832.434	-0.7
832.604	-0.04
832.774	0.54
832.944	0.29
833.114	0.28
833.284	0.12
833.454	-0.33
833.624	-0.52
833.795	-0.05
833.965	0.86
834.135	0.72
834.305	-1.28
834.475	-0.79
834.645	-0.12
834.815	-0.42
834.985	-0.04
835.155	-0.43
835.325	0.9
835.494	0.24
835.664	-0.3
835.834	-0.44
836.004	0.43
836.174	0.75
836.344	-0.4
836.514	-0.49
836.684	-0.4
836.853	0.19
837.023	0.23
837.193	-0.2
837.363	0.83
837.532	0.01
837.702	0.07
837.872	-0.79
838.041	0.65
838.211	1
838.381	-1.02
838.55	0.06
838.72	1.9
838.89	1.15
839.059	0.03
839.229	-0.37
839.398	1.46
839.568	-0.03
839.738	-0.28
839.907	1.02
840.077	0.17
840.246	0.25
840.416	-0.39
840.585	-1.13
840.755	1.04
840.924	0.74
841.093	-0.9
841.263	0.51
841.432	0.16
841.602	-0.85
841.771	-0.08
841.94	0.21
842.11	1.36
842.279	1.09
842.448	-0.09
842.617	-0.18
842.787	0.68
842.956	-0.7
843.125	-1
843.294	0.01
843.464	0.74
843.633	-0.26
843.802	-1.3
843.971	0.19
844.14	0.34
844.309	0.66
844.479	-0.29
844.648	-0.67
844.817	-0.17
844.986	0.49
845.155	-0.12
845.324	0.17
845.493	-0.19
845.662	0.01
845.831	0.28
846	0.71
846.169	0.08
846.338	1.38
846.507	0.31
846.676	0.43
846.844	0.17
847.013	1.2
847.182	-0.11
847.351	-0.24
847.52	-0.4
847.689	1.32
847.858	-0.23
848.026	-0.19
848.195	-0.2
848.364	-0.02
848.533	-0.86
848.701	-0.45
848.87	0.29
849.039	0.56
849.207	0.9
849.376	0.91
849.545	1.3
849.713	-0.15
849.882	-0.27
850.051	-0.08
850.219	-0.99
850.388	0.84
850.556	-0.59
850.725	-0.58
850.893	0.83
851.062	0.21
851.23	1.14
851.399	-0.53
851.567	-0.05
851.736	-0.6
851.904	-1.42
852.073	-1.25
852.241	0.51
852.41	0.48
852.578	-0.52
852.746	0.5
852.915	0.53
853.083	0.27
853.251	-1.16
853.42	0.13
853.588	-0.42
853.756	1.36
853.924	0.24
854.093	0.09
854.261	-0.55
854.429	-0.72
854.597	0.27
854.765	-1.01
854.934	1
855.102	1.36
855.27	0.23
855.438	-0.71
855.606	0.97
855.774	1.93
855.942	-0.36
856.11	-2.12
856.278	-0.39
856.446	0.95
856.614	0.25
856.782	0.36
856.95	1.62
857.118	-0.03
857.286	0.18
857.454	-0.87
857.622	2.01
857.79	0.99
857.958	-1.93
858.126	-0.22
858.294	-2.56
858.462	-0.17
858.629	-0.45
858.797	-1.21
858.965	0.63
859.133	0.12
859.301	0.46
859.468	0.06
859.636	-0.23
859.804	1.6
859.971	1.52
860.139	-0.51
860.307	0.83
860.474	-0.1
860.642	-1.28
860.81	-1.1
860.977	0.44
861.145	1.2
861.313	-1.06
861.48	-0.2
861.648	0.79
861.815	-0.22
861.983	-1.32
862.15	-0.06
862.318	-0.98
862.485	1.12
862.653	-0.62
862.82	-0.28
862.988	2
863.155	1.06
863.322	0.36
863.49	-2.13
863.657	-1.02
863.824	1.25
863.992	1.27
864.159	-0.72
864.326	2.43
864.494	-0.7
864.661	2.9
864.828	-0.96
864.996	0.08
865.163	1.18
865.33	0.23
865.497	-2.69
865.664	-0.81
865.832	-1.97
865.999	-0.22
866.166	-1.54
866.333	-1.73
866.5	-1.1
866.667	0.64
866.834	-1.44
867.001	2.33
867.168	-1.19
867.335	-0.8
867.502	-1.3
867.669	1.59
867.836	2.33
868.003	-1.64
868.17	2.04
868.337	3.2
868.504	3.5
868.671	-2.29
868.838	-0
869.005	1.19
869.172	0.59
869.339	0.22
869.505	-0.44
869.672	0.77
869.839	3.46
870.006	-0.22
870.173	-0.85
870.339	1.09
870.506	2.05
870.673	-1.03
870.84	0.74
871.006	1.39
871.173	-0.26
871.34	-1.04
871.506	-2.33
871.673	1.25
871.839	-2.52
872.006	0.67
872.173	-0.4
872.339	-0
872.506	0.96
872.672	0.6
872.839	-1.02
873.005	-0.4
873.172	2.58
873.338	0.65
873.505	0.17
873.671	-0.67
873.838	2.49
874.004	-1.72
874.171	-0.72
874.337	1.73
874.503	0.89
874.67	2
874.836	0.15
875.002	2.97
875.169	2.9
875.335	-0.51
875.501	-0.72
875.668	1.9
875.834	1.01
876	0.35
876.166	1.48
876.332	2.01
876.499	4.35
876.665	0.69
876.831	-0.17
876.997	2.93
877.163	2.68
877.329	-0.53
877.495	0.77
877.662	0.79
877.828	0.62
877.994	0.99
878.16	-2.2
878.326	0.26
878.492	0.15
878.658	-0.26
878.824	0.57
878.99	-0.63
879.156	-2.52
879.322	1.1
879.487	0.75
879.653	1.66
879.819	-0.17
879.985	-0.39
880.151	1.32
880.317	0.99
880.483	0.05
880.648	-0.32
880.814	-2.32
880.98	0.64
881.146	-3.08
881.312	-1.11
881.477	-0.17
881.643	0.64
881.809	3.69
881.974	0.98
882.14	-2.56
882.306	-1.53
882.471	3.45
882.637	-0.38
882.803	1.93
882.968	2.35
883.134	2.35
883.299	-0.9
883.465	0.33
883.63	1.92
883.796	2.76
883.961	1.92
884.127	0.56
884.292	-3.86
884.458	-3.34
884.623	-3.34
