Data from Apollo_Calib_20240827__AbsoluteIrradiance__370__05-19-01-520.txt Node

Date: Wed Aug 28 05:19:01 BST 2024
User: biology
Spectrometer: FLMT08252
Trigger mode: 0
Integration Time (sec): 5.000000E-1
Scans to average: 5
Electric dark correction enabled: true
Nonlinearity correction enabled: false
Boxcar width: 0
XAxis mode: Wavelengths
Number of Pixels in Spectrum: 3648
>>>>>Begin Spectral Data<<<<<
179.588	-0
179.809	-0
180.03	-0
180.251	-0
180.473	-0
180.694	0
180.915	0
181.136	-0
181.357	0
181.578	0
181.799	-0
182.02	-0
182.241	-0
182.462	-0
182.683	0
182.904	-0
183.125	-0
183.346	-0
183.567	0
183.788	0
184.009	-0
184.23	0
184.451	0
184.672	0
184.892	-0
185.113	0
185.334	0
185.555	-0
185.776	-0
185.996	0
186.217	0
186.438	0
186.659	-0
186.879	0
187.1	0
187.321	-0
187.541	-0
187.762	0
187.983	0
188.203	0
188.424	0
188.644	0
188.865	0
189.086	0
189.306	0
189.527	-0
189.747	0
189.968	-0
190.188	0
190.409	0
190.629	0
190.849	0
191.07	0
191.29	0
191.511	0
191.731	-0
191.951	0
192.172	0
192.392	0
192.612	0
192.833	0
193.053	0
193.273	0
193.493	0
193.714	0
193.934	0
194.154	0
194.374	0
194.594	0
194.815	0
195.035	0
195.255	0
195.475	-0
195.695	0
195.915	0
196.135	0
196.355	0
196.575	0
196.795	0
197.015	-0
197.235	0
197.455	0
197.675	0
197.895	0
198.115	-0
198.335	0
198.555	-0
198.775	0
198.995	0
199.214	0
199.434	0
199.654	0
199.874	0
200.094	1.9
200.313	0.79
200.533	0.15
200.753	-0.02
200.973	1.81
201.192	0.9
201.412	-0.32
201.632	0.24
201.851	1.74
202.071	-0.11
202.291	0.33
202.51	-0.3
202.73	0.68
202.95	0.16
203.169	-0.11
203.389	0.43
203.608	0.59
203.828	-0.1
204.047	0.16
204.267	0.83
204.486	0.89
204.706	0.77
204.925	0.33
205.145	0.04
205.364	0.47
205.583	0.96
205.803	0.29
206.022	-0.23
206.242	0.42
206.461	0.05
206.68	0.3
206.9	0.47
207.119	1.14
207.338	0.99
207.557	0.11
207.777	0.39
207.996	0.38
208.215	0.76
208.434	0.26
208.654	-0.3
208.873	0.29
209.092	1.09
209.311	0.26
209.53	0.22
209.749	0.35
209.968	0.02
210.187	0.24
210.407	-0.26
210.626	0.34
210.845	0.41
211.064	0.27
211.283	-0.01
211.502	0.49
211.721	0.4
211.94	0.02
212.159	0.51
212.377	0.46
212.596	0.65
212.815	0.57
213.034	0.26
213.253	0.47
213.472	0.52
213.691	0.01
213.91	-0.06
214.128	0.06
214.347	0.57
214.566	-0.23
214.785	-0.19
215.003	0.29
215.222	0.52
215.441	0.04
215.66	0.08
215.878	0.35
216.097	0.51
216.316	0.01
216.534	0.03
216.753	0.25
216.972	0.07
217.19	0.16
217.409	-0.11
217.627	0.09
217.846	0.23
218.064	0.29
218.283	0.05
218.501	0.61
218.72	0.45
218.938	0.06
219.157	-0
219.375	0.4
219.594	0.41
219.812	-0.08
220.031	-0.04
220.249	0.41
220.467	0.52
220.686	0.09
220.904	0.08
221.122	0.06
221.341	0.62
221.559	0.19
221.777	-0.08
221.995	0.2
222.214	0.34
222.432	0.02
222.65	0.22
222.868	0.09
223.086	0.23
223.305	0.24
223.523	0.14
223.741	0.53
223.959	0.18
224.177	-0.05
224.395	0.12
224.613	0.17
224.831	0.39
225.049	0
225.267	0.14
225.485	0.22
225.703	0.03
225.921	0.18
226.139	0.13
226.357	0.41
226.575	0.32
226.793	0.1
227.011	0.84
227.229	0.16
227.447	0.33
227.665	0.1
227.883	0.02
228.1	0.19
228.318	0.29
228.536	-0.23
228.754	-0
228.972	0.17
229.189	0.29
229.407	0.11
229.625	0.12
229.843	0.27
230.06	0.31
230.278	0.07
230.496	0.15
230.713	0.18
230.931	0.3
231.149	0.09
231.366	-0.07
231.584	0.2
231.801	0.5
232.019	0.12
232.236	-0.1
232.454	0.04
232.671	0.28
232.889	0.13
233.106	-0.02
233.324	0.3
233.541	0.19
233.759	0.17
233.976	0
234.194	0.08
234.411	0.15
234.628	0.1
234.846	0.15
235.063	0.17
235.28	0.12
235.498	0.16
235.715	-0.02
235.932	0.23
236.149	0.11
236.367	-0.01
236.584	0.12
236.801	0.06
237.018	0.27
237.236	0.2
237.453	-0.01
237.67	0.29
237.887	0.08
238.104	0.21
238.321	-0.01
238.538	0.13
238.755	0.38
238.973	-0.02
239.19	0.21
239.407	0.21
239.624	0.19
239.841	0.02
240.058	0.07
240.275	0.2
240.492	0.08
240.709	0.17
240.925	0.01
241.142	0.18
241.359	-0.01
241.576	0.02
241.793	0.05
242.01	0.11
242.227	0.16
242.444	0.18
242.66	0.25
242.877	0.28
243.094	-0.04
243.311	0.12
243.527	0.08
243.744	0.17
243.961	0.17
244.178	0.12
244.394	0.08
244.611	0.26
244.828	0.33
245.044	0.06
245.261	0.12
245.477	0.27
245.694	0.13
245.911	0.06
246.127	0.22
246.344	0.35
246.56	0.21
246.777	0.13
246.993	0.14
247.21	0.09
247.426	0.15
247.643	0.08
247.859	0.05
248.076	0.08
248.292	0.28
248.508	0.05
248.725	0.18
248.941	0.12
249.157	0.22
249.374	0.04
249.59	0.08
249.806	0.13
250.023	0.22
250.239	-0.05
250.455	0.04
250.671	0.13
250.888	0.17
251.104	0.14
251.32	0
251.536	0.16
251.752	0.04
251.969	0.1
252.185	0.13
252.401	0.32
252.617	0.22
252.833	0.11
253.049	0.15
253.265	0.14
253.481	0.1
253.697	0.11
253.913	0.07
254.129	0.21
254.345	0.17
254.561	0.02
254.777	0.08
254.993	0.17
255.209	0.16
255.425	0.11
255.641	0.07
255.857	0.19
256.073	0.15
256.288	0.04
256.504	0.06
256.72	0.18
256.936	0.3
257.152	0.08
257.367	0.04
257.583	0.13
257.799	0.21
258.015	0.07
258.23	0.08
258.446	0.28
258.662	0.11
258.877	0.08
259.093	0.06
259.309	0.18
259.524	0.18
259.74	0.02
259.955	0.03
260.171	0.17
260.387	0.08
260.602	0.21
260.818	0.12
261.033	0.02
261.249	0.1
261.464	0.01
261.68	-0
261.895	0.14
262.11	0.14
262.326	0.1
262.541	0.02
262.757	0.21
262.972	0.19
263.187	0.11
263.403	0.13
263.618	0.17
263.833	0.07
264.049	0.07
264.264	0.09
264.479	0.14
264.694	0.26
264.91	0.03
265.125	0.08
265.34	0.2
265.555	0.23
265.77	0.16
265.986	0.03
266.201	0.15
266.416	0.24
266.631	0.07
266.846	0.14
267.061	0.23
267.276	0.15
267.491	0.01
267.706	0.15
267.921	0.17
268.136	0.19
268.351	0.1
268.566	0.06
268.781	0.21
268.996	0.19
269.211	0.13
269.426	0.07
269.641	0.06
269.856	0.16
270.071	0.02
270.285	0.06
270.5	0.25
270.715	0.19
270.93	0.15
271.145	0.18
271.359	0.16
271.574	0.04
271.789	0.08
272.004	0.06
272.218	0.12
272.433	0.13
272.648	0.01
272.862	0.18
273.077	0.16
273.292	0.11
273.506	0.03
273.721	0.13
273.936	0.16
274.15	0.15
274.365	0.07
274.579	0.16
274.794	0.17
275.008	0.2
275.223	0.04
275.437	0.15
275.652	0.19
275.866	0.17
276.081	0.18
276.295	0.15
276.509	0.11
276.724	0.09
276.938	0.17
277.153	0.15
277.367	0.19
277.581	0.04
277.796	0.06
278.01	0.05
278.224	0.14
278.438	0.29
278.653	0.03
278.867	0.05
279.081	-0
279.295	0.08
279.51	0.16
279.724	0.05
279.938	0.16
280.152	0.19
280.366	0.01
280.58	0.18
280.794	0.19
281.008	0.16
281.222	0.12
281.437	0.22
281.651	0.17
281.865	0.23
282.079	0.1
282.293	0.03
282.507	0.09
282.721	0.09
282.935	0.1
283.148	0.02
283.362	0.08
283.576	0.09
283.79	0.1
284.004	0.09
284.218	0.2
284.432	0.1
284.646	0.07
284.859	0.1
285.073	0.09
285.287	0.15
285.501	0.15
285.714	0.14
285.928	0.1
286.142	0.11
286.356	0.08
286.569	0.08
286.783	0.2
286.997	0.21
287.21	0.15
287.424	0.13
287.637	0.13
287.851	0.1
288.065	0.12
288.278	0.09
288.492	0.14
288.705	0.04
288.919	0.1
289.132	0.05
289.346	0.19
289.559	0.1
289.773	0.06
289.986	0.06
290.2	0.14
290.413	0.19
290.626	0.1
290.84	0.1
291.053	0.16
291.267	0.18
291.48	0.16
291.693	0.1
291.906	0.06
292.12	0.08
292.333	0.05
292.546	0.13
292.76	0.18
292.973	0.12
293.186	0.19
293.399	0.1
293.612	0.15
293.826	0.08
294.039	0.1
294.252	0.1
294.465	0.14
294.678	0.12
294.891	0.12
295.104	0.07
295.317	0.1
295.53	0.12
295.743	0.11
295.956	0.08
296.169	0.2
296.382	0.2
296.595	0.11
296.808	0.09
297.021	0.17
297.234	0.17
297.447	0.13
297.66	0.16
297.873	0.16
298.086	0.16
298.299	0.08
298.511	0.05
298.724	0.1
298.937	0.04
299.15	0.07
299.363	0.13
299.575	0.14
299.788	0.13
300.001	0.08
300.213	0.11
300.426	0.09
300.639	0.11
300.852	0.05
301.064	0.13
301.277	0.26
301.489	0.19
301.702	0.13
301.915	0.11
302.127	0.13
302.34	0.14
302.552	0.13
302.765	0.08
302.977	0.17
303.19	0.09
303.402	0.08
303.615	0.09
303.827	0.11
304.04	0.12
304.252	0.16
304.464	0.11
304.677	0.24
304.889	0.16
305.102	0.05
305.314	0.07
305.526	0.17
305.739	0.12
305.951	0.07
306.163	0.11
306.375	0.23
306.588	0.1
306.8	0.09
307.012	0.02
307.224	0.12
307.436	0.16
307.649	0.08
307.861	0.13
308.073	0.13
308.285	0.13
308.497	0.06
308.709	0.08
308.921	0.16
309.133	0.22
309.346	0.1
309.558	0.12
309.77	0.13
309.982	0.16
310.194	0.16
310.406	0.03
310.617	0.22
310.829	0.16
311.041	0.13
311.253	0.09
311.465	0.07
311.677	0.14
311.889	0.1
312.101	0.04
312.313	0.2
312.524	0.18
312.736	0.06
312.948	0.1
313.16	0.21
313.372	0.14
313.583	0.15
313.795	0.1
314.007	0.07
314.218	0.17
314.43	0.09
314.642	0.08
314.853	0.07
315.065	0.17
315.277	0.1
315.488	0.13
315.7	0.09
315.912	0.11
316.123	0.1
316.335	0.09
316.546	0.24
316.758	0.14
316.969	0.12
317.181	0.11
317.392	0.05
317.604	0.15
317.815	0.06
318.026	0.05
318.238	0.02
318.449	0.13
318.661	0.08
318.872	0.07
319.083	0.08
319.295	0.14
319.506	0.08
319.717	0.16
319.929	0.17
320.14	0.09
320.351	0.13
320.562	0.1
320.774	0.12
320.985	0.12
321.196	0.06
321.407	0.04
321.618	0.18
321.829	0.11
322.041	0.16
322.252	0.16
322.463	0.16
322.674	0.12
322.885	0.07
323.096	0.1
323.307	0.12
323.518	0.12
323.729	0.05
323.94	0.08
324.151	0.1
324.362	0.14
324.573	0.13
324.784	0.04
324.995	0.18
325.206	0.13
325.417	0.1
325.628	0.09
325.838	0.13
326.049	0.12
326.26	0.12
326.471	0.08
326.682	0.19
326.892	0.09
327.103	0.06
327.314	0.07
327.525	0.18
327.735	0.13
327.946	0.1
328.157	0.09
328.368	0.1
328.578	0.11
328.789	0.16
328.999	0.1
329.21	0.12
329.421	0.12
329.631	0.1
329.842	0.03
330.052	0.13
330.263	0.14
330.473	0.14
330.684	0.08
330.894	0.11
331.105	0.15
331.315	0.1
331.526	0.04
331.736	0.21
331.947	0.14
332.157	0.11
332.367	0.08
332.578	0.12
332.788	0.13
332.999	0.15
333.209	0.08
333.419	0.07
333.629	0.14
333.84	0.15
334.05	0.14
334.26	0.15
334.47	0.1
334.681	0.21
334.891	0.11
335.101	0.16
335.311	0.21
335.521	0.11
335.732	0.08
335.942	0.17
336.152	0.17
336.362	0.16
336.572	0.08
336.782	0.15
336.992	0.08
337.202	0.1
337.412	0.11
337.622	0.16
337.832	0.12
338.042	0.11
338.252	0.05
338.462	0.07
338.672	0.16
338.882	0.07
339.092	0.11
339.302	0.19
339.511	0.14
339.721	0.08
339.931	0.07
340.141	0.15
340.351	0.18
340.561	0.15
340.77	0.11
340.98	0.13
341.19	0.15
341.4	0.12
341.609	0.05
341.819	0.12
342.029	0.06
342.238	0.14
342.448	0.09
342.658	0.13
342.867	0.14
343.077	0.15
343.286	0.09
343.496	0.17
343.706	0.18
343.915	0.07
344.125	0.15
344.334	0.13
344.544	0.07
344.753	0.11
344.963	0.07
345.172	0.08
345.381	0.12
345.591	0.06
345.8	0.11
346.01	0.17
346.219	0.16
346.428	0
346.638	0.12
346.847	0.13
347.056	0.2
347.266	0.08
347.475	0.11
347.684	0.19
347.893	0.08
348.103	0.12
348.312	0.1
348.521	0.07
348.73	0.08
348.94	0.13
349.149	0.05
349.358	0.11
349.567	0.09
349.776	0.06
349.985	0.08
350.194	0.16
350.403	0.21
350.612	0.09
350.821	0.1
351.03	0.12
351.239	0.1
351.448	0.12
351.657	0.1
351.866	0.15
352.075	0.12
352.284	0.17
352.493	0.05
352.702	0.14
352.911	0.11
353.12	0.12
353.329	0.09
353.538	0.13
353.746	0.1
353.955	0.07
354.164	0.15
354.373	0.15
354.582	0.16
354.79	0.1
354.999	0.17
355.208	0.12
355.416	0.2
355.625	0.05
355.834	0.11
356.042	0.11
356.251	0.1
356.46	0.06
356.668	0.11
356.877	0.22
357.085	0.14
357.294	0.01
357.503	0.12
357.711	0.13
357.92	0.25
358.128	0.15
358.337	0.07
358.545	0.12
358.754	0.11
358.962	0.17
359.17	0.08
359.379	0.12
359.587	0.14
359.796	0.13
360.004	0.14
360.212	0.17
360.421	0.17
360.629	0.1
360.837	0.1
361.046	0.13
361.254	0.21
361.462	0.14
361.67	0.09
361.879	0.1
362.087	0.2
362.295	0.12
362.503	0.1
362.711	0.05
362.92	0.08
363.128	0.11
363.336	0.07
363.544	0.09
363.752	0.1
363.96	0.1
364.168	0.1
364.376	0.14
364.584	0.15
364.792	0.19
365	0.11
365.208	0.11
365.416	0.16
365.624	0.14
365.832	0.14
366.04	0.17
366.248	0.13
366.456	0.14
366.664	0.13
366.872	0.11
367.079	0.1
367.287	0.11
367.495	0.12
367.703	0.14
367.911	0.11
368.118	0.11
368.326	0.17
368.534	0.1
368.742	0.15
368.949	0.05
369.157	0.13
369.365	0.17
369.572	0.11
369.78	0.07
369.988	0.15
370.195	0.14
370.403	0.14
370.61	0.11
370.818	0.14
371.026	0.2
371.233	0.09
371.441	0.19
371.648	0.08
371.856	0.19
372.063	0.15
372.271	0.1
372.478	0.12
372.685	0.11
372.893	0.14
373.1	0.11
373.308	0.09
373.515	0.18
373.722	0.18
373.93	0.13
374.137	0.12
374.344	0.18
374.552	0.18
374.759	0.14
374.966	0.15
375.173	0.1
375.381	0.15
375.588	0.1
375.795	0.05
376.002	0.12
376.209	0.09
376.417	0.13
376.624	0.11
376.831	0.14
377.038	0.09
377.245	0.08
377.452	0.1
377.659	0.11
377.866	0.09
378.073	0.13
378.28	0.09
378.487	0.17
378.694	0.12
378.901	0.09
379.108	0.11
379.315	0.17
379.522	0.19
379.729	0.14
379.936	0.1
380.143	0.16
380.35	0.14
380.557	0.14
380.763	0.15
380.97	0.15
381.177	0.14
381.384	0.14
381.591	0.13
381.797	0.16
382.004	0.17
382.211	0.14
382.418	0.14
382.624	0.18
382.831	0.15
383.038	0.08
383.244	0.14
383.451	0.12
383.658	0.12
383.864	0.1
384.071	0.1
384.277	0.21
384.484	0.11
384.69	0.23
384.897	0.15
385.103	0.13
385.31	0.12
385.516	0.14
385.723	0.12
385.929	0.16
386.136	0.12
386.342	0.16
386.549	0.13
386.755	0.17
386.961	0.17
387.168	0.13
387.374	0.14
387.58	0.19
387.787	0.12
387.993	0.17
388.199	0.12
388.406	0.12
388.612	0.16
388.818	0.1
389.024	0.11
389.231	0.19
389.437	0.24
389.643	0.18
389.849	0.17
390.055	0.15
390.261	0.15
390.467	0.15
390.674	0.13
390.88	0.12
391.086	0.17
391.292	0.12
391.498	0.2
391.704	0.18
391.91	0.16
392.116	0.14
392.322	0.04
392.528	0.15
392.734	0.16
392.94	0.18
393.146	0.16
393.352	0.18
393.557	0.13
393.763	0.16
393.969	0.16
394.175	0.15
394.381	0.14
394.587	0.12
394.792	0.17
394.998	0.2
395.204	0.22
395.41	0.14
395.615	0.18
395.821	0.21
396.027	0.17
396.233	0.15
396.438	0.19
396.644	0.26
396.85	0.18
397.055	0.2
397.261	0.2
397.466	0.21
397.672	0.16
397.878	0.19
398.083	0.24
398.289	0.16
398.494	0.21
398.7	0.23
398.905	0.09
399.111	0.23
399.316	0.1
399.522	0.22
399.727	0.15
399.932	0.15
400.138	0.16
400.343	0.22
400.549	0.23
400.754	0.14
400.959	0.21
401.165	0.18
401.37	0.23
401.575	0.35
401.78	0.22
401.986	0.19
402.191	0.19
402.396	0.22
402.601	0.22
402.807	0.24
403.012	0.24
403.217	0.24
403.422	0.2
403.627	0.2
403.832	0.21
404.037	0.31
404.243	0.24
404.448	0.23
404.653	0.27
404.858	0.24
405.063	0.29
405.268	0.22
405.473	0.22
405.678	0.21
405.883	0.35
406.088	0.27
406.293	0.2
406.498	0.28
406.703	0.32
406.907	0.28
407.112	0.23
407.317	0.33
407.522	0.37
407.727	0.23
407.932	0.3
408.136	0.4
408.341	0.34
408.546	0.29
408.751	0.35
408.956	0.34
409.16	0.44
409.365	0.35
409.57	0.35
409.774	0.38
409.979	0.36
410.184	0.38
410.388	0.36
410.593	0.42
410.798	0.41
411.002	0.43
411.207	0.51
411.411	0.48
411.616	0.46
411.82	0.49
412.025	0.55
412.229	0.5
412.434	0.64
412.638	0.53
412.843	0.54
413.047	0.62
413.252	0.59
413.456	0.64
413.66	0.66
413.865	0.65
414.069	0.74
414.273	0.73
414.478	0.74
414.682	0.73
414.886	0.77
415.091	0.77
415.295	0.77
415.499	0.92
415.703	0.84
415.908	0.96
416.112	0.91
416.316	1.04
416.52	1
416.724	0.99
416.929	1.05
417.133	1.27
417.337	1.09
417.541	1.2
417.745	1.29
417.949	1.39
418.153	1.42
418.357	1.48
418.561	1.59
418.765	1.54
418.969	1.64
419.173	1.71
419.377	1.72
419.581	1.95
419.785	1.84
419.989	1.94
420.193	2.09
420.397	2.11
420.601	2.21
420.804	2.39
421.008	2.31
421.212	2.42
421.416	2.48
421.62	2.51
421.823	2.62
422.027	2.81
422.231	2.78
422.435	2.77
422.638	2.88
422.842	2.98
423.046	3.02
423.249	3.18
423.453	3.31
423.657	3.49
423.86	3.57
424.064	3.68
424.268	3.88
424.471	3.84
424.675	4.12
424.878	4.25
425.082	4.36
425.285	4.55
425.489	4.58
425.692	4.74
425.896	4.8
426.099	5.12
426.303	5.2
426.506	5.36
426.71	5.66
426.913	5.88
427.116	6.11
427.32	6.13
427.523	6.24
427.726	6.6
427.93	6.8
428.133	7.15
428.336	7.35
428.54	7.56
428.743	7.95
428.946	8.14
429.149	8.24
429.353	8.29
429.556	8.47
429.759	8.5
429.962	8.7
430.165	9.08
430.368	8.67
430.571	8.75
430.775	8.93
430.978	8.9
431.181	9.02
431.384	9.12
431.587	9.38
431.79	9.83
431.993	9.67
432.196	10.14
432.399	10.66
432.602	10.78
432.805	11.05
433.008	11.72
433.211	11.58
433.414	12.13
433.616	12.09
433.819	12.19
434.022	12.38
434.225	12.73
434.428	12.81
434.631	13.44
434.833	13.2
435.036	13.64
435.239	13.8
435.442	14
435.645	14.42
435.847	14.51
436.05	15.01
436.253	15.45
436.455	15.42
436.658	15.41
436.861	15.67
437.063	16.07
437.266	16.17
437.468	16.77
437.671	17.28
437.874	17.35
438.076	17.33
438.279	18.17
438.481	18.18
438.684	19.38
438.886	19.01
439.089	19.54
439.291	19.58
439.494	20.2
439.696	20.77
439.899	21.7
440.101	22.23
440.303	22.85
440.506	24.01
440.708	23.7
440.91	24.18
441.113	24.88
441.315	25.41
441.517	25.35
441.72	26.16
441.922	25.82
442.124	25.99
442.326	26.75
442.529	27.14
442.731	27.55
442.933	28.13
443.135	28.13
443.337	28.28
443.539	29.37
443.742	29.05
443.944	30.41
444.146	30.06
444.348	30.17
444.55	30.48
444.752	30.88
444.954	31.02
445.156	31.03
445.358	31.98
445.56	32.8
445.762	32.44
445.964	33.33
446.166	33.25
446.368	33.41
446.57	33.43
446.772	32.85
446.974	32.78
447.175	33.29
447.377	33.1
447.579	33.97
447.781	33.63
447.983	33.09
448.184	32.61
448.386	33.33
448.588	32.71
448.79	32.63
448.991	33.35
449.193	33.38
449.395	32.07
449.597	31.34
449.798	31.31
450	30.81
450.202	30.63
450.403	30.63
450.605	30.39
450.806	29.67
451.008	29.69
451.21	29.15
451.411	28.49
451.613	26.75
451.814	27.3
452.016	27.19
452.217	25.89
452.419	25.85
452.62	25.35
452.821	24.83
453.023	24.38
453.224	23.65
453.426	22.98
453.627	21.44
453.828	21.63
454.03	21.72
454.231	21.73
454.432	21.31
454.634	20.68
454.835	20.29
455.036	20.15
455.238	19.16
455.439	18.61
455.64	18.16
455.841	17.95
456.042	17.96
456.244	17.42
456.445	16.97
456.646	16.43
456.847	16.19
457.048	15.92
457.249	15.84
457.45	15.18
457.651	14.55
457.852	14.16
458.054	13.61
458.255	13.37
458.456	13.5
458.657	13.43
458.858	12.54
459.058	12.27
459.259	12.44
459.46	11.73
459.661	11.77
459.862	11.72
460.063	11.62
460.264	11.25
460.465	10.85
460.666	10.91
460.866	10.38
461.067	9.83
461.268	9.87
461.469	9.86
461.67	9.54
461.87	9.24
462.071	9.17
462.272	8.98
462.473	8.94
462.673	9.1
462.874	8.95
463.075	8.8
463.275	8.76
463.476	8.73
463.676	8.54
463.877	8.41
464.078	8.3
464.278	8.28
464.479	8.06
464.679	7.79
464.88	7.63
465.08	7.44
465.281	7.25
465.481	6.88
465.682	6.58
465.882	6.48
466.083	6.42
466.283	6.26
466.483	5.99
466.684	5.79
466.884	5.58
467.085	5.54
467.285	5.56
467.485	5.44
467.686	5.16
467.886	4.96
468.086	4.83
468.286	4.81
468.487	4.84
468.687	4.62
468.887	4.51
469.087	4.59
469.287	4.44
469.488	4.11
469.688	4.22
469.888	4.22
470.088	4.06
470.288	3.91
470.488	3.77
470.688	3.62
470.888	3.57
471.088	3.29
471.288	3.38
471.488	3.26
471.688	3.21
471.888	3.15
472.088	3.24
472.288	3.19
472.488	3
472.688	2.88
472.888	2.84
473.088	2.87
473.288	2.72
473.488	2.6
473.688	2.79
473.887	2.57
474.087	2.55
474.287	2.5
474.487	2.36
474.687	2.39
474.886	2.26
475.086	2.22
475.286	2.22
475.486	2.14
475.685	2.05
475.885	2.06
476.085	2.07
476.284	2.02
476.484	1.95
476.684	1.94
476.883	2.01
477.083	1.82
477.282	1.73
477.482	1.79
477.681	1.72
477.881	1.62
478.08	1.63
478.28	1.54
478.479	1.6
478.679	1.56
478.878	1.51
479.078	1.44
479.277	1.46
479.477	1.43
479.676	1.43
479.875	1.35
480.075	1.31
480.274	1.29
480.473	1.3
480.673	1.26
480.872	1.29
481.071	1.2
481.271	1.19
481.47	1.12
481.669	1.13
481.868	1.07
482.067	1.08
482.267	1.02
482.466	1.02
482.665	0.95
482.864	0.97
483.063	0.92
483.262	0.98
483.461	0.98
483.661	0.99
483.86	0.88
484.059	0.94
484.258	0.87
484.457	0.82
484.656	0.8
484.855	0.86
485.054	0.73
485.253	0.77
485.452	0.73
485.651	0.75
485.849	0.7
486.048	0.69
486.247	0.67
486.446	0.65
486.645	0.64
486.844	0.63
487.043	0.59
487.241	0.63
487.44	0.59
487.639	0.59
487.838	0.6
488.037	0.56
488.235	0.61
488.434	0.55
488.633	0.49
488.831	0.51
489.03	0.54
489.229	0.52
489.427	0.46
489.626	0.5
489.825	0.53
490.023	0.43
490.222	0.44
490.42	0.48
490.619	0.48
490.817	0.42
491.016	0.39
491.214	0.42
491.413	0.39
491.611	0.37
491.81	0.38
492.008	0.37
492.207	0.38
492.405	0.37
492.604	0.32
492.802	0.36
493	0.36
493.199	0.33
493.397	0.33
493.595	0.35
493.794	0.3
493.992	0.35
494.19	0.29
494.388	0.32
494.587	0.29
494.785	0.3
494.983	0.24
495.181	0.29
495.379	0.27
495.578	0.27
495.776	0.27
495.974	0.29
496.172	0.26
496.37	0.25
496.568	0.24
496.766	0.23
496.964	0.27
497.162	0.25
497.36	0.2
497.558	0.26
497.756	0.23
497.954	0.23
498.152	0.22
498.35	0.22
498.548	0.2
498.746	0.21
498.944	0.16
499.142	0.17
499.34	0.17
499.538	0.2
499.736	0.16
499.933	0.24
500.131	0.22
500.329	0.19
500.527	0.22
500.725	0.22
500.922	0.21
501.12	0.2
501.318	0.18
501.516	0.18
501.713	0.19
501.911	0.19
502.109	0.14
502.306	0.2
502.504	0.16
502.701	0.13
502.899	0.14
503.097	0.2
503.294	0.16
503.492	0.13
503.689	0.16
503.887	0.16
504.084	0.2
504.282	0.15
504.479	0.11
504.677	0.14
504.874	0.1
505.072	0.14
505.269	0.15
505.466	0.16
505.664	0.16
505.861	0.12
506.059	0.13
506.256	0.16
506.453	0.11
506.651	0.17
506.848	0.15
507.045	0.13
507.242	0.15
507.44	0.1
507.637	0.12
507.834	0.12
508.031	0.15
508.229	0.09
508.426	0.12
508.623	0.13
508.82	0.1
509.017	0.08
509.214	0.1
509.411	0.12
509.608	0.06
509.805	0.1
510.003	0.1
510.2	0.09
510.397	0.13
510.594	0.08
510.791	0.1
510.988	0.09
511.184	0.14
511.381	0.09
511.578	0.07
511.775	0.14
511.972	0.08
512.169	0.08
512.366	0.09
512.563	0.11
512.76	0.08
512.956	0.08
513.153	0.07
513.35	0.09
513.547	0.08
513.744	0.07
513.94	0.04
514.137	0.08
514.334	0.09
514.53	0.1
514.727	0.09
514.924	0.14
515.12	0.06
515.317	0.07
515.514	0.07
515.71	0.05
515.907	0.09
516.103	0.1
516.3	0.09
516.497	0.11
516.693	0.13
516.89	0.07
517.086	0.06
517.283	0.09
517.479	0.09
517.676	0.08
517.872	0.08
518.068	0.08
518.265	0.08
518.461	0.07
518.658	0.06
518.854	0.09
519.05	0.07
519.247	0.05
519.443	0.1
519.639	0.09
519.836	0.08
520.032	0.09
520.228	0.07
520.424	0.15
520.621	0.08
520.817	0.06
521.013	0.09
521.209	0.08
521.405	0.12
521.601	0.08
521.798	0.08
521.994	0.12
522.19	0.05
522.386	0.01
522.582	0.08
522.778	0.09
522.974	0.07
523.17	0.06
523.366	0.09
523.562	0.1
523.758	0.08
523.954	0.05
524.15	0.05
524.346	0.08
524.542	0.07
524.738	0.04
524.934	0.07
525.129	0.06
525.325	0.06
525.521	0.08
525.717	0.08
525.913	0.06
526.109	0.07
526.304	0.04
526.5	0.06
526.696	0.1
526.892	0.07
527.087	0.08
527.283	0.05
527.479	0.08
527.674	0.04
527.87	0.03
528.066	0.06
528.261	0.08
528.457	0.07
528.653	0.06
528.848	0.05
529.044	0.07
529.239	0.07
529.435	0.08
529.63	0.06
529.826	0.11
530.021	0.08
530.217	0.1
530.412	0.05
530.608	0.05
530.803	0.07
530.999	0.05
531.194	0
531.389	0.05
531.585	0.02
531.78	0.05
531.975	0.06
532.171	0.09
532.366	0.07
532.561	0.05
532.757	0.04
532.952	0.06
533.147	0.06
533.342	0.04
533.538	0.05
533.733	0.08
533.928	0.03
534.123	0.03
534.318	0.03
534.513	0.05
534.709	0.06
534.904	0.04
535.099	0.03
535.294	0.06
535.489	0.04
535.684	0.07
535.879	0.04
536.074	0.05
536.269	0.03
536.464	0.07
536.659	0.05
536.854	0.06
537.049	0.08
537.244	0.07
537.439	0.05
537.634	0.07
537.828	0.07
538.023	0.05
538.218	0
538.413	0.04
538.608	0.01
538.803	0.06
538.997	0.02
539.192	0.1
539.387	0.06
539.582	0.07
539.776	0.05
539.971	0.03
540.166	0.03
540.36	0.02
540.555	0.05
540.75	0.03
540.944	0.04
541.139	0.01
541.334	0.04
541.528	0.08
541.723	0.09
541.917	0.05
542.112	0.02
542.306	0.05
542.501	0.02
542.695	0.05
542.89	0.03
543.084	0.07
543.279	0.04
543.473	0.04
543.668	0.04
543.862	0.03
544.056	0.07
544.251	0.05
544.445	0.06
544.64	0.05
544.834	0.01
545.028	0.06
545.222	0.05
545.417	0.08
545.611	0.07
545.805	0.05
546	0.03
546.194	0.03
546.388	0.05
546.582	0.07
546.776	0.05
546.97	0.05
547.165	0.05
547.359	0.07
547.553	0.03
547.747	0.06
547.941	0.08
548.135	0.04
548.329	0.08
548.523	0.07
548.717	0.06
548.911	0.04
549.105	0.04
549.299	0.05
549.493	0.09
549.687	0.06
549.881	0.06
550.075	0.04
550.269	0.01
550.463	0.07
550.657	0.03
550.85	0.06
551.044	0.02
551.238	0.03
551.432	0.04
551.626	0.01
551.82	0.05
552.013	0.02
552.207	0.03
552.401	0.07
552.594	0.05
552.788	0.04
552.982	0.04
553.176	0.04
553.369	0.06
553.563	0.07
553.756	0.02
553.95	0.03
554.144	0.03
554.337	0.07
554.531	0.05
554.724	0.05
554.918	0.04
555.111	0.09
555.305	0.05
555.498	0.09
555.692	0.07
555.885	0.04
556.079	0.04
556.272	0.03
556.466	0.07
556.659	0.06
556.852	0.04
557.046	0.03
557.239	0.07
557.432	0.02
557.626	0.02
557.819	0.05
558.012	0.07
558.206	0.06
558.399	0.04
558.592	0.05
558.785	0.06
558.979	0.07
559.172	0.05
559.365	0.07
559.558	0.06
559.751	0.05
559.944	0.06
560.138	0.04
560.331	0.03
560.524	0.04
560.717	0.04
560.91	0.03
561.103	0.05
561.296	0.04
561.489	0.07
561.682	0.03
561.875	0.06
562.068	0.07
562.261	0.04
562.454	0.07
562.647	0.07
562.84	0.05
563.032	0.04
563.225	0.05
563.418	0.04
563.611	0.05
563.804	0.04
563.997	0
564.19	0.01
564.382	0.06
564.575	0.02
564.768	0.03
564.961	0.04
565.153	0.01
565.346	0.07
565.539	0.07
565.731	0.06
565.924	0.07
566.117	0.07
566.309	0.03
566.502	0.04
566.695	0.04
566.887	0.07
567.08	0.02
567.272	0.03
567.465	0.01
567.657	0.03
567.85	0.06
568.042	0.05
568.235	0.08
568.427	0.02
568.62	0.05
568.812	0.06
569.005	0.05
569.197	0.01
569.389	0.06
569.582	0.03
569.774	0.03
569.966	0
570.159	-0.01
570.351	0.05
570.543	0.03
570.736	0.04
570.928	0.02
571.12	0.04
571.312	0.03
571.505	-0
571.697	0.05
571.889	0.03
572.081	0.04
572.273	0.02
572.465	0.07
572.658	0.01
572.85	0.07
573.042	0.02
573.234	0.03
573.426	0.08
573.618	0
573.81	0.04
574.002	0.06
574.194	0.09
574.386	0
574.578	-0.03
574.77	0.02
574.962	0.02
575.154	-0
575.346	0.02
575.538	0.04
575.729	0.02
575.921	0.03
576.113	0.02
576.305	0.07
576.497	0.01
576.689	0.02
576.88	0.01
577.072	0.04
577.264	0.03
577.456	0.02
577.647	-0.05
577.839	0.05
578.031	0.08
578.223	0
578.414	0
578.606	0.05
578.798	0.05
578.989	0.02
579.181	0.01
579.372	0.02
579.564	0.03
579.755	0.05
579.947	0.03
580.139	0.06
580.33	-0.05
580.522	0
580.713	-0
580.905	0.02
581.096	0.08
581.287	0.02
581.479	0.02
581.67	0.02
581.862	0.03
582.053	0.03
582.244	-0
582.436	0.02
582.627	0.05
582.818	0
583.01	0.01
583.201	0.06
583.392	0.04
583.583	0.05
583.775	0.03
583.966	0.03
584.157	0.03
584.348	0
584.54	-0.01
584.731	0.05
584.922	0.04
585.113	0.02
585.304	0.04
585.495	0.07
585.686	0.05
585.877	0.06
586.068	0.05
586.259	0.05
586.45	0.04
586.641	0.01
586.832	-0.04
587.023	0.03
587.214	0.04
587.405	0.05
587.596	0
587.787	0.06
587.978	0.03
588.169	0.02
588.36	0.02
588.551	0.03
588.742	0.03
588.932	0.06
589.123	0.02
589.314	0.05
589.505	0.04
589.696	0.02
589.886	0.01
590.077	0
590.268	0.05
590.458	-0.03
590.649	0
590.84	0.05
591.03	0.01
591.221	-0.02
591.412	-0.02
591.602	0.04
591.793	0.08
591.984	0
592.174	0.01
592.365	0.12
592.555	0
592.746	0.03
592.936	0.05
593.127	0.06
593.317	0.05
593.508	0
593.698	0.01
593.889	0.02
594.079	0.05
594.269	-0.01
594.46	0.02
594.65	0.04
594.84	0.03
595.031	-0.01
595.221	0.01
595.411	0.01
595.602	0.03
595.792	0.04
595.982	0.02
596.172	0.09
596.363	0.04
596.553	0.02
596.743	0.05
596.933	0.04
597.123	0.08
597.314	-0.02
597.504	0
597.694	0.05
597.884	0.05
598.074	0.03
598.264	-0.02
598.454	0.04
598.644	0.04
598.834	0.02
599.024	-0.04
599.214	0.02
599.404	0.08
599.594	0.02
599.784	0.03
599.974	0.05
600.164	0.07
600.354	-0.02
600.544	-0.01
600.734	0.02
600.924	0.06
601.114	0.01
601.303	0
601.493	0.03
601.683	0.02
601.873	0.03
602.063	-0.02
602.252	0.08
602.442	-0.04
602.632	0
602.821	-0.01
603.011	0.07
603.201	0.01
603.39	0.01
603.58	0.02
603.77	0.03
603.959	0.06
604.149	0.01
604.339	-0.01
604.528	0.02
604.718	0.05
604.907	0.01
605.097	0
605.286	-0.01
605.476	0.07
605.665	0.04
605.855	-0.02
606.044	0.07
606.234	0.06
606.423	0.01
606.612	-0.01
606.802	0.05
606.991	0.04
607.181	0.03
607.37	-0.02
607.559	0.01
607.749	-0.02
607.938	0.01
608.127	0.02
608.316	0
608.506	0.05
608.695	0.01
608.884	0
609.073	0.02
609.263	0.05
609.452	0.05
609.641	0.05
609.83	0.04
610.019	0.01
610.208	0
610.397	0.01
610.586	0.06
610.775	0
610.965	0.01
611.154	0.01
611.343	0.01
611.532	0.05
611.721	-0.01
611.91	-0.01
612.099	0.03
612.287	-0.01
612.476	0.01
612.665	0.02
612.854	0.03
613.043	0.05
613.232	0.04
613.421	-0.05
613.61	0
613.798	-0.02
613.987	0.04
614.176	0.03
614.365	0.05
614.554	0.01
614.742	0.05
614.931	-0.01
615.12	0.05
615.309	0
615.497	0.03
615.686	0.01
615.875	0.01
616.063	0.04
616.252	0.01
616.44	0.01
616.629	0.02
616.818	0.04
617.006	0
617.195	0
617.383	0.03
617.572	0.01
617.76	-0.02
617.949	0.01
618.137	0.04
618.326	0.09
618.514	0.01
618.703	-0.01
618.891	0.06
619.079	-0.03
619.268	0.03
619.456	0
619.644	0.07
619.833	0
620.021	0
620.209	-0.02
620.398	0.06
620.586	0.03
620.774	0.03
620.962	0.04
621.151	0.06
621.339	0.02
621.527	-0.01
621.715	-0.01
621.903	-0.04
622.092	-0.03
622.28	0.03
622.468	0.03
622.656	0.01
622.844	0.06
623.032	0.01
623.22	-0.01
623.408	0.08
623.596	0.06
623.784	0.06
623.972	-0.01
624.16	-0.02
624.348	0.09
624.536	0.01
624.724	-0.03
624.912	0.08
625.1	0.07
625.288	-0.01
625.476	-0
625.664	0.04
625.851	-0.01
626.039	0.04
626.227	0.05
626.415	0
626.603	-0.03
626.79	0.01
626.978	0
627.166	0.03
627.354	0.02
627.541	-0.02
627.729	-0.04
627.917	0.04
628.104	0.08
628.292	0.03
628.48	0.01
628.667	0.05
628.855	0.02
629.042	0.03
629.23	0.02
629.418	0.04
629.605	0.01
629.793	-0
629.98	-0.02
630.168	0.04
630.355	0.02
630.543	0.02
630.73	0.02
630.917	0.05
631.105	0.09
631.292	0.02
631.48	0.02
631.667	0.1
631.854	0.06
632.042	0
632.229	-0.03
632.416	0.03
632.604	0.03
632.791	0
632.978	0.05
633.165	0.04
633.353	0.11
633.54	0.07
633.727	-0.04
633.914	-0.01
634.101	-0.06
634.289	0.07
634.476	-0.01
634.663	-0.02
634.85	0.03
635.037	-0.02
635.224	-0.06
635.411	0.06
635.598	0.08
635.785	0.01
635.972	0
636.159	0.08
636.346	-0.04
636.533	0.02
636.72	-0
636.907	0.02
637.094	0.04
637.281	0.01
637.468	0.05
637.655	0.01
637.842	0.03
638.029	-0.01
638.215	0.05
638.402	0.05
638.589	-0.02
638.776	-0.01
638.963	0
639.149	0.07
639.336	0.1
639.523	0
639.709	0.01
639.896	0.01
640.083	0.07
640.27	0.03
640.456	-0.02
640.643	0.05
640.829	-0.01
641.016	-0.02
641.203	-0.01
641.389	0.05
641.576	-0
641.762	0.02
641.949	-0.01
642.135	0.03
642.322	0.02
642.508	-0.03
642.695	0.03
642.881	0.01
643.068	0.03
643.254	0.02
643.441	0.08
643.627	0.03
643.813	-0.02
644	0.06
644.186	-0.02
644.372	0
644.559	0.08
644.745	0.03
644.931	-0.02
645.118	0.01
645.304	0.06
645.49	-0.04
645.676	-0
645.862	0.02
646.049	0.05
646.235	0.04
646.421	0.08
646.607	0.07
646.793	-0.02
646.979	-0.03
647.165	0.04
647.352	0.01
647.538	0.05
647.724	-0
647.91	0.03
648.096	0.06
648.282	0.05
648.468	0.03
648.654	0.03
648.84	0.01
649.026	0.05
649.212	0.01
649.397	-0.01
649.583	-0
649.769	0.09
649.955	0.02
650.141	0.04
650.327	0.07
650.513	-0.01
650.698	0.05
650.884	-0.03
651.07	0.04
651.256	0.03
651.442	0.04
651.627	0.01
651.813	0.04
651.999	0.01
652.184	0.02
652.37	0.01
652.556	0.03
652.741	0.09
652.927	-0.04
653.113	-0.02
653.298	-0
653.484	-0
653.669	-0.04
653.855	0.03
654.04	0.05
654.226	0.04
654.412	0.03
654.597	-0.04
654.782	0.02
654.968	0.06
655.153	0.05
655.339	-0.03
655.524	-0.03
655.71	0.05
655.895	-0.02
656.08	0.02
656.266	0.04
656.451	0.04
656.636	0.01
656.822	0.04
657.007	0.03
657.192	0.02
657.378	-0.05
657.563	0.05
657.748	0.04
657.933	0.02
658.118	0.01
658.304	-0
658.489	0.08
658.674	0.04
658.859	-0.04
659.044	0.02
659.229	0.03
659.414	0
659.599	0.02
659.785	-0.01
659.97	-0
660.155	0.07
660.34	0.02
660.525	0
660.71	0.02
660.895	0.03
661.08	0
661.264	-0.03
661.449	0.06
661.634	0.05
661.819	0.02
662.004	0.03
662.189	-0.07
662.374	-0
662.559	-0.03
662.743	-0.01
662.928	0.03
663.113	0.01
663.298	-0.06
663.483	-0
663.667	0.03
663.852	-0.02
664.037	0.07
664.221	-0.01
664.406	0.03
664.591	0.02
664.775	-0.01
664.96	0.06
665.145	0.03
665.329	0.02
665.514	-0.02
665.698	-0.03
665.883	-0.09
666.068	0.08
666.252	-0
666.437	-0.03
666.621	0.06
666.806	0.07
666.99	0.03
667.174	-0.01
667.359	0.1
667.543	-0.01
667.728	0.01
667.912	-0.04
668.096	0.04
668.281	-0
668.465	0.02
668.649	0.04
668.834	-0.02
669.018	0.01
669.202	-0
669.387	-0.03
669.571	0.07
669.755	-0.01
669.939	0.02
670.124	0.02
670.308	0.08
670.492	0.04
670.676	0.02
670.86	0
671.044	-0
671.228	0.05
671.413	-0.03
671.597	-0.01
671.781	0
671.965	0.07
672.149	0.01
672.333	0.03
672.517	-0.05
672.701	0.06
672.885	0
673.069	-0.04
673.253	0.08
673.437	0.02
673.621	0.01
673.804	-0.01
673.988	0.03
674.172	0.01
674.356	-0.06
674.54	-0
674.724	0.08
674.908	0.02
675.091	0.06
675.275	0
675.459	0.03
675.643	0.02
675.826	0.01
676.01	0
676.194	0.03
676.377	0.07
676.561	0.04
676.745	0.01
676.928	0.03
677.112	0.05
677.296	-0
677.479	-0.03
677.663	-0.02
677.846	0.04
678.03	0.02
678.213	-0.02
678.397	0.08
678.58	-0.01
678.764	0.01
678.947	-0.05
679.131	0.01
679.314	0.06
679.498	0.05
679.681	0
679.865	0.04
680.048	0.02
680.231	0
680.415	0.01
680.598	0
680.781	-0
680.965	0.03
681.148	0.03
681.331	-0.02
681.514	0.05
681.698	-0.05
681.881	0.02
682.064	-0.01
682.247	0
682.43	-0.06
682.614	0.04
682.797	0.05
682.98	0.04
683.163	-0.01
683.346	0.03
683.529	0
683.712	-0.01
683.895	0.04
684.078	-0.05
684.261	-0.01
684.444	0.05
684.627	0
684.81	0
684.993	0.02
685.176	0.06
685.359	-0.02
685.542	-0.06
685.725	0.12
685.908	-0.04
686.091	-0.01
686.274	0.04
686.457	0.03
686.639	-0.01
686.822	0.04
687.005	0.06
687.188	0.07
687.371	0.11
687.553	0.04
687.736	0.02
687.919	0.03
688.102	0.12
688.284	0
688.467	0.02
688.65	-0.03
688.832	0.04
689.015	0.02
689.197	-0.09
689.38	0.12
689.563	0.06
689.745	-0.01
689.928	-0.04
690.11	0.04
690.293	0.04
690.475	-0.01
690.658	0.06
690.84	-0.03
691.023	0.04
691.205	-0.04
691.388	-0.01
691.57	0.07
691.752	0.06
691.935	-0.04
692.117	0
692.3	0.02
692.482	0.03
692.664	-0.03
692.847	0.04
693.029	0.08
693.211	0
693.393	0.02
693.576	-0.03
693.758	0.01
693.94	0.02
694.122	0.02
694.304	0.06
694.487	-0.02
694.669	0.11
694.851	-0.07
695.033	0
695.215	-0.05
695.397	0
695.579	0.01
695.761	0.02
695.943	-0.05
696.125	0.06
696.308	0.07
696.49	-0.06
696.671	0.17
696.853	0.01
697.035	0.15
697.217	0.03
697.399	0.1
697.581	0.01
697.763	-0.07
697.945	-0.05
698.127	0.02
698.309	0.05
698.491	0.02
698.672	0.07
698.854	0.05
699.036	0.09
699.218	-0
699.399	0.06
699.581	0.08
699.763	0.09
699.945	-0.02
700.126	-0.07
700.308	0.01
700.49	0.07
700.671	-0.11
700.853	-0.02
701.035	-0.03
701.216	0
701.398	-0.04
701.579	-0.01
701.761	0.07
701.943	-0.02
702.124	-0.02
702.306	0.01
702.487	0.2
702.669	0.01
702.85	0
703.031	-0.04
703.213	0.1
703.394	0.05
703.576	-0.03
703.757	0.15
703.938	0.08
704.12	0.2
704.301	0.03
704.483	-0.06
704.664	0.05
704.845	0.14
705.026	0.06
705.208	0.02
705.389	0
705.57	0.05
705.751	0.05
705.933	0
706.114	0.11
706.295	-0.02
706.476	-0.05
706.657	0.11
706.838	0.13
707.02	0.08
707.201	-0.04
707.382	-0.04
707.563	0.05
707.744	0.01
707.925	-0.05
708.106	-0.02
708.287	0.03
708.468	0.14
708.649	-0.01
708.83	0.06
709.011	0.01
709.192	0.06
709.373	-0.07
709.554	0.01
709.734	0.04
709.915	0.03
710.096	0.04
710.277	-0.12
710.458	-0.03
710.639	0.05
710.819	-0.05
711	-0.05
711.181	0.13
711.362	0.04
711.542	0.05
711.723	0.03
711.904	0.1
712.085	0.09
712.265	0.03
712.446	-0.06
712.627	-0.03
712.807	-0.02
712.988	0.04
713.168	0.01
713.349	0.04
713.53	-0.13
713.71	-0.09
713.891	-0.07
714.071	0.04
714.252	0.01
714.432	-0.07
714.613	-0.06
714.793	0.01
714.974	0.06
715.154	0.01
715.334	0.07
715.515	0.15
715.695	-0.08
715.876	0.01
716.056	-0
716.236	0.01
716.417	0.03
716.597	0.06
716.777	0.21
716.957	0.06
717.138	0.05
717.318	0.02
717.498	-0.04
717.678	0.04
717.859	0.02
718.039	-0.03
718.219	0.05
718.399	0.03
718.579	-0.11
718.759	-0.02
718.939	0.01
719.12	0.02
719.3	-0
719.48	-0.1
719.66	-0.11
719.84	0.21
720.02	0.06
720.2	0.04
720.38	-0.03
720.56	0.15
720.74	-0.01
720.92	0.03
721.1	0.15
721.279	0.12
721.459	0.02
721.639	-0.06
721.819	0.02
721.999	-0.06
722.179	0.15
722.359	-0.02
722.538	0.01
722.718	0.02
722.898	0.02
723.078	0.04
723.257	-0.01
723.437	0.03
723.617	0.08
723.797	-0.02
723.976	0.02
724.156	0.07
724.336	0.11
724.515	0.16
724.695	-0.05
724.874	-0.01
725.054	0.13
725.234	-0.03
725.413	0.04
725.593	-0.08
725.772	0.07
725.952	-0.02
726.131	0.03
726.311	0.06
726.49	-0
726.67	-0.12
726.849	-0.04
727.028	0.08
727.208	0
727.387	0.03
727.567	-0.04
727.746	-0.09
727.925	0.02
728.105	-0.1
728.284	0.02
728.463	-0.02
728.643	0.12
728.822	-0.11
729.001	-0.08
729.18	0.02
729.359	0.11
729.539	0.06
729.718	-0.07
729.897	0.1
730.076	0
730.255	-0
730.434	0
730.614	0.01
730.793	0.12
730.972	0.03
731.151	0.02
731.33	0.13
731.509	0.11
731.688	0.12
731.867	0.06
732.046	-0.09
732.225	0.23
732.404	-0.03
732.583	-0.06
732.762	0.06
732.941	0.11
733.12	0.01
733.298	0.01
733.477	0.11
733.656	-0.02
733.835	-0.07
734.014	0.11
734.193	-0.08
734.371	0.12
734.55	0.03
734.729	-0.09
734.908	0.07
735.086	0.18
735.265	0.11
735.444	-0.14
735.623	-0.11
735.801	-0.08
735.98	-0
736.159	0.02
736.337	0.09
736.516	0.1
736.694	0.14
736.873	-0.06
737.052	0.12
737.23	0.18
737.409	-0.03
737.587	0.16
737.766	-0.17
737.944	-0.03
738.123	0.1
738.301	0.06
738.479	-0.01
738.658	0.16
738.836	-0.21
739.015	0.09
739.193	0.05
739.371	-0.05
739.55	0.02
739.728	-0.07
739.906	0.13
740.085	0.15
740.263	0.02
740.441	-0.15
740.62	0.24
740.798	0.09
740.976	-0.12
741.154	-0.07
741.332	0.26
741.511	0.03
741.689	0.01
741.867	0.12
742.045	0.01
742.223	0.03
742.401	-0
742.579	-0.05
742.757	0.07
742.935	-0.03
743.114	-0
743.292	-0.01
743.47	0.01
743.648	-0.02
743.826	-0.16
744.004	0.03
744.181	0.09
744.359	0.11
744.537	-0.02
744.715	0.07
744.893	0.03
745.071	0.08
745.249	0.05
745.427	0.07
745.605	0.11
745.782	-0.02
745.96	0.08
746.138	0.13
746.316	0.17
746.493	0.05
746.671	0.06
746.849	0.01
747.027	0.15
747.204	-0.11
747.382	0.02
747.56	-0.08
747.737	0.01
747.915	-0.08
748.093	0.18
748.27	-0.03
748.448	-0.04
748.625	-0.06
748.803	-0.03
748.98	0.05
749.158	0.01
749.335	0.18
749.513	-0
749.69	0.01
749.868	0.04
750.045	0.07
750.223	-0.03
750.4	-0.09
750.578	0.11
750.755	0.02
750.932	-0.14
751.11	0.07
751.287	-0.1
751.464	0.2
751.642	-0.05
751.819	0.11
751.996	0.09
752.173	0.01
752.351	-0.13
752.528	0.11
752.705	0.01
752.882	-0.03
753.06	0.11
753.237	0.11
753.414	0.24
753.591	0.2
753.768	0.02
753.945	-0.06
754.122	-0.14
754.299	0.13
754.476	-0.14
754.654	-0.04
754.831	0.13
755.008	0.18
755.185	0
755.362	-0.1
755.539	0.05
755.716	0.1
755.892	-0.03
756.069	0.01
756.246	-0.02
756.423	0.1
756.6	0.24
756.777	-0.02
756.954	0.08
757.131	-0.07
757.307	0.06
757.484	-0.13
757.661	0.05
757.838	0.04
758.015	-0.14
758.191	0.04
758.368	0.13
758.545	0.11
758.721	0.14
758.898	-0.08
759.075	0.1
759.251	0.11
759.428	0.1
759.605	-0.15
759.781	0.02
759.958	0.11
760.134	0
760.311	-0.13
760.488	0.19
760.664	0.17
760.841	-0.01
761.017	-0.16
761.194	0.13
761.37	0.22
761.547	0.06
761.723	0
761.899	0.19
762.076	0.02
762.252	-0.06
762.429	-0
762.605	0.07
762.781	0.01
762.958	0.21
763.134	-0.16
763.31	-0.06
763.486	0.21
763.663	-0.2
763.839	0.02
764.015	-0.15
764.191	-0.06
764.368	-0
764.544	-0.06
764.72	0.1
764.896	0.09
765.072	0.11
765.248	0.01
765.425	-0.02
765.601	0.09
765.777	0.02
765.953	-0.21
766.129	-0.05
766.305	-0.01
766.481	0.16
766.657	0.01
766.833	0.27
767.009	-0.13
767.185	-0.04
767.361	0.07
767.537	-0.17
767.713	0.29
767.889	-0.13
768.065	-0.04
768.24	0.2
768.416	0.13
768.592	-0.04
768.768	0.05
768.944	-0
769.12	-0.15
769.295	-0.13
769.471	0.05
769.647	0.08
769.823	0.16
769.998	0.01
770.174	-0.07
770.35	0.36
770.525	0.23
770.701	-0.01
770.877	0.1
771.052	0.02
771.228	0.09
771.403	0.02
771.579	0.14
771.755	0.3
771.93	-0.04
772.106	-0.08
772.281	-0.25
772.457	0.02
772.632	-0.03
772.808	-0.16
772.983	0.01
773.159	-0.27
773.334	0.15
773.509	-0.3
773.685	-0.09
773.86	0.34
774.036	0.23
774.211	0.19
774.386	-0.04
774.562	-0.24
774.737	0.06
774.912	0.22
775.087	-0.02
775.263	0.07
775.438	0.13
775.613	-0.09
775.788	-0.1
775.964	0.2
776.139	0.41
776.314	-0.26
776.489	-0.1
776.664	0.01
776.839	-0.04
777.014	0.11
777.19	0.19
777.365	0.21
777.54	0.23
777.715	-0.06
777.89	0.16
778.065	-0.08
778.24	-0.04
778.415	0.15
778.59	-0.03
778.765	-0.13
778.94	-0.03
779.115	0.02
779.289	-0
779.464	0.04
779.639	0.02
779.814	-0.11
779.989	-0.13
780.164	0.18
780.339	0.23
780.513	-0.12
780.688	-0.12
780.863	-0.01
781.038	0.26
781.212	-0.09
781.387	0.1
781.562	0.3
781.737	-0.16
781.911	0.16
782.086	0
782.261	0.03
782.435	0.39
782.61	-0.07
782.784	-0.07
782.959	0.29
783.134	-0.03
783.308	-0.19
783.483	-0.12
783.657	0.53
783.832	0.08
784.006	-0.43
784.181	0.19
784.355	0.34
784.53	-0.34
784.704	-0.3
784.878	0.33
785.053	0.06
785.227	0.26
785.402	0.49
785.576	-0.24
785.75	-0.16
785.925	-0.22
786.099	0.05
786.273	0.02
786.448	0.18
786.622	0.19
786.796	-0.13
786.97	-0.07
787.145	0.55
787.319	-0.43
787.493	0.07
787.667	-0.2
787.841	-0.09
788.015	0.31
788.19	-0.2
788.364	0.09
788.538	0.08
788.712	0
788.886	-0.13
789.06	0.2
789.234	0.34
789.408	-0.38
789.582	-0.13
789.756	0.02
789.93	-0.19
790.104	-0.03
790.278	-0.21
790.452	-0.26
790.626	0.14
790.8	-0.12
790.973	0.05
791.147	0.15
791.321	0.38
791.495	0.18
791.669	-0.06
791.843	0.17
792.016	0.17
792.19	0.49
792.364	-0.09
792.538	0.62
792.711	0.23
792.885	-0.02
793.059	-0.33
793.233	-0.28
793.406	0.15
793.58	0.15
793.754	0.16
793.927	-0.04
794.101	0.34
794.274	0.17
794.448	0.24
794.622	-0.2
794.795	0.39
794.969	-0.13
795.142	0.46
795.316	-0.13
795.489	0.05
795.663	0.26
795.836	0.15
796.009	-0.27
796.183	0.24
796.356	0.22
796.53	0.14
796.703	0.03
796.876	0.43
797.05	-0.07
797.223	-0.08
797.396	0.02
797.57	0.45
797.743	0.23
797.916	0.14
798.09	-0.13
798.263	0.15
798.436	0.07
798.609	-0.15
798.782	-0.19
798.956	0.3
799.129	-0.18
799.302	-0.24
799.475	-0.23
799.648	-0.3
799.821	-0.23
799.994	0.09
800.167	-0.49
800.34	0.08
800.514	0.07
800.687	-0.09
800.86	-0.1
801.033	0.07
801.206	-0.12
801.379	-0.26
801.551	0.21
801.724	0.23
801.897	0.5
802.07	-0.1
802.243	-0.29
802.416	0.09
802.589	-0.22
802.762	-0.08
802.935	-0.21
803.107	0.35
803.28	0.36
803.453	0.01
803.626	-0.29
803.798	-0.18
803.971	-0.2
804.144	-0.11
804.317	0.18
804.489	0.19
804.662	-0.12
804.835	0.06
805.007	-0.7
805.18	0.51
805.353	0.17
805.525	-0.13
805.698	-0.17
805.87	0.33
806.043	0.32
806.215	-0.34
806.388	-0.35
806.56	0.1
806.733	0.33
806.905	0.23
807.078	-0.09
807.25	-0.13
807.423	-0.01
807.595	0.1
807.768	-0.08
807.94	0.35
808.112	0.21
808.285	0.02
808.457	-0.23
808.629	0.26
808.802	0.42
808.974	0.11
809.146	-0.48
809.318	-0.29
809.491	0.02
809.663	0.29
809.835	0.03
810.007	0.25
810.18	-0.18
810.352	-0.34
810.524	-0.12
810.696	-0.03
810.868	0.25
811.04	-0.05
811.212	-0.12
811.384	-0.03
811.556	0.3
811.728	-0.18
811.901	0.8
812.073	-0.32
812.245	0.51
812.417	0.19
812.589	-0.47
812.76	0.2
812.932	0.31
813.104	0.56
813.276	-0.38
813.448	0.76
813.62	0.11
813.792	0.12
813.964	0.04
814.136	0.13
814.307	-0.24
814.479	-0.1
814.651	-0.14
814.823	0.6
814.995	-0.06
815.166	-0.1
815.338	-0.38
815.51	-0.67
815.681	0.32
815.853	-0.04
816.025	0.2
816.196	0.76
816.368	0.51
816.54	0.02
816.711	-0.25
816.883	0.32
817.054	0.67
817.226	-0.46
817.398	0.4
817.569	-0.47
817.741	-0.25
817.912	0.07
818.084	-0.11
818.255	0.25
818.426	-0.28
818.598	0.23
818.769	-0.55
818.941	0.18
819.112	0.49
819.283	-0.15
819.455	-0.22
819.626	0.14
819.798	-0.08
819.969	0.17
820.14	-0.27
820.311	-0.19
820.483	-0.2
820.654	0.36
820.825	0.03
820.996	0.09
821.168	-0.2
821.339	0.13
821.51	-0.19
821.681	-0.02
821.852	-0.01
822.023	-0.77
822.195	-0.21
822.366	0.42
822.537	0.1
822.708	0.17
822.879	-0.53
823.05	0.55
823.221	0.06
823.392	0.24
823.563	-0.03
823.734	0.07
823.905	-0.03
824.076	-0.63
824.247	-0.78
824.418	-0.34
824.589	0.6
824.759	-0.17
824.93	-0.19
825.101	-0.51
825.272	0.12
825.443	0.16
825.614	-0.19
825.784	-0.95
825.955	0.73
826.126	0.24
826.297	-0.33
826.467	0.69
826.638	0.85
826.809	-1.09
826.98	-0.02
827.15	0.47
827.321	0.3
827.492	1.2
827.662	0.45
827.833	1.28
828.003	0.73
828.174	-0.72
828.345	-0.57
828.515	0.42
828.686	0.53
828.856	-0.27
829.027	-0.28
829.197	0.43
829.368	0.47
829.538	-0.58
829.709	0.3
829.879	0.14
830.049	0.12
830.22	-0.33
830.39	-0.14
830.56	0.32
830.731	-0.27
830.901	-0.15
831.072	-0.53
831.242	0.25
831.412	0.16
831.582	0.22
831.753	-0.96
831.923	0.23
832.093	0.31
832.263	-0.12
832.434	-0.55
832.604	0.01
832.774	0.25
832.944	0.15
833.114	-0.84
833.284	0.1
833.454	-0.67
833.624	-0.57
833.795	-0.04
833.965	0.87
834.135	0.69
834.305	-0.84
834.475	-1.34
834.645	0.14
834.815	-0.2
834.985	-0.75
835.155	-0.79
835.325	-0.35
835.494	0.89
835.664	-0.2
835.834	-0.93
836.004	-0.35
836.174	-0.04
836.344	-0.12
836.514	-0.86
836.684	-0.04
836.853	0.5
837.023	0.26
837.193	-0.58
837.363	0.56
837.532	0.6
837.702	-0.7
837.872	-0.56
838.041	0.69
838.211	1.18
838.381	-0.87
838.55	0.04
838.72	1.17
838.89	1
839.059	-0.32
839.229	-0.71
839.398	1.32
839.568	0.12
839.738	-0.56
839.907	0.85
840.077	0.32
840.246	-0.49
840.416	-0.95
840.585	-1.05
840.755	0.94
840.924	0.61
841.093	-0.61
841.263	-0.04
841.432	0.98
841.602	-1.39
841.771	-0.42
841.94	0.39
842.11	1.93
842.279	1.39
842.448	-0.6
842.617	-0.37
842.787	1.73
842.956	-1.65
843.125	-0.56
843.294	-0.1
843.464	0.34
843.633	0.52
843.802	-0.31
843.971	0.14
844.14	0.39
844.309	0.67
844.479	-1.32
844.648	-0.64
844.817	-0.87
844.986	-0.16
845.155	-0.4
845.324	0.06
845.493	0.26
845.662	-1.01
845.831	0.32
846	0.19
846.169	-0.14
846.338	0.96
846.507	-0.23
846.676	0.09
846.844	-0.22
847.013	0.2
847.182	-0.49
847.351	-1.46
847.52	-0.53
847.689	0.74
847.858	-0.72
848.026	-0.56
848.195	-0.33
848.364	-0.69
848.533	-0.71
848.701	-0.88
848.87	0.09
849.039	0.27
849.207	-0.06
849.376	2.35
849.545	0.94
849.713	-0.87
849.882	0.33
850.051	-0.7
850.219	-0.15
850.388	0.53
850.556	-0.55
850.725	-0.91
850.893	0.33
851.062	-0.25
851.23	0.56
851.399	-1
851.567	0.32
851.736	-0.09
851.904	-0.51
852.073	-0.93
852.241	0.79
852.41	-0.43
852.578	-0.92
852.746	-0.85
852.915	0.9
853.083	-0.18
853.251	-0.57
853.42	-0.73
853.588	0.23
853.756	1.6
853.924	0.33
854.093	0.46
854.261	-0.26
854.429	-1.53
854.597	0.13
854.765	-1.27
854.934	0.32
855.102	0.86
855.27	-0.3
855.438	-1.37
855.606	1.58
855.774	1.42
855.942	-0.88
856.11	-1.89
856.278	0.82
856.446	0.75
856.614	-0.32
856.782	-0.79
856.95	0.9
857.118	0.35
857.286	-0.09
857.454	-1.63
857.622	1.18
857.79	-0.02
857.958	-1.42
858.126	-1.28
858.294	-3.53
858.462	0.38
858.629	0.15
858.797	-1.19
858.965	0.02
859.133	-0.52
859.301	-0.92
859.468	-0.23
859.636	-0.64
859.804	2.33
859.971	1.28
860.139	-1.02
860.307	1.54
860.474	-0.25
860.642	-1
860.81	-2.29
860.977	-1.67
861.145	1.21
861.313	-0.58
861.48	0.03
861.648	1.67
861.815	-0.13
861.983	-1.36
862.15	-2
862.318	0.31
862.485	0.85
862.653	0.19
862.82	-0.76
862.988	0.84
863.155	0.13
863.322	-1.49
863.49	-1.16
863.657	-0.85
863.824	0.94
863.992	0.59
864.159	-0.22
864.326	0.95
864.494	-1.07
864.661	2.11
864.828	-1.26
864.996	1.28
865.163	2.19
865.33	-1.73
865.497	-2.17
865.664	-1.17
865.832	-2.11
865.999	-0.68
866.166	-0.9
866.333	-2.42
866.5	-1.85
866.667	-0.11
866.834	-1.21
867.001	1.3
867.168	-1.82
867.335	-0.79
867.502	-2.17
867.669	0.66
867.836	1.38
868.003	0.81
868.17	1.05
868.337	3.3
868.504	2.28
868.671	-2.16
868.838	-1.05
869.005	0.42
869.172	-0.13
869.339	0.34
869.505	-0.72
869.672	0.21
869.839	2.67
870.006	0.46
870.173	-0.86
870.339	0.4
870.506	1.55
870.673	-1.59
870.84	0.91
871.006	0.15
871.173	0.45
871.34	0.28
871.506	-2.29
871.673	-0.46
871.839	-1.76
872.006	-0.5
872.173	-1.62
872.339	0.45
872.506	0.88
872.672	-0.79
872.839	-3.22
873.005	0.01
873.172	5.09
873.338	0.64
873.505	-0.09
873.671	1.44
873.838	-0.03
874.004	-1.93
874.171	-1.82
874.337	0.45
874.503	2.14
874.67	-0.22
874.836	0.3
875.002	0.42
875.169	1.05
875.335	-0.57
875.501	-2.11
875.668	1.84
875.834	-0.03
876	-2.57
876.166	0.65
876.332	1.53
876.499	2.7
876.665	-0.81
876.831	-0.27
876.997	3.92
877.163	0.93
877.329	-0.72
877.495	-0.07
877.662	0.15
877.828	0.41
877.994	1.19
878.16	-3.36
878.326	-0.99
878.492	-0.42
878.658	-1.03
878.824	-0.42
878.99	-0.07
879.156	-2.51
879.322	2.17
879.487	-1.69
879.653	0.38
879.819	0.79
879.985	-1.09
880.151	-1.04
880.317	1.11
880.483	-0.66
880.648	1.93
880.814	-2.59
880.98	1.19
881.146	-0.86
881.312	-0.97
881.477	-0.07
881.643	-2.13
881.809	-1.27
881.974	1.55
882.14	-3.28
882.306	-1.12
882.471	2.81
882.637	-2.08
882.803	0.36
882.968	2.57
883.134	2.49
883.299	0.77
883.465	-1.3
883.63	1.35
883.796	1.95
883.961	0.82
884.127	0.62
884.292	-4.46
884.458	-3.24
884.623	-3.24
