Data from Apollo_Calib_20240827__AbsoluteIrradiance__187__02-16-02-238.txt Node

Date: Wed Aug 28 02:16:02 BST 2024
User: biology
Spectrometer: FLMT08252
Trigger mode: 0
Integration Time (sec): 5.000000E-1
Scans to average: 5
Electric dark correction enabled: true
Nonlinearity correction enabled: false
Boxcar width: 0
XAxis mode: Wavelengths
Number of Pixels in Spectrum: 3648
>>>>>Begin Spectral Data<<<<<
179.588	-0
179.809	-0
180.03	-0
180.251	-0
180.473	-0
180.694	0
180.915	0
181.136	-0
181.357	0
181.578	-0
181.799	-0
182.02	-0
182.241	0
182.462	-0
182.683	0
182.904	-0
183.125	-0
183.346	0
183.567	0
183.788	-0
184.009	-0
184.23	0
184.451	0
184.672	-0
184.892	-0
185.113	0
185.334	0
185.555	-0
185.776	0
185.996	0
186.217	0
186.438	0
186.659	-0
186.879	0
187.1	0
187.321	-0
187.541	-0
187.762	0
187.983	0
188.203	0
188.424	-0
188.644	0
188.865	0
189.086	-0
189.306	-0
189.527	0
189.747	0
189.968	-0
190.188	0
190.409	0
190.629	0
190.849	-0
191.07	-0
191.29	0
191.511	0
191.731	-0
191.951	-0
192.172	-0
192.392	0
192.612	-0
192.833	-0
193.053	0
193.273	0
193.493	-0
193.714	-0
193.934	0
194.154	0
194.374	0
194.594	0
194.815	-0
195.035	0
195.255	-0
195.475	-0
195.695	0
195.915	0
196.135	-0
196.355	0
196.575	0
196.795	0
197.015	-0
197.235	-0
197.455	-0
197.675	0
197.895	-0
198.115	-0
198.335	0
198.555	-0
198.775	0
198.995	0
199.214	0
199.434	-0
199.654	-0
199.874	0
200.094	1.35
200.313	0.04
200.533	-0.71
200.753	-0.72
200.973	0.99
201.192	0.32
201.412	-0.61
201.632	-0.36
201.851	1
202.071	-0.49
202.291	-0.51
202.51	-0.44
202.73	0.43
202.95	-0.15
203.169	-0.41
203.389	-0.05
203.608	-0.09
203.828	-0.75
204.047	0.18
204.267	0.25
204.486	-0.17
204.706	0.58
204.925	-0.08
205.145	-0.31
205.364	0.28
205.583	0.63
205.803	0.05
206.022	-0.61
206.242	0.16
206.461	-0.11
206.68	-0.39
206.9	0.2
207.119	0.55
207.338	0.32
207.557	-0
207.777	-0.1
207.996	-0.02
208.215	0.58
208.434	-0.01
208.654	-0.44
208.873	0.06
209.092	0.88
209.311	-0.02
209.53	-0.28
209.749	-0.07
209.968	-0.33
210.187	-0.06
210.407	-0.37
210.626	-0.04
210.845	0.36
211.064	-0.02
211.283	-0.31
211.502	0.35
211.721	0.23
211.94	-0.11
212.159	0.32
212.377	0.4
212.596	0.52
212.815	-0.1
213.034	0.19
213.253	0.23
213.472	0.13
213.691	-0.07
213.91	-0.07
214.128	-0.1
214.347	0.48
214.566	-0.41
214.785	-0.32
215.003	0.24
215.222	0.05
215.441	-0.03
215.66	-0.14
215.878	0.02
216.097	0.19
216.316	-0.45
216.534	-0.11
216.753	0.07
216.972	-0.23
217.19	-0.06
217.409	-0.22
217.627	0.03
217.846	0.11
218.064	-0.07
218.283	-0.24
218.501	0.67
218.72	0.3
218.938	-0.17
219.157	-0.04
219.375	0.28
219.594	0.07
219.812	-0.2
220.031	-0.15
220.249	0.29
220.467	0.36
220.686	-0.06
220.904	-0.19
221.122	-0.11
221.341	0.32
221.559	0
221.777	-0.28
221.995	0.07
222.214	0.08
222.432	-0
222.65	0.13
222.868	0.12
223.086	0.14
223.305	0.15
223.523	-0.06
223.741	0.17
223.959	0.1
224.177	-0.16
224.395	-0.15
224.613	0.1
224.831	0.26
225.049	-0.1
225.267	-0.03
225.485	0.03
225.703	0.13
225.921	0.06
226.139	-0.06
226.357	0.17
226.575	0.1
226.793	-0.05
227.011	0.49
227.229	0.11
227.447	0.16
227.665	-0.03
227.883	-0.3
228.1	0.06
228.318	0.07
228.536	-0.29
228.754	-0.11
228.972	0.09
229.189	0.2
229.407	-0.18
229.625	-0.08
229.843	0.23
230.06	0.14
230.278	-0.19
230.496	-0.03
230.713	0.05
230.931	0.22
231.149	-0.16
231.366	-0.22
231.584	0.02
231.801	0.45
232.019	0.01
232.236	-0.22
232.454	-0.05
232.671	0.12
232.889	-0.03
233.106	-0.09
233.324	0.09
233.541	-0.03
233.759	0.13
233.976	-0.09
234.194	0.02
234.411	0.11
234.628	-0.11
234.846	-0.01
235.063	-0
235.28	0.09
235.498	-0.04
235.715	-0.09
235.932	0.08
236.149	-0.02
236.367	-0.1
236.584	0.1
236.801	-0.02
237.018	0.15
237.236	0.03
237.453	-0.08
237.67	0.24
237.887	-0.05
238.104	0.01
238.321	-0.11
238.538	-0.03
238.755	0.15
238.973	-0.18
239.19	-0.01
239.407	0.06
239.624	-0.06
239.841	-0.16
240.058	-0.1
240.275	0.12
240.492	0.14
240.709	-0.02
240.925	-0.04
241.142	0.01
241.359	-0.06
241.576	-0.11
241.793	-0.04
242.01	-0.02
242.227	0.2
242.444	-0.03
242.66	0.03
242.877	0.15
243.094	-0.07
243.311	0.02
243.527	-0.13
243.744	0.07
243.961	0.07
244.178	-0
244.394	0.02
244.611	0.04
244.828	0.25
245.044	-0.02
245.261	0.03
245.477	0.01
245.694	0.01
245.911	-0.03
246.127	0.01
246.344	0.21
246.56	0.06
246.777	-0.04
246.993	0.03
247.21	0.01
247.426	0.11
247.643	-0.07
247.859	0
248.076	-0.03
248.292	0.21
248.508	-0
248.725	0.02
248.941	0.08
249.157	0.21
249.374	-0.04
249.59	0
249.806	0.01
250.023	0.2
250.239	-0.05
250.455	-0.11
250.671	0.01
250.888	-0
251.104	0.06
251.32	-0.04
251.536	-0.02
251.752	0.03
251.969	0.07
252.185	0.03
252.401	0.27
252.617	0.04
252.833	-0.09
253.049	0.05
253.265	0.02
253.481	0.06
253.697	-0.02
253.913	-0.05
254.129	-0
254.345	0.01
254.561	0
254.777	0.01
254.993	0.13
255.209	0.02
255.425	-0.03
255.641	-0.03
255.857	0.12
256.073	0
256.288	-0.11
256.504	-0.01
256.72	0.09
256.936	0.11
257.152	0.02
257.367	-0.04
257.583	0.02
257.799	0.09
258.015	-0.06
258.23	0
258.446	0.15
258.662	0
258.877	-0.03
259.093	-0.09
259.309	0.04
259.524	0.03
259.74	-0.07
259.955	-0.15
260.171	0.06
260.387	0.07
260.602	0.09
260.818	0.05
261.033	-0.05
261.249	-0.03
261.464	-0.05
261.68	-0.02
261.895	0.06
262.11	0.08
262.326	-0.02
262.541	-0.07
262.757	0.13
262.972	0.04
263.187	-0
263.403	0.03
263.618	0.04
263.833	0.01
264.049	-0.04
264.264	0.03
264.479	0.09
264.694	0.14
264.91	-0.13
265.125	-0.02
265.34	0.09
265.555	0.1
265.77	0.07
265.986	-0.01
266.201	0.08
266.416	0.12
266.631	0.04
266.846	-0.02
267.061	0.05
267.276	0.07
267.491	-0.15
267.706	0.09
267.921	0.06
268.136	0.04
268.351	0.01
268.566	-0.1
268.781	0.16
268.996	0.05
269.211	0
269.426	-0.05
269.641	-0.01
269.856	0.07
270.071	-0.02
270.285	-0.14
270.5	0.07
270.715	0.1
270.93	-0.05
271.145	0.06
271.359	0.09
271.574	-0.06
271.789	0.02
272.004	-0.02
272.218	0.01
272.433	0.08
272.648	-0.05
272.862	0.06
273.077	-0.04
273.292	0.04
273.506	-0.05
273.721	-0.03
273.936	0.07
274.15	0.07
274.365	-0.04
274.579	-0.01
274.794	0.09
275.008	0.12
275.223	-0.04
275.437	0.02
275.652	0.1
275.866	0.07
276.081	0.04
276.295	0.1
276.509	0.06
276.724	0.02
276.938	0
277.153	0.03
277.367	0.08
277.581	-0.04
277.796	0.04
278.01	-0.03
278.224	0.08
278.438	0.1
278.653	-0.04
278.867	0.01
279.081	-0.12
279.295	-0
279.51	0.03
279.724	-0.09
279.938	0.11
280.152	0.07
280.366	-0.03
280.58	0.03
280.794	0.11
281.008	0.09
281.222	0.06
281.437	0.16
281.651	0.08
281.865	0.12
282.079	-0.03
282.293	-0.07
282.507	-0.04
282.721	0.03
282.935	0.04
283.148	-0.1
283.362	0
283.576	0.03
283.79	0.01
284.004	-0.03
284.218	0.07
284.432	0.01
284.646	-0.03
284.859	-0.04
285.073	-0
285.287	0.02
285.501	0.02
285.714	0.04
285.928	0.03
286.142	0.01
286.356	-0.06
286.569	-0.01
286.783	0.1
286.997	0.11
287.21	0.06
287.424	0.02
287.637	-0.01
287.851	0.02
288.065	0.06
288.278	0.03
288.492	0.04
288.705	0.01
288.919	0.04
289.132	-0.04
289.346	0.09
289.559	-0.06
289.773	-0.01
289.986	0.06
290.2	0.06
290.413	0.03
290.626	-0.02
290.84	-0.01
291.053	0.01
291.267	0.09
291.48	0.05
291.693	0
291.906	0.01
292.12	0.02
292.333	-0.01
292.546	0
292.76	0.13
292.973	0.05
293.186	0.03
293.399	-0.01
293.612	0.11
293.826	0.02
294.039	0
294.252	0.04
294.465	0.06
294.678	0.01
294.891	0.04
295.104	-0.01
295.317	-0
295.53	0.08
295.743	0.04
295.956	0.02
296.169	0.05
296.382	0.05
296.595	0.04
296.808	-0.04
297.021	0.1
297.234	0.07
297.447	0.04
297.66	0.04
297.873	0.11
298.086	0.07
298.299	-0
298.511	-0.05
298.724	0.06
298.937	-0.08
299.15	-0.01
299.363	0.01
299.575	0.07
299.788	0.02
300.001	0.01
300.213	-0.09
300.426	-0.01
300.639	-0.03
300.852	-0.01
301.064	0.08
301.277	0.06
301.489	0.04
301.702	0.07
301.915	-0.01
302.127	0.02
302.34	0
302.552	0.03
302.765	-0
302.977	0.07
303.19	0.01
303.402	-0.03
303.615	-0.02
303.827	0.01
304.04	0
304.252	0.06
304.464	0.01
304.677	0.12
304.889	0.02
305.102	-0.03
305.314	-0.01
305.526	0.03
305.739	0.05
305.951	0.01
306.163	0.04
306.375	0.07
306.588	-0
306.8	-0.01
307.012	-0.06
307.224	0.07
307.436	0.04
307.649	-0.08
307.861	0.02
308.073	0.06
308.285	0.02
308.497	-0.03
308.709	0
308.921	0.03
309.133	0.12
309.346	0.04
309.558	0.01
309.77	0.05
309.982	0.07
310.194	0.07
310.406	-0
310.617	0.1
310.829	0.03
311.041	0.04
311.253	0
311.465	0.03
311.677	0.02
311.889	0.06
312.101	-0.01
312.313	0.06
312.524	0.06
312.736	-0.02
312.948	0
313.16	0.11
313.372	0.06
313.583	0.02
313.795	0.02
314.007	0.07
314.218	0.05
314.43	0.02
314.642	0.02
314.853	-0.03
315.065	0.04
315.277	0.02
315.488	0.05
315.7	0.1
315.912	0.1
316.123	0.01
316.335	0.01
316.546	0.08
316.758	-0.01
316.969	-0
317.181	0.01
317.392	0.05
317.604	0.12
317.815	-0.02
318.026	-0.05
318.238	0.04
318.449	0.03
318.661	-0.07
318.872	-0
319.083	-0.01
319.295	0.06
319.506	0.02
319.717	0.03
319.929	0.07
320.14	0
320.351	0.01
320.562	0.04
320.774	0.01
320.985	0.04
321.196	0.02
321.407	-0.03
321.618	0.06
321.829	0.02
322.041	0.05
322.252	0.04
322.463	0.07
322.674	-0
322.885	0.02
323.096	-0.02
323.307	0.03
323.518	0.07
323.729	-0.03
323.94	0.06
324.151	0.04
324.362	0.04
324.573	-0.01
324.784	0.02
324.995	0.05
325.206	0.05
325.417	-0.01
325.628	0
325.838	0.03
326.049	0.05
326.26	0.09
326.471	0
326.682	0.08
326.892	0.02
327.103	-0.04
327.314	-0.03
327.525	0.11
327.735	0
327.946	0
328.157	0.01
328.368	0.07
328.578	0.02
328.789	0.03
328.999	0.01
329.21	0.02
329.421	0.05
329.631	-0
329.842	-0.01
330.052	0.1
330.263	0.07
330.473	0.1
330.684	0.02
330.894	0
331.105	0.08
331.315	0.03
331.526	-0.01
331.736	0.14
331.947	0.03
332.157	-0.02
332.367	-0.04
332.578	0.09
332.788	0.08
332.999	0.06
333.209	0.04
333.419	-0.04
333.629	0.02
333.84	0.07
334.05	0.02
334.26	0.07
334.47	0.03
334.681	0.11
334.891	0
335.101	0.09
335.311	0.08
335.521	0.07
335.732	-0.02
335.942	0.11
336.152	0.04
336.362	0.06
336.572	0.02
336.782	0.07
336.992	0.02
337.202	0.01
337.412	-0.03
337.622	0.04
337.832	0.05
338.042	0.02
338.252	0.04
338.462	0.04
338.672	0.06
338.882	0.01
339.092	0.01
339.302	0.11
339.511	0.05
339.721	-0.02
339.931	0
340.141	0.06
340.351	0.07
340.561	0.08
340.77	0.07
340.98	0.08
341.19	0.07
341.4	-0.02
341.609	0.01
341.819	0.01
342.029	-0.02
342.238	0.06
342.448	0.03
342.658	0.03
342.867	0
343.077	0.05
343.286	0.05
343.496	0.08
343.706	0.1
343.915	-0.02
344.125	0.04
344.334	0.09
344.544	-0
344.753	0.01
344.963	0.01
345.172	-0
345.381	-0
345.591	-0.04
345.8	0.05
346.01	0.09
346.219	0.06
346.428	-0.08
346.638	0.05
346.847	0.03
347.056	0.14
347.266	0.02
347.475	0.05
347.684	0.07
347.893	0.09
348.103	0.04
348.312	0.06
348.521	0.01
348.73	0.06
348.94	0.04
349.149	0.02
349.358	0.02
349.567	0.03
349.776	-0.04
349.985	-0.01
350.194	0.06
350.403	0.04
350.612	-0.02
350.821	0.02
351.03	0.07
351.239	0.02
351.448	0.04
351.657	-0.02
351.866	0.1
352.075	0.06
352.284	0.1
352.493	-0.01
352.702	0.09
352.911	0.07
353.12	0.06
353.329	0.01
353.538	0.05
353.746	0.04
353.955	-0.01
354.164	0.04
354.373	0.02
354.582	0.05
354.79	0.02
354.999	0.09
355.208	0.05
355.416	0.12
355.625	0.02
355.834	0.01
356.042	0.03
356.251	0.03
356.46	-0.02
356.668	0.03
356.877	0.1
357.085	0.05
357.294	-0.01
357.503	0.07
357.711	0.07
357.92	0.15
358.128	0.05
358.337	0.02
358.545	0.07
358.754	0.04
358.962	0.04
359.17	0.05
359.379	0.05
359.587	0.05
359.796	0.05
360.004	0.08
360.212	0.1
360.421	0.07
360.629	0.03
360.837	0.07
361.046	0.08
361.254	0.18
361.462	0.04
361.67	0.02
361.879	0.08
362.087	0.11
362.295	0.07
362.503	0
362.711	-0.02
362.92	0.03
363.128	0.03
363.336	-0.01
363.544	-0.01
363.752	0.03
363.96	0.06
364.168	0.03
364.376	0.02
364.584	0.04
364.792	0.05
365	0.07
365.208	0.05
365.416	0.05
365.624	0.08
365.832	0.02
366.04	0.08
366.248	0.08
366.456	0.08
366.664	0.05
366.872	0.07
367.079	0.01
367.287	0.07
367.495	0.07
367.703	0.04
367.911	0.04
368.118	0.06
368.326	0.03
368.534	0.03
368.742	0.14
368.949	-0.03
369.157	0.03
369.365	0.04
369.572	0.05
369.78	0
369.988	0.07
370.195	0.09
370.403	0.09
370.61	0.03
370.818	0.1
371.026	0.1
371.233	0.02
371.441	0.06
371.648	0.04
371.856	0.07
372.063	0.05
372.271	0.07
372.478	0.01
372.685	-0
372.893	0.08
373.1	0.05
373.308	0.04
373.515	0.1
373.722	0.06
373.93	0.02
374.137	0.08
374.344	0.15
374.552	0.1
374.759	0.05
374.966	0.11
375.173	0.06
375.381	0.1
375.588	0.05
375.795	0.01
376.002	0.04
376.209	0.09
376.417	0.05
376.624	0.11
376.831	0.09
377.038	0.05
377.245	0
377.452	0.05
377.659	0.1
377.866	0.1
378.073	0.04
378.28	0.1
378.487	0.11
378.694	0.12
378.901	0.12
379.108	0.09
379.315	0.15
379.522	0.17
379.729	0.09
379.936	0.08
380.143	0.08
380.35	0.11
380.557	0.07
380.763	0.05
380.97	0.12
381.177	0.14
381.384	0.09
381.591	0.07
381.797	0.15
382.004	0.14
382.211	0.15
382.418	0.11
382.624	0.16
382.831	0.16
383.038	0.15
383.244	0.14
383.451	0.16
383.658	0.16
383.864	0.11
384.071	0.07
384.277	0.26
384.484	0.18
384.69	0.19
384.897	0.17
385.103	0.14
385.31	0.12
385.516	0.14
385.723	0.19
385.929	0.23
386.136	0.21
386.342	0.22
386.549	0.23
386.755	0.29
386.961	0.29
387.168	0.25
387.374	0.28
387.58	0.32
387.787	0.28
387.993	0.35
388.199	0.28
388.406	0.31
388.612	0.35
388.818	0.33
389.024	0.3
389.231	0.43
389.437	0.53
389.643	0.49
389.849	0.43
390.055	0.51
390.261	0.54
390.467	0.6
390.674	0.56
390.88	0.61
391.086	0.65
391.292	0.66
391.498	0.74
391.704	0.79
391.91	0.82
392.116	0.79
392.322	0.77
392.528	0.97
392.734	0.95
392.94	0.99
393.146	1
393.352	1.13
393.557	1.12
393.763	1.14
393.969	1.31
394.175	1.36
394.381	1.41
394.587	1.44
394.792	1.47
394.998	1.63
395.204	1.75
395.41	1.79
395.615	1.9
395.821	2.04
396.027	2.11
396.233	2.24
396.438	2.34
396.644	2.6
396.85	2.63
397.055	2.67
397.261	2.88
397.466	3.04
397.672	3.11
397.878	3.33
398.083	3.4
398.289	3.42
398.494	3.62
398.7	3.89
398.905	3.81
399.111	4.2
399.316	4.16
399.522	4.45
399.727	4.54
399.932	4.78
400.138	4.98
400.343	5.25
400.549	5.28
400.754	5.6
400.959	5.9
401.165	6.23
401.37	6.39
401.575	6.89
401.78	6.97
401.986	7.29
402.191	7.5
402.396	7.88
402.601	8.2
402.807	8.44
403.012	8.62
403.217	9.27
403.422	9.3
403.627	9.76
403.832	10.15
404.037	10.27
404.243	10.39
404.448	10.78
404.653	11.05
404.858	11.42
405.063	11.22
405.268	11.86
405.473	11.86
405.678	12.09
405.883	12.66
406.088	12.64
406.293	12.77
406.498	13.17
406.703	12.84
406.907	13.36
407.112	13.72
407.317	14.07
407.522	14.3
407.727	14.35
407.932	14.54
408.136	14.77
408.341	14.51
408.546	14.62
408.751	14.56
408.956	14.44
409.16	14.7
409.365	14.53
409.57	14.02
409.774	14.06
409.979	13.98
410.184	13.64
410.388	13.39
410.593	13.63
410.798	13.4
411.002	13.42
411.207	13.05
411.411	12.99
411.616	12.44
411.82	12.29
412.025	12
412.229	11.78
412.434	11.48
412.638	11.22
412.843	10.91
413.047	10.58
413.252	10.13
413.456	10.39
413.66	9.88
413.865	9.55
414.069	9.21
414.273	9.15
414.478	8.79
414.682	8.61
414.886	8.41
415.091	8.03
415.295	7.83
415.499	7.7
415.703	7.39
415.908	7.3
416.112	6.99
416.316	7.03
416.52	6.72
416.724	6.49
416.929	6.38
417.133	6.44
417.337	6.02
417.541	6.02
417.745	5.8
417.949	5.75
418.153	5.65
418.357	5.61
418.561	5.55
418.765	5.31
418.969	5.19
419.173	5.17
419.377	5.03
419.581	5.09
419.785	4.87
419.989	4.69
420.193	4.72
420.397	4.54
420.601	4.55
420.804	4.39
421.008	4.22
421.212	4.21
421.416	3.93
421.62	3.84
421.823	3.71
422.027	3.69
422.231	3.51
422.435	3.34
422.638	3.25
422.842	3.17
423.046	3
423.249	3.06
423.453	2.88
423.657	2.87
423.86	2.8
424.064	2.82
424.268	2.73
424.471	2.54
424.675	2.57
424.878	2.48
425.082	2.38
425.285	2.39
425.489	2.28
425.692	2.25
425.896	2.12
426.099	2.11
426.303	2.01
426.506	1.94
426.71	1.97
426.913	2
427.116	1.98
427.32	1.84
427.523	1.74
427.726	1.8
427.93	1.66
428.133	1.75
428.336	1.59
428.54	1.53
428.743	1.62
428.946	1.65
429.149	1.52
429.353	1.49
429.556	1.45
429.759	1.42
429.962	1.33
430.165	1.39
430.368	1.23
430.571	1.22
430.775	1.24
430.978	1.17
431.181	1.13
431.384	1.11
431.587	1.06
431.79	1.11
431.993	1.05
432.196	1.02
432.399	1.05
432.602	1.12
432.805	1
433.008	1.04
433.211	0.93
433.414	1.03
433.616	1.07
433.819	0.99
434.022	0.89
434.225	1.07
434.428	0.94
434.631	1.05
434.833	0.87
435.036	0.87
435.239	0.91
435.442	0.87
435.645	0.83
435.847	0.86
436.05	0.84
436.253	0.82
436.455	0.76
436.658	0.75
436.861	0.83
437.063	0.71
437.266	0.7
437.468	0.75
437.671	0.83
437.874	0.68
438.076	0.62
438.279	0.58
438.481	0.65
438.684	0.63
438.886	0.67
439.089	0.6
439.291	0.65
439.494	0.61
439.696	0.54
439.899	0.55
440.101	0.62
440.303	0.5
440.506	0.63
440.708	0.57
440.91	0.6
441.113	0.49
441.315	0.61
441.517	0.47
441.72	0.58
441.922	0.42
442.124	0.43
442.326	0.5
442.529	0.55
442.731	0.43
442.933	0.55
443.135	0.43
443.337	0.45
443.539	0.41
443.742	0.4
443.944	0.43
444.146	0.37
444.348	0.44
444.55	0.39
444.752	0.37
444.954	0.3
445.156	0.38
445.358	0.33
445.56	0.4
445.762	0.35
445.964	0.33
446.166	0.32
446.368	0.32
446.57	0.42
446.772	0.29
446.974	0.3
447.175	0.33
447.377	0.25
447.579	0.23
447.781	0.18
447.983	0.36
448.184	0.3
448.386	0.31
448.588	0.19
448.79	0.32
448.991	0.25
449.193	0.26
449.395	0.24
449.597	0.29
449.798	0.28
450	0.28
450.202	0.23
450.403	0.27
450.605	0.27
450.806	0.24
451.008	0.15
451.21	0.25
451.411	0.23
451.613	0.21
451.814	0.22
452.016	0.29
452.217	0.24
452.419	0.25
452.62	0.21
452.821	0.25
453.023	0.3
453.224	0.28
453.426	0.2
453.627	0.2
453.828	0.26
454.03	0.19
454.231	0.26
454.432	0.22
454.634	0.26
454.835	0.13
455.036	0.18
455.238	0.24
455.439	0.34
455.64	0.14
455.841	0.17
456.042	0.32
456.244	0.22
456.445	0.15
456.646	0.12
456.847	0.21
457.048	0.23
457.249	0.28
457.45	0.42
457.651	0.15
457.852	0.26
458.054	0.2
458.255	0.17
458.456	0.24
458.657	0.22
458.858	0.18
459.058	0.19
459.259	0.24
459.46	0.22
459.661	0.16
459.862	0.34
460.063	0.15
460.264	0.25
460.465	0.17
460.666	0.3
460.866	0.15
461.067	0.19
461.268	0.17
461.469	0.22
461.67	0.17
461.87	0.18
462.071	0.22
462.272	0.16
462.473	0.22
462.673	0.23
462.874	0.14
463.075	0.24
463.275	0.17
463.476	0.24
463.676	0.21
463.877	0.21
464.078	0.18
464.278	0.23
464.479	0.19
464.679	0.21
464.88	0.23
465.08	0.27
465.281	0.19
465.481	0.17
465.682	0.18
465.882	0.24
466.083	0.2
466.283	0.18
466.483	0.18
466.684	0.09
466.884	0.13
467.085	0.14
467.285	0.2
467.485	0.14
467.686	0.18
467.886	0.09
468.086	0.19
468.286	0.18
468.487	0.22
468.687	0.13
468.887	0.11
469.087	0.19
469.287	0.15
469.488	0.11
469.688	0.17
469.888	0.19
470.088	0.18
470.288	0.22
470.488	0.22
470.688	0.06
470.888	0.14
471.088	0.14
471.288	0.18
471.488	0.19
471.688	0.2
471.888	0.09
472.088	0.18
472.288	0.17
472.488	0.11
472.688	0.1
472.888	0.17
473.088	0.17
473.288	0.15
473.488	0.14
473.688	0.2
473.887	0.15
474.087	0.11
474.287	0.18
474.487	0.14
474.687	0.15
474.886	0.1
475.086	0.11
475.286	0.13
475.486	0.14
475.685	0.14
475.885	0.09
476.085	0.11
476.284	0.11
476.484	0.13
476.684	0.14
476.883	0.19
477.083	0.16
477.282	0.09
477.482	0.17
477.681	0.19
477.881	0.13
478.08	0.07
478.28	0.06
478.479	0.12
478.679	0.18
478.878	0.05
479.078	0.08
479.277	0.09
479.477	0.13
479.676	0.16
479.875	0.11
480.075	0.07
480.274	0.12
480.473	0.11
480.673	0.08
480.872	0.13
481.071	0.08
481.271	0.08
481.47	0.06
481.669	0.04
481.868	0.07
482.067	0.05
482.267	0.08
482.466	0.05
482.665	0.06
482.864	0.03
483.063	0.04
483.262	0.09
483.461	0.16
483.661	0.13
483.86	0.09
484.059	0.08
484.258	0.08
484.457	0.09
484.656	0.06
484.855	0.14
485.054	0.04
485.253	0.06
485.452	0.05
485.651	0.08
485.849	0.07
486.048	0.06
486.247	0.02
486.446	0.09
486.645	0.03
486.844	0.04
487.043	0.06
487.241	0.11
487.44	0.04
487.639	0.1
487.838	0.1
488.037	0.09
488.235	0.13
488.434	0.07
488.633	0.04
488.831	0.1
489.03	0.09
489.229	0.08
489.427	0.06
489.626	0.11
489.825	0.11
490.023	0.07
490.222	0.05
490.42	0.09
490.619	0.08
490.817	0.09
491.016	0.05
491.214	0.08
491.413	0.07
491.611	0.07
491.81	0.05
492.008	0.11
492.207	0.07
492.405	0.07
492.604	0.03
492.802	0.06
493	0.05
493.199	0.07
493.397	0.09
493.595	0.06
493.794	0.06
493.992	0.09
494.19	0.07
494.388	0.08
494.587	0.04
494.785	0.07
494.983	0.05
495.181	0.08
495.379	0.05
495.578	0.05
495.776	0.08
495.974	0.09
496.172	0.06
496.37	0.03
496.568	0.02
496.766	0.04
496.964	0.11
497.162	0.08
497.36	0.04
497.558	0.06
497.756	0.06
497.954	0.06
498.152	0.03
498.35	0.07
498.548	0.06
498.746	0.05
498.944	0.04
499.142	0.03
499.34	0.03
499.538	0.04
499.736	0.04
499.933	0.1
500.131	0.11
500.329	0.04
500.527	0.11
500.725	0.1
500.922	0.07
501.12	0.07
501.318	0.06
501.516	0.04
501.713	0.05
501.911	0.04
502.109	0.04
502.306	0.08
502.504	0.03
502.701	0.04
502.899	0.03
503.097	0.09
503.294	0.06
503.492	0.03
503.689	0.05
503.887	0.06
504.084	0.1
504.282	0.03
504.479	0.02
504.677	0.04
504.874	0.03
505.072	0.06
505.269	0.03
505.466	0.08
505.664	0.05
505.861	0.04
506.059	0.02
506.256	0.08
506.453	0.04
506.651	0.08
506.848	0.06
507.045	0.06
507.242	0.03
507.44	0.04
507.637	0.04
507.834	0.04
508.031	0.07
508.229	0.02
508.426	0.05
508.623	0.07
508.82	0.02
509.017	0.02
509.214	0.04
509.411	0.05
509.608	-0
509.805	0.02
510.003	0
510.2	0.04
510.397	0.06
510.594	0.04
510.791	0
510.988	0.04
511.184	0.06
511.381	0.02
511.578	0.01
511.775	0.07
511.972	0.02
512.169	0.03
512.366	0.02
512.563	0.06
512.76	0.04
512.956	0.05
513.153	0.05
513.35	0.03
513.547	0.02
513.744	-0
513.94	0
514.137	0.04
514.334	0.06
514.53	0.03
514.727	0.04
514.924	0.08
515.12	-0
515.317	-0
515.514	0.01
515.71	-0.02
515.907	0.02
516.103	0.03
516.3	0.05
516.497	0.07
516.693	0.06
516.89	0.06
517.086	0.01
517.283	0.1
517.479	0.03
517.676	0.03
517.872	0.04
518.068	0.05
518.265	0.02
518.461	0.01
518.658	0
518.854	0.04
519.05	0.05
519.247	0.01
519.443	0.06
519.639	0.03
519.836	0.03
520.032	0.03
520.228	0.04
520.424	0.07
520.621	0.05
520.817	0.05
521.013	0.04
521.209	0.04
521.405	0.06
521.601	0.03
521.798	0.02
521.994	0.07
522.19	0.03
522.386	0
522.582	0.01
522.778	0.02
522.974	0
523.17	0.04
523.366	0.02
523.562	0.06
523.758	0.02
523.954	-0
524.15	0.01
524.346	0.05
524.542	0
524.738	0.01
524.934	0.02
525.129	0.03
525.325	0.05
525.521	-0
525.717	0.06
525.913	0.03
526.109	0.05
526.304	0.01
526.5	0.05
526.696	0.05
526.892	0.02
527.087	0.01
527.283	0.02
527.479	0.05
527.674	0.01
527.87	0.02
528.066	0
528.261	0.04
528.457	0.04
528.653	0.01
528.848	0.02
529.044	0.03
529.239	0.01
529.435	0.05
529.63	0.03
529.826	0.07
530.021	0.03
530.217	0.06
530.412	0.01
530.608	-0.01
530.803	0.02
530.999	0.01
531.194	-0.02
531.389	0.04
531.585	-0.01
531.78	0.03
531.975	0.03
532.171	0.04
532.366	0.01
532.561	0.02
532.757	-0.02
532.952	0.01
533.147	0.05
533.342	0.02
533.538	-0
533.733	0.04
533.928	0.01
534.123	0.02
534.318	-0.01
534.513	-0.01
534.709	0.03
534.904	-0.01
535.099	0.01
535.294	0.02
535.489	0.03
535.684	0.01
535.879	-0
536.074	0.02
536.269	-0.01
536.464	0.03
536.659	0.03
536.854	0.03
537.049	0.03
537.244	0
537.439	0.03
537.634	0.05
537.828	0.03
538.023	-0
538.218	0
538.413	0
538.608	-0.02
538.803	0.03
538.997	-0.01
539.192	0.03
539.387	0.04
539.582	0.03
539.776	0.04
539.971	-0.02
540.166	0.02
540.36	-0.02
540.555	0.03
540.75	0.01
540.944	0.01
541.139	-0.03
541.334	0.01
541.528	0.03
541.723	0.05
541.917	-0
542.112	-0.02
542.306	-0.01
542.501	0.01
542.695	0.02
542.89	0.01
543.084	0.02
543.279	0.02
543.473	0.02
543.668	0.02
543.862	0.03
544.056	0.05
544.251	0
544.445	0.01
544.64	0.01
544.834	-0
545.028	0.01
545.222	0.02
545.417	0.07
545.611	0.01
545.805	0.01
546	0.03
546.194	0.01
546.388	0
546.582	0.03
546.776	0
546.97	0.03
547.165	0.03
547.359	0.03
547.553	0
547.747	0.03
547.941	0.01
548.135	-0.01
548.329	0.02
548.523	0.01
548.717	0.01
548.911	-0.01
549.105	0.01
549.299	0.02
549.493	0.02
549.687	0.03
549.881	0.03
550.075	-0
550.269	-0.01
550.463	0.02
550.657	-0
550.85	0.02
551.044	-0.01
551.238	0.04
551.432	-0.01
551.626	-0.02
551.82	0.03
552.013	0
552.207	0.01
552.401	0.04
552.594	0.01
552.788	0.02
552.982	0.03
553.176	-0
553.369	0.01
553.563	0.03
553.756	-0.03
553.95	-0.03
554.144	-0.01
554.337	0.04
554.531	0.02
554.724	0.01
554.918	0
555.111	0.06
555.305	0.02
555.498	0.07
555.692	0.04
555.885	0.01
556.079	0.02
556.272	-0.01
556.466	0.03
556.659	0.01
556.852	0
557.046	-0.01
557.239	0.05
557.432	0
557.626	0
557.819	-0
558.012	0.03
558.206	0.01
558.399	0.02
558.592	0.02
558.785	-0.01
558.979	0.02
559.172	0.02
559.365	0.04
559.558	0.02
559.751	-0.01
559.944	0.03
560.138	-0
560.331	-0.01
560.524	-0.02
560.717	-0
560.91	0.02
561.103	0.04
561.296	0.02
561.489	0.03
561.682	0.03
561.875	0.06
562.068	0.05
562.261	0.04
562.454	0.04
562.647	0.03
562.84	0.03
563.032	0.01
563.225	0.01
563.418	0
563.611	-0.01
563.804	-0
563.997	-0.02
564.19	-0.03
564.382	0.01
564.575	0
564.768	0.01
564.961	0.01
565.153	-0.01
565.346	0.03
565.539	0.03
565.731	0.04
565.924	0.04
566.117	0.03
566.309	0.01
566.502	-0.01
566.695	-0
566.887	-0.01
567.08	0.01
567.272	-0
567.465	-0
567.657	0.02
567.85	0.03
568.042	0.04
568.235	0.01
568.427	0.02
568.62	0.02
568.812	0.05
569.005	0.01
569.197	-0.03
569.389	0.02
569.582	0
569.774	-0
569.966	-0.02
570.159	-0.03
570.351	0.04
570.543	-0.01
570.736	0.02
570.928	0.01
571.12	-0.01
571.312	-0.01
571.505	-0.04
571.697	0.04
571.889	-0.02
572.081	-0.01
572.273	-0.02
572.465	0.05
572.658	0
572.85	0.02
573.042	0
573.234	0
573.426	0.05
573.618	-0.04
573.81	0
574.002	0.07
574.194	0.06
574.386	-0.02
574.578	-0.05
574.77	-0.02
574.962	0.01
575.154	-0.04
575.346	-0.01
575.538	0.01
575.729	-0.01
575.921	-0
576.113	0.02
576.305	0.04
576.497	-0
576.689	0.02
576.88	-0.02
577.072	0.04
577.264	0.01
577.456	-0.01
577.647	-0.04
577.839	0.01
578.031	0.05
578.223	-0.03
578.414	-0.02
578.606	0.04
578.798	0.01
578.989	0.01
579.181	0.01
579.372	0.02
579.564	-0
579.755	0.02
579.947	0.01
580.139	0.01
580.33	-0.04
580.522	-0.01
580.713	-0.05
580.905	-0.01
581.096	0.03
581.287	0.01
581.479	0
581.67	0.04
581.862	-0.01
582.053	-0.01
582.244	-0.03
582.436	-0.02
582.627	0.03
582.818	-0.02
583.01	-0.02
583.201	0.01
583.392	0.03
583.583	0
583.775	-0.01
583.966	-0.02
584.157	-0
584.348	-0.01
584.54	-0.04
584.731	0.02
584.922	0.01
585.113	0
585.304	0.05
585.495	0.04
585.686	0.02
585.877	-0.01
586.068	0
586.259	0.01
586.45	0.03
586.641	-0.02
586.832	-0.08
587.023	0.02
587.214	-0
587.405	0.02
587.596	-0.02
587.787	0.04
587.978	0.02
588.169	-0.03
588.36	-0.01
588.551	0
588.742	-0.01
588.932	0.02
589.123	0
589.314	0.01
589.505	0.01
589.696	0.01
589.886	-0.01
590.077	-0.03
590.268	0.02
590.458	-0.05
590.649	-0.05
590.84	0.04
591.03	-0
591.221	-0.02
591.412	-0.04
591.602	0.03
591.793	0.06
591.984	-0.05
592.174	-0.02
592.365	0.05
592.555	-0.05
592.746	0.03
592.936	0.02
593.127	0.02
593.317	0.04
593.508	-0.04
593.698	-0.02
593.889	0.03
594.079	0.01
594.269	-0.02
594.46	0
594.65	0.01
594.84	0.02
595.031	-0.03
595.221	0.01
595.411	-0.03
595.602	0.03
595.792	-0.02
595.982	-0.02
596.172	0.06
596.363	-0.01
596.553	0.01
596.743	-0
596.933	0
597.123	0.05
597.314	0.01
597.504	-0.03
597.694	0.05
597.884	0.02
598.074	-0.01
598.264	-0.02
598.454	0.04
598.644	0.01
598.834	-0.02
599.024	-0.05
599.214	-0.02
599.404	0.01
599.594	0
599.784	-0.03
599.974	0.1
600.164	0.01
600.354	-0.02
600.544	-0.02
600.734	-0.02
600.924	0.01
601.114	-0.01
601.303	0.01
601.493	0.02
601.683	-0
601.873	0
602.063	-0.06
602.252	0.03
602.442	-0.03
602.632	-0.04
602.821	-0.02
603.011	0.01
603.201	-0.02
603.39	0
603.58	-0.03
603.77	0.02
603.959	0.04
604.149	0.02
604.339	-0.02
604.528	0.06
604.718	0.02
604.907	-0.02
605.097	-0
605.286	-0.02
605.476	0.05
605.665	0.03
605.855	0.01
606.044	0.03
606.234	0.03
606.423	-0
606.612	-0.06
606.802	-0
606.991	0.03
607.181	0.01
607.37	-0.04
607.559	0
607.749	-0.04
607.938	0.01
608.127	-0
608.316	-0.02
608.506	0.02
608.695	0.02
608.884	-0.02
609.073	0.02
609.263	0.01
609.452	0.02
609.641	0.02
609.83	-0.03
610.019	0.01
610.208	-0.03
610.397	0.01
610.586	0.02
610.775	-0.02
610.965	-0.01
611.154	-0.01
611.343	0.02
611.532	0.02
611.721	-0.03
611.91	-0.05
612.099	0.01
612.287	0.04
612.476	-0.03
612.665	0
612.854	-0.01
613.043	0.04
613.232	-0
613.421	-0.04
613.61	0
613.798	-0.04
613.987	0.01
614.176	-0.01
614.365	0.03
614.554	0.01
614.742	0.01
614.931	-0.02
615.12	0.04
615.309	0
615.497	0.02
615.686	-0
615.875	0
616.063	0
616.252	-0.02
616.44	-0.03
616.629	0
616.818	0.03
617.006	-0.01
617.195	-0
617.383	-0.02
617.572	0.01
617.76	-0.02
617.949	-0.01
618.137	0.01
618.326	0.05
618.514	-0.04
618.703	-0.05
618.891	0.07
619.079	-0.04
619.268	0.04
619.456	-0.02
619.644	0.03
619.833	0
620.021	-0.03
620.209	-0.07
620.398	0.03
620.586	-0
620.774	0.01
620.962	0
621.151	0
621.339	0.01
621.527	-0.02
621.715	-0.07
621.903	-0.02
622.092	-0.03
622.28	0.01
622.468	-0.02
622.656	-0.03
622.844	0.02
623.032	-0.02
623.22	-0.09
623.408	0.01
623.596	0.01
623.784	0.03
623.972	-0.03
624.16	-0
624.348	0.05
624.536	-0.01
624.724	-0.01
624.912	0.03
625.1	0.01
625.288	-0.03
625.476	-0.04
625.664	0.03
625.851	-0.04
626.039	-0.01
626.227	-0.03
626.415	-0.01
626.603	-0.06
626.79	-0.01
626.978	-0.01
627.166	0.01
627.354	0.03
627.541	-0.04
627.729	-0.09
627.917	0.02
628.104	0.03
628.292	0.02
628.48	-0.01
628.667	-0.01
628.855	0
629.042	0
629.23	-0.01
629.418	0.01
629.605	-0.02
629.793	-0.01
629.98	-0.02
630.168	-0.01
630.355	0.02
630.543	0.01
630.73	-0.04
630.917	0
631.105	0.07
631.292	-0.04
631.48	0.01
631.667	0.08
631.854	-0
632.042	-0.01
632.229	-0.05
632.416	-0.01
632.604	-0
632.791	-0.03
632.978	-0
633.165	-0.01
633.353	0.07
633.54	0.05
633.727	-0.08
633.914	-0.03
634.101	-0.06
634.289	0.03
634.476	-0.05
634.663	-0.04
634.85	0
635.037	-0.03
635.224	-0.06
635.411	0.04
635.598	0.02
635.785	-0
635.972	-0.02
636.159	0.01
636.346	-0.06
636.533	-0
636.72	-0.03
636.907	-0.03
637.094	0.01
637.281	-0.05
637.468	0.02
637.655	-0.02
637.842	-0.01
638.029	-0.06
638.215	0.05
638.402	0.04
638.589	-0.03
638.776	-0.03
638.963	-0.05
639.149	0.04
639.336	0.05
639.523	-0.01
639.709	-0
639.896	-0.02
640.083	0.04
640.27	0.02
640.456	-0.05
640.643	0.02
640.829	-0.04
641.016	-0.04
641.203	-0.04
641.389	-0.01
641.576	0.02
641.762	-0.02
641.949	-0.02
642.135	0.01
642.322	0.01
642.508	-0.06
642.695	0
642.881	-0.01
643.068	-0.01
643.254	-0.04
643.441	0.03
643.627	-0
643.813	-0.02
644	0.03
644.186	-0.03
644.372	0.02
644.559	0.02
644.745	-0.02
644.931	-0.05
645.118	0
645.304	0.01
645.49	-0.01
645.676	-0.03
645.862	-0
646.049	0.04
646.235	0.01
646.421	0.06
646.607	0.05
646.793	-0.02
646.979	-0.04
647.165	-0
647.352	0.01
647.538	0.03
647.724	-0
647.91	-0.02
648.096	0.02
648.282	0.02
648.468	-0.02
648.654	0.01
648.84	-0.01
649.026	0.01
649.212	0.03
649.397	-0.02
649.583	-0.06
649.769	0.01
649.955	-0.02
650.141	0.01
650.327	0.1
650.513	-0.03
650.698	0.02
650.884	-0.09
651.07	0.02
651.256	0.02
651.442	-0.01
651.627	-0.01
651.813	-0.02
651.999	0
652.184	0.01
652.37	-0.01
652.556	-0.02
652.741	0.06
652.927	-0.07
653.113	-0.01
653.298	-0
653.484	-0.01
653.669	-0.06
653.855	-0
654.04	0.02
654.226	0.01
654.412	-0.03
654.597	-0.02
654.782	0.01
654.968	0.02
655.153	0.05
655.339	-0.01
655.524	-0.07
655.71	0
655.895	-0.03
656.08	-0.03
656.266	0.04
656.451	0
656.636	-0.06
656.822	-0.01
657.007	-0.04
657.192	0
657.378	-0.05
657.563	-0.03
657.748	0.03
657.933	0.01
658.118	-0.01
658.304	-0.03
658.489	0
658.674	0.01
658.859	-0.08
659.044	0.01
659.229	0.01
659.414	-0
659.599	-0.02
659.785	-0.06
659.97	-0.05
660.155	0.04
660.34	-0
660.525	-0.01
660.71	-0.06
660.895	0.04
661.08	-0.03
661.264	-0.01
661.449	0.07
661.634	0.03
661.819	0.03
662.004	0.01
662.189	-0.08
662.374	-0.05
662.559	-0.07
662.743	-0.07
662.928	0
663.113	-0.04
663.298	-0.08
663.483	-0.04
663.667	-0.01
663.852	-0.06
664.037	0.01
664.221	-0.04
664.406	0.05
664.591	0.04
664.775	0.01
664.96	-0.07
665.145	-0.01
665.329	0.02
665.514	-0.06
665.698	-0.04
665.883	-0.03
666.068	0.04
666.252	0
666.437	-0.08
666.621	-0.02
666.806	0.07
666.99	-0.01
667.174	-0.05
667.359	0.09
667.543	-0
667.728	-0.03
667.912	-0.07
668.096	0.01
668.281	-0.02
668.465	0.01
668.649	0.01
668.834	-0.08
669.018	-0.04
669.202	-0.02
669.387	-0.06
669.571	0.04
669.755	-0.07
669.939	-0.03
670.124	-0
670.308	0
670.492	0.02
670.676	-0
670.86	-0.01
671.044	-0.1
671.228	-0
671.413	-0.03
671.597	-0.03
671.781	-0.05
671.965	0.01
672.149	-0.04
672.333	-0.03
672.517	-0.06
672.701	0.05
672.885	-0.01
673.069	-0.07
673.253	0.02
673.437	-0.02
673.621	-0.08
673.804	0.02
673.988	-0.04
674.172	0.01
674.356	-0.06
674.54	-0.07
674.724	0.08
674.908	-0
675.091	-0.01
675.275	-0.02
675.459	0.04
675.643	-0
675.826	0.03
676.01	-0.01
676.194	-0.03
676.377	0.02
676.561	0.01
676.745	-0
676.928	-0.02
677.112	0.03
677.296	-0.06
677.479	-0.07
677.663	-0.03
677.846	0.02
678.03	-0.03
678.213	0
678.397	0.01
678.58	0.01
678.764	-0.02
678.947	-0.04
679.131	-0.05
679.314	-0.02
679.498	-0.03
679.681	-0.01
679.865	0.07
680.048	-0.02
680.231	-0.05
680.415	-0
680.598	-0.03
680.781	-0.01
680.965	-0.02
681.148	-0.05
681.331	-0.02
681.514	-0.02
681.698	-0.02
681.881	0
682.064	-0
682.247	0.01
682.43	-0.06
682.614	0.04
682.797	0.01
682.98	0.02
683.163	-0.06
683.346	-0.01
683.529	-0.02
683.712	-0.1
683.895	0.02
684.078	-0.09
684.261	-0.03
684.444	-0
684.627	-0.01
684.81	-0.02
684.993	-0.02
685.176	0.02
685.359	-0.05
685.542	-0.02
685.725	0.02
685.908	-0.01
686.091	-0.04
686.274	0.02
686.457	0.01
686.639	-0
686.822	-0
687.005	-0.02
687.188	-0
687.371	0.12
687.553	0.03
687.736	0
687.919	0.07
688.102	0.09
688.284	-0.02
688.467	-0.04
688.65	-0.03
688.832	-0.03
689.015	-0
689.197	-0.06
689.38	0.08
689.563	0.09
689.745	-0.06
689.928	-0.04
690.11	0.01
690.293	0.02
690.475	-0.08
690.658	-0
690.84	-0.01
691.023	-0.05
691.205	0
691.388	-0
691.57	0.03
691.752	0.01
691.935	-0.11
692.117	-0.01
692.3	0.01
692.482	0.03
692.664	0.02
692.847	-0
693.029	0.03
693.211	0.02
693.393	-0.01
693.576	-0.01
693.758	-0.05
693.94	-0.07
694.122	-0
694.304	-0.09
694.487	-0.05
694.669	0.02
694.851	-0.05
695.033	0.01
695.215	-0.07
695.397	-0.01
695.579	0.04
695.761	-0.06
695.943	-0.09
696.125	0.05
696.308	-0.04
696.49	-0.11
696.671	0.12
696.853	-0.01
697.035	0.09
697.217	0.01
697.399	0.07
697.581	-0.07
697.763	0
697.945	-0.08
698.127	-0
698.309	0.05
698.491	-0.01
698.672	0.02
698.854	-0.02
699.036	0.08
699.218	-0.01
699.399	0.01
699.581	0.04
699.763	0.03
699.945	-0.05
700.126	-0.05
700.308	-0.01
700.49	-0.02
700.671	-0.1
700.853	-0.1
701.035	-0.06
701.216	0
701.398	-0.04
701.579	-0.06
701.761	0.04
701.943	-0.04
702.124	-0.09
702.306	-0
702.487	0.07
702.669	-0.02
702.85	-0.05
703.031	-0.07
703.213	0.08
703.394	0.07
703.576	-0.03
703.757	0.04
703.938	0.07
704.12	0.17
704.301	-0.05
704.483	-0
704.664	0.05
704.845	0.09
705.026	0.04
705.208	0.02
705.389	-0.02
705.57	-0.05
705.751	-0.02
705.933	-0.04
706.114	0.07
706.295	-0
706.476	-0.07
706.657	0.07
706.838	0.02
707.02	0.03
707.201	-0.05
707.382	-0.08
707.563	0.02
707.744	-0.04
707.925	-0.1
708.106	-0.09
708.287	0.02
708.468	0.05
708.649	0.02
708.83	0.04
709.011	-0.08
709.192	0.06
709.373	-0.02
709.554	-0.07
709.734	-0
709.915	-0.02
710.096	0.01
710.277	-0.15
710.458	-0.04
710.639	0.05
710.819	-0.04
711	-0.07
711.181	0.05
711.362	0.09
711.542	-0.06
711.723	-0.05
711.904	0.04
712.085	0.04
712.265	-0.01
712.446	-0.12
712.627	-0.01
712.807	-0.01
712.988	0
713.168	-0.1
713.349	0
713.53	-0.15
713.71	-0.09
713.891	-0.05
714.071	0
714.252	-0.07
714.432	-0.04
714.613	-0.1
714.793	-0.06
714.974	0.03
715.154	0.06
715.334	0
715.515	0.07
715.695	-0.08
715.876	-0.07
716.056	-0.06
716.236	-0.06
716.417	-0.07
716.597	-0.09
716.777	0.14
716.957	-0
717.138	0.02
717.318	-0
717.498	-0.11
717.678	-0.04
717.859	0.01
718.039	-0.11
718.219	-0.01
718.399	0.04
718.579	-0.14
718.759	-0.1
718.939	-0.03
719.12	-0
719.3	-0.03
719.48	-0.2
719.66	-0.2
719.84	-0
720.02	0.01
720.2	-0.06
720.38	-0.07
720.56	0.05
720.74	-0.04
720.92	0.03
721.1	0.06
721.279	0.08
721.459	-0.04
721.639	-0.09
721.819	-0.02
721.999	-0.07
722.179	0.09
722.359	-0.13
722.538	-0.02
722.718	0.06
722.898	-0.03
723.078	-0.03
723.257	-0.05
723.437	0.05
723.617	0
723.797	-0.06
723.976	-0.01
724.156	0.03
724.336	0.09
724.515	0.12
724.695	-0.17
724.874	-0.08
725.054	0.05
725.234	-0.09
725.413	0.06
725.593	-0.06
725.772	-0.02
725.952	-0.08
726.131	-0.09
726.311	-0.02
726.49	0.03
726.67	-0.08
726.849	-0.05
727.028	-0.01
727.208	-0.01
727.387	0
727.567	-0.12
727.746	-0.02
727.925	-0.02
728.105	-0.1
728.284	-0.01
728.463	-0.07
728.643	0.01
728.822	-0.16
729.001	-0.09
729.18	-0.02
729.359	0.09
729.539	-0.07
729.718	-0.04
729.897	0.04
730.076	-0.11
730.255	-0.14
730.434	-0.04
730.614	0.02
730.793	0.12
730.972	-0.03
731.151	-0.09
731.33	0.09
731.509	0.04
731.688	0.01
731.867	-0.03
732.046	-0.18
732.225	0.07
732.404	-0.07
732.583	-0.08
732.762	-0.1
732.941	-0.07
733.12	0.03
733.298	-0.07
733.477	0.08
733.656	-0.06
733.835	-0.02
734.014	0.07
734.193	-0.08
734.371	0.01
734.55	-0.09
734.729	-0.16
734.908	0.05
735.086	0.02
735.265	-0.05
735.444	-0.12
735.623	-0.16
735.801	-0.14
735.98	-0.02
736.159	-0.08
736.337	0.05
736.516	-0.05
736.694	0.01
736.873	-0.06
737.052	0.12
737.23	0.14
737.409	-0.09
737.587	0.14
737.766	-0.15
737.944	-0.04
738.123	-0.04
738.301	0
738.479	-0.06
738.658	-0.03
738.836	-0.22
739.015	-0.02
739.193	0.11
739.371	-0.2
739.55	-0.05
739.728	-0.21
739.906	0.12
740.085	0.11
740.263	0.03
740.441	-0.33
740.62	0.16
740.798	0.04
740.976	-0.13
741.154	-0.12
741.332	0.14
741.511	-0.04
741.689	0.03
741.867	0.01
742.045	-0.02
742.223	-0.07
742.401	-0.04
742.579	-0.01
742.757	0.07
742.935	-0.12
743.114	-0.05
743.292	-0.05
743.47	-0.08
743.648	0.02
743.826	-0.02
744.004	-0.04
744.181	0.03
744.359	-0.07
744.537	0.05
744.715	-0.02
744.893	0.02
745.071	0.04
745.249	-0.1
745.427	-0.02
745.605	0.11
745.782	-0.14
745.96	0
746.138	0.15
746.316	0
746.493	-0.07
746.671	-0
746.849	-0.01
747.027	0.04
747.204	-0.19
747.382	-0
747.56	-0.1
747.737	-0.11
747.915	0.03
748.093	-0.02
748.27	-0.14
748.448	-0.07
748.625	-0.22
748.803	-0.13
748.98	-0.06
749.158	-0.04
749.335	0.04
749.513	-0.05
749.69	-0.06
749.868	-0.04
750.045	0.04
750.223	-0.06
750.4	-0.18
750.578	0.22
750.755	0
750.932	-0.2
751.11	0.12
751.287	-0.06
751.464	0.08
751.642	-0.17
751.819	0.04
751.996	-0.05
752.173	-0.11
752.351	-0.03
752.528	-0.02
752.705	-0.05
752.882	-0.06
753.06	0.01
753.237	-0.04
753.414	0.21
753.591	0.15
753.768	0.02
753.945	-0.12
754.122	-0.13
754.299	0.12
754.476	-0.05
754.654	0
754.831	0.03
755.008	-0.02
755.185	-0.03
755.362	-0.2
755.539	-0.02
755.716	-0.06
755.892	-0.04
756.069	-0.07
756.246	-0.01
756.423	0.07
756.6	0.08
756.777	-0.13
756.954	-0.03
757.131	0.01
757.307	-0.15
757.484	-0.13
757.661	0.05
757.838	-0.06
758.015	-0.11
758.191	0.02
758.368	-0.02
758.545	0.15
758.721	0.01
758.898	-0.18
759.075	0.01
759.251	0.11
759.428	0.02
759.605	-0.21
759.781	0.02
759.958	0.04
760.134	-0.06
760.311	-0.2
760.488	0.14
760.664	0.11
760.841	-0.07
761.017	-0.06
761.194	-0.02
761.37	0.08
761.547	0.04
761.723	-0.12
761.899	0.04
762.076	-0.2
762.252	-0.08
762.429	-0.04
762.605	0.02
762.781	0.01
762.958	0.05
763.134	-0.01
763.31	-0.13
763.486	0.17
763.663	-0.17
763.839	0.03
764.015	-0.17
764.191	-0.03
764.368	-0.03
764.544	-0.13
764.72	0.15
764.896	0.1
765.072	-0.04
765.248	-0.15
765.425	-0.07
765.601	0.05
765.777	-0.05
765.953	-0.38
766.129	-0.01
766.305	-0.11
766.481	-0.02
766.657	0.02
766.833	0.26
767.009	-0.24
767.185	-0.03
767.361	-0.14
767.537	-0.31
767.713	0.02
767.889	-0.15
768.065	-0.07
768.24	-0.05
768.416	0.2
768.592	-0.11
768.768	-0.02
768.944	-0.04
769.12	-0.05
769.295	-0.07
769.471	-0.12
769.647	-0.05
769.823	0
769.998	-0.06
770.174	-0.12
770.35	0.26
770.525	0.12
770.701	-0.03
770.877	-0.2
771.052	-0.08
771.228	0.1
771.403	0.13
771.579	-0.05
771.755	0.29
771.93	-0.04
772.106	-0.16
772.281	-0.21
772.457	0.02
772.632	0.01
772.808	-0.21
772.983	-0.09
773.159	-0.15
773.334	0.17
773.509	0.03
773.685	-0.14
773.86	0.3
774.036	0.19
774.211	-0.01
774.386	-0.09
774.562	-0.12
774.737	-0.11
774.912	-0.12
775.087	0.04
775.263	0.07
775.438	-0.11
775.613	-0.14
775.788	-0.07
775.964	0.08
776.139	0.3
776.314	-0.25
776.489	-0.08
776.664	0.06
776.839	-0.23
777.014	0.01
777.19	0.1
777.365	0.18
777.54	0.14
777.715	-0.05
777.89	-0.05
778.065	-0.19
778.24	0.02
778.415	0.09
778.59	-0.24
778.765	-0.08
778.94	-0.03
779.115	-0.16
779.289	-0.03
779.464	-0.05
779.639	-0.07
779.814	-0.25
779.989	-0.37
780.164	0.02
780.339	-0.08
780.513	-0.11
780.688	-0.22
780.863	-0.07
781.038	0.1
781.212	-0.12
781.387	-0.08
781.562	0.38
781.737	0.12
781.911	0.19
782.086	-0.28
782.261	0.05
782.435	0.28
782.61	-0.13
782.784	0.02
782.959	0.16
783.134	-0.01
783.308	-0.45
783.483	-0.24
783.657	0.4
783.832	0.05
784.006	-0.3
784.181	-0.08
784.355	0.14
784.53	0.18
784.704	-0.1
784.878	0.33
785.053	0.02
785.227	0.07
785.402	0.46
785.576	-0.36
785.75	-0.07
785.925	-0.17
786.099	-0.09
786.273	0.24
786.448	0.09
786.622	0.02
786.796	-0.06
786.97	-0.17
787.145	0.34
787.319	-0.19
787.493	-0.4
787.667	-0.37
787.841	-0.19
788.015	0.31
788.19	-0.16
788.364	0.01
788.538	0.15
788.712	0.12
788.886	-0.03
789.06	0.12
789.234	0.13
789.408	-0.42
789.582	-0.14
789.756	-0.07
789.93	0.08
790.104	-0.1
790.278	-0.08
790.452	-0.18
790.626	0.24
790.8	-0.22
790.973	0.24
791.147	0.33
791.321	0.02
791.495	0.25
791.669	0.16
791.843	-0.02
792.016	0.16
792.19	0.44
792.364	-0.22
792.538	0.42
792.711	0.24
792.885	-0.35
793.059	-0.3
793.233	-0.46
793.406	0.07
793.58	0.05
793.754	-0.04
793.927	-0.06
794.101	0.22
794.274	0.13
794.448	0.15
794.622	-0.31
794.795	0.12
794.969	-0.19
795.142	0.38
795.316	-0.11
795.489	-0.37
795.663	0.37
795.836	-0.24
796.009	-0.32
796.183	0.38
796.356	0.11
796.53	0.19
796.703	-0.34
796.876	0.64
797.05	-0.12
797.223	-0.17
797.396	-0.1
797.57	-0.03
797.743	0.18
797.916	0.13
798.09	-0.28
798.263	0.22
798.436	0.21
798.609	0.04
798.782	-0.22
798.956	0.03
799.129	0.04
799.302	-0.09
799.475	-0.18
799.648	-0.48
799.821	-0.39
799.994	-0.12
800.167	-0.55
800.34	-0.2
800.514	0.1
800.687	-0.39
800.86	-0.13
801.033	0.16
801.206	0.08
801.379	-0.15
801.551	0.13
801.724	-0.1
801.897	0.32
802.07	0.18
802.243	-0.15
802.416	-0.07
802.589	-0.24
802.762	-0.24
802.935	-0.07
803.107	0
803.28	0.04
803.453	0.3
803.626	0.03
803.798	-0.1
803.971	-0.43
804.144	0.11
804.317	-0.04
804.489	0.37
804.662	0.02
804.835	-0.1
805.007	-0.53
805.18	0.44
805.353	0.08
805.525	-0.15
805.698	-0.45
805.87	0.2
806.043	0.15
806.215	-0.4
806.388	-0.28
806.56	0.2
806.733	0.36
806.905	0.24
807.078	-0.39
807.25	-0.03
807.423	0.17
807.595	-0.08
807.768	-0.27
807.94	0.06
808.112	0.05
808.285	-0.05
808.457	-0.06
808.629	-0.27
808.802	-0.02
808.974	0.1
809.146	-0.43
809.318	-0.62
809.491	-0.02
809.663	-0.09
809.835	-0.37
810.007	0.07
810.18	-0.08
810.352	-0.68
810.524	-0.01
810.696	0.09
810.868	0.17
811.04	-0.23
811.212	-0
811.384	0.17
811.556	-0.06
811.728	-0.12
811.901	0.97
812.073	0.03
812.245	0.11
812.417	-0.36
812.589	-0.52
812.76	-0.26
812.932	0.02
813.104	0.74
813.276	0.07
813.448	0.39
813.62	0.12
813.792	0.21
813.964	-0.21
814.136	0.09
814.307	-0.33
814.479	-0.3
814.651	-0.01
814.823	0.91
814.995	-0.32
815.166	-0.03
815.338	-0.54
815.51	-0.65
815.681	0.92
815.853	-0.05
816.025	-0.19
816.196	0.5
816.368	0.5
816.54	-0.62
816.711	-0.24
816.883	0.3
817.054	0.99
817.226	-0.49
817.398	0.17
817.569	-0.58
817.741	-0.37
817.912	-0.16
818.084	-0.23
818.255	0.44
818.426	-0.42
818.598	-0.43
818.769	-0.33
818.941	0.58
819.112	0.56
819.283	0.17
819.455	-0.55
819.626	0.02
819.798	0.11
819.969	-0.13
820.14	-0.3
820.311	-0.03
820.483	0.11
820.654	0.09
820.825	-0.11
820.996	0.04
821.168	-0.09
821.339	-0.51
821.51	-0.61
821.681	-0.45
821.852	-0.07
822.023	-0.64
822.195	-0.98
822.366	0.39
822.537	-0.23
822.708	-0.07
822.879	-0.25
823.05	0.67
823.221	-0.65
823.392	-0.18
823.563	-0.19
823.734	-0.1
823.905	-0.19
824.076	-0.28
824.247	-0.8
824.418	-0.42
824.589	0.75
824.759	-0.38
824.93	-0.69
825.101	-0.42
825.272	-0.18
825.443	0.3
825.614	0.48
825.784	-1.32
825.955	0.77
826.126	0.26
826.297	0.08
826.467	0.05
826.638	0.94
826.809	-0.77
826.98	0.04
827.15	0.63
827.321	-0.07
827.492	0.61
827.662	0.51
827.833	1.08
828.003	0.67
828.174	-0.5
828.345	-0.65
828.515	0.91
828.686	-0.16
828.856	-0.26
829.027	-0.28
829.197	0.43
829.368	0.41
829.538	-0.24
829.709	-0.43
829.879	0.2
830.049	-0.04
830.22	-0.17
830.39	-0.71
830.56	0.55
830.731	-0.41
830.901	-0.2
831.072	-0.15
831.242	-0.2
831.412	0.12
831.582	-0.6
831.753	-0.52
831.923	-0.08
832.093	-0.12
832.263	-0.65
832.434	-0.53
832.604	0.22
832.774	-0.09
832.944	-0.04
833.114	0.1
833.284	-0.14
833.454	-0.65
833.624	-0.54
833.795	-0.8
833.965	0.72
834.135	0.24
834.305	-0.88
834.475	-0.55
834.645	-0.15
834.815	-0.15
834.985	-0.51
835.155	-0.65
835.325	-0.32
835.494	0.57
835.664	0.25
835.834	-1.03
836.004	-0.04
836.174	0.46
836.344	-0.13
836.514	-0.74
836.684	-0.66
836.853	0.28
837.023	-0.06
837.193	-0.24
837.363	0.52
837.532	0.04
837.702	-0.83
837.872	-0.51
838.041	0.76
838.211	0.98
838.381	-0.8
838.55	-0.4
838.72	1.35
838.89	0.77
839.059	-0.63
839.229	-0.23
839.398	1.58
839.568	0.16
839.738	-0.69
839.907	0.97
840.077	0.28
840.246	-0.6
840.416	-1.16
840.585	-0.57
840.755	0.96
840.924	0.62
841.093	-0.55
841.263	-0.59
841.432	0.4
841.602	-0.69
841.771	-0.64
841.94	-0.61
842.11	1.41
842.279	1.42
842.448	-1.09
842.617	-0.62
842.787	1.32
842.956	-1.76
843.125	-0.3
843.294	-0.21
843.464	-0.24
843.633	0.08
843.802	-0.85
843.971	-0.78
844.14	0
844.309	1.16
844.479	-0.56
844.648	-1.47
844.817	-0.45
844.986	0.08
845.155	-0.43
845.324	0.25
845.493	-0.18
845.662	-1.28
845.831	0.37
846	0.03
846.169	-0.46
846.338	1.13
846.507	-0.19
846.676	0.27
846.844	-0.16
847.013	0.75
847.182	-0.22
847.351	-0.55
847.52	-0.3
847.689	0.47
847.858	-0.25
848.026	-0.56
848.195	-0.01
848.364	-0.14
848.533	-1.15
848.701	-0.67
848.87	-0.05
849.039	0.35
849.207	0.38
849.376	-0.02
849.545	1.87
849.713	0.4
849.882	-0.51
850.051	-0.17
850.219	-0.07
850.388	0.01
850.556	-0.38
850.725	-1.41
850.893	0.03
851.062	-0.71
851.23	-0.06
851.399	-1.42
851.567	-0.43
851.736	-0.93
851.904	-0.33
852.073	-0.24
852.241	0.31
852.41	-0.16
852.578	-0.07
852.746	-1.2
852.915	0.16
853.083	-0
853.251	-1.71
853.42	-0.38
853.588	0.88
853.756	1.07
853.924	0.06
854.093	-0.37
854.261	-0.27
854.429	-1.23
854.597	0.27
854.765	-1.38
854.934	-0
855.102	0.87
855.27	-0.08
855.438	1
855.606	0.74
855.774	0.73
855.942	-2.23
856.11	-2.2
856.278	-0.02
856.446	-0.55
856.614	0.36
856.782	-1.07
856.95	1.39
857.118	1.25
857.286	0.7
857.454	-0.79
857.622	0.02
857.79	0.47
857.958	-1.48
858.126	0.45
858.294	-1.97
858.462	-0.29
858.629	-0.54
858.797	-1.03
858.965	-0.23
859.133	-0.52
859.301	-0.78
859.468	0.44
859.636	-1.68
859.804	1.13
859.971	0.66
860.139	-0.58
860.307	1.75
860.474	-0.36
860.642	-1.34
860.81	-0.04
860.977	-0.44
861.145	1.03
861.313	-0.39
861.48	-0.83
861.648	1.31
861.815	-0.65
861.983	-2.58
862.15	-1.77
862.318	-0.1
862.485	1.15
862.653	-1.28
862.82	-1.26
862.988	1.36
863.155	1.24
863.322	-1.1
863.49	-1.07
863.657	-2.04
863.824	1.34
863.992	0.26
864.159	0.84
864.326	1.17
864.494	-1.11
864.661	1.75
864.828	-1.35
864.996	1.35
865.163	1.38
865.33	-1.52
865.497	-2.97
865.664	-1.64
865.832	-2.03
865.999	-1.95
866.166	-1.76
866.333	-0.54
866.5	-0.92
866.667	-0.53
866.834	-0.95
867.001	1.68
867.168	-1.9
867.335	-0.44
867.502	-1.64
867.669	1.05
867.836	1.67
868.003	-0.63
868.17	0.62
868.337	1.21
868.504	2.48
868.671	-2.04
868.838	-1.53
869.005	1.03
869.172	0.91
869.339	-1.71
869.505	-0.73
869.672	0.83
869.839	0.94
870.006	-0.27
870.173	-0.05
870.339	-0.21
870.506	1.07
870.673	-1.76
870.84	0.74
871.006	0.29
871.173	-1.28
871.34	-0.28
871.506	-1.69
871.673	-1
871.839	-1.02
872.006	0.08
872.173	-2.8
872.339	0.44
872.506	2.34
872.672	-0.49
872.839	-2.74
873.005	0.19
873.172	1.96
873.338	0.58
873.505	-0.28
873.671	0.8
873.838	-0.23
874.004	-1.88
874.171	-1.78
874.337	0.22
874.503	1.49
874.67	-1.07
874.836	-1.35
875.002	1.25
875.169	0.77
875.335	0.1
875.501	-1.16
875.668	0.96
875.834	0.45
876	-1.04
876.166	-0.54
876.332	1.82
876.499	2.84
876.665	-0.86
876.831	0.25
876.997	3.32
877.163	-0.54
877.329	0.16
877.495	0.52
877.662	0.78
877.828	-1.16
877.994	-2.2
878.16	-1.78
878.326	-0.88
878.492	0.51
878.658	-2.14
878.824	0.14
878.99	0.31
879.156	-0.49
879.322	-0.21
879.487	0.16
879.653	-0.36
879.819	0.03
879.985	-1.7
880.151	1.58
880.317	-0.08
880.483	0.83
880.648	2.21
880.814	-4.8
880.98	1.3
881.146	-1.66
881.312	-1.79
881.477	-2.05
881.643	-0.52
881.809	1.23
881.974	2.23
882.14	-1.81
882.306	1.01
882.471	4.21
882.637	-1.06
882.803	0.22
882.968	4.26
883.134	2.82
883.299	-1.2
883.465	0.44
883.63	1.2
883.796	-0.14
883.961	1.97
884.127	0.61
884.292	-4.93
884.458	-4.03
884.623	-4.03
