Data from Apollo_Calib_20240827__AbsoluteIrradiance__165__01-54-00-690.txt Node

Date: Wed Aug 28 01:54:00 BST 2024
User: biology
Spectrometer: FLMT08252
Trigger mode: 0
Integration Time (sec): 5.000000E-1
Scans to average: 5
Electric dark correction enabled: true
Nonlinearity correction enabled: false
Boxcar width: 0
XAxis mode: Wavelengths
Number of Pixels in Spectrum: 3648
>>>>>Begin Spectral Data<<<<<
179.588	-0
179.809	-0
180.03	-0
180.251	-0
180.473	-0
180.694	0
180.915	0
181.136	-0
181.357	0
181.578	-0
181.799	0
182.02	-0
182.241	0
182.462	-0
182.683	0
182.904	-0
183.125	-0
183.346	0
183.567	0
183.788	-0
184.009	-0
184.23	0
184.451	0
184.672	-0
184.892	-0
185.113	-0
185.334	0
185.555	-0
185.776	-0
185.996	0
186.217	0
186.438	0
186.659	-0
186.879	0
187.1	-0
187.321	-0
187.541	-0
187.762	-0
187.983	0
188.203	-0
188.424	-0
188.644	-0
188.865	0
189.086	-0
189.306	-0
189.527	-0
189.747	-0
189.968	-0
190.188	0
190.409	-0
190.629	0
190.849	-0
191.07	-0
191.29	0
191.511	-0
191.731	-0
191.951	-0
192.172	0
192.392	-0
192.612	-0
192.833	0
193.053	0
193.273	0
193.493	-0
193.714	-0
193.934	0
194.154	0
194.374	-0
194.594	-0
194.815	-0
195.035	0
195.255	0
195.475	-0
195.695	0
195.915	0
196.135	-0
196.355	0
196.575	0
196.795	-0
197.015	-0
197.235	-0
197.455	-0
197.675	0
197.895	-0
198.115	-0
198.335	0
198.555	-0
198.775	-0
198.995	-0
199.214	0
199.434	-0
199.654	-0
199.874	-0
200.094	1.19
200.313	-0.71
200.533	-0.82
200.753	-0.85
200.973	0.58
201.192	0.42
201.412	-1.08
201.632	-0.78
201.851	0.48
202.071	-0.67
202.291	-0.5
202.51	-0.51
202.73	0.14
202.95	-0.5
203.169	-0.83
203.389	-0.06
203.608	0.05
203.828	-0.39
204.047	-0.6
204.267	0.49
204.486	-0.12
204.706	-0.06
204.925	-0.17
205.145	-0.38
205.364	0.22
205.583	0.47
205.803	-0.67
206.022	-0.66
206.242	-0.24
206.461	-0.06
206.68	-0.62
206.9	-0.13
207.119	0.4
207.338	0.29
207.557	-0.38
207.777	-0.19
207.996	-0.42
208.215	0.3
208.434	-0.2
208.654	-0.62
208.873	-0.09
209.092	0.6
209.311	-0.34
209.53	-0.28
209.749	-0.2
209.968	-0.37
210.187	-0.12
210.407	-0.54
210.626	-0.17
210.845	0.42
211.064	-0.09
211.283	-0.31
211.502	0.2
211.721	-0.2
211.94	-0.19
212.159	-0.04
212.377	0.15
212.596	0.1
212.815	-0.02
213.034	0.12
213.253	0.11
213.472	0.23
213.691	-0.25
213.91	-0.58
214.128	-0.16
214.347	0.37
214.566	-0.25
214.785	-0.47
215.003	0.12
215.222	0.04
215.441	-0.09
215.66	-0.34
215.878	-0.14
216.097	0.06
216.316	-0.25
216.534	-0.38
216.753	-0.06
216.972	-0.01
217.19	-0.13
217.409	-0.36
217.627	-0.21
217.846	-0.17
218.064	-0.02
218.283	-0.36
218.501	0.33
218.72	0.15
218.938	-0.36
219.157	-0.22
219.375	0.15
219.594	0.03
219.812	-0.26
220.031	-0.38
220.249	0.18
220.467	0.3
220.686	-0.03
220.904	-0.34
221.122	-0.28
221.341	0.18
221.559	0.03
221.777	-0.23
221.995	0.02
222.214	0
222.432	-0.16
222.65	0.22
222.868	-0.03
223.086	0.05
223.305	0.01
223.523	-0.1
223.741	0.23
223.959	-0.18
224.177	-0.36
224.395	-0.21
224.613	-0.04
224.831	0.12
225.049	-0.12
225.267	-0.14
225.485	0
225.703	-0.2
225.921	-0.02
226.139	-0.15
226.357	0.11
226.575	0.07
226.793	-0.21
227.011	0.55
227.229	-0.04
227.447	0.1
227.665	-0.13
227.883	-0.29
228.1	0.09
228.318	0.05
228.536	-0.28
228.754	-0.17
228.972	0.02
229.189	0.11
229.407	-0.17
229.625	-0.14
229.843	0.09
230.06	0.08
230.278	-0.08
230.496	-0.08
230.713	-0
230.931	0.14
231.149	-0.24
231.366	-0.23
231.584	-0.01
231.801	0.38
232.019	-0.07
232.236	-0.15
232.454	-0.26
232.671	-0.03
232.889	-0.06
233.106	-0.19
233.324	-0.05
233.541	-0.06
233.759	-0.07
233.976	-0.13
234.194	-0.13
234.411	-0.11
234.628	-0.17
234.846	-0.09
235.063	0.04
235.28	-0.04
235.498	-0.1
235.715	-0.23
235.932	0.15
236.149	-0.08
236.367	-0.07
236.584	0.04
236.801	-0.06
237.018	0.1
237.236	-0.16
237.453	-0.12
237.67	0.09
237.887	-0.02
238.104	-0.08
238.321	-0.2
238.538	-0.1
238.755	0.18
238.973	-0.15
239.19	-0.12
239.407	-0.05
239.624	-0.02
239.841	-0.2
240.058	-0.15
240.275	0.05
240.492	-0.04
240.709	-0.03
240.925	-0.09
241.142	-0.03
241.359	-0.11
241.576	-0.13
241.793	-0.01
242.01	0.01
242.227	0.05
242.444	0.05
242.66	0.07
242.877	-0.03
243.094	-0.02
243.311	-0.02
243.527	-0.01
243.744	0.04
243.961	0.1
244.178	-0.1
244.394	-0.02
244.611	0.07
244.828	0.13
245.044	-0.15
245.261	-0.04
245.477	0.07
245.694	0.07
245.911	-0.06
246.127	-0
246.344	0.12
246.56	0.1
246.777	-0.04
246.993	-0.04
247.21	0.09
247.426	-0.03
247.643	-0.13
247.859	-0.13
248.076	-0.05
248.292	0.12
248.508	-0.06
248.725	0.04
248.941	-0.04
249.157	0.11
249.374	-0.1
249.59	-0.05
249.806	-0.05
250.023	0.03
250.239	-0.11
250.455	-0.09
250.671	-0.08
250.888	0.03
251.104	0
251.32	-0.09
251.536	-0
251.752	-0.08
251.969	-0.01
252.185	-0.02
252.401	0.11
252.617	0.04
252.833	-0.13
253.049	-0.06
253.265	-0
253.481	-0
253.697	-0.06
253.913	-0.09
254.129	0.07
254.345	-0.04
254.561	-0.02
254.777	0.03
254.993	0.02
255.209	-0.04
255.425	-0.08
255.641	-0.07
255.857	0.07
256.073	-0.03
256.288	-0.11
256.504	-0.02
256.72	-0
256.936	0.07
257.152	-0.11
257.367	-0.01
257.583	-0.08
257.799	0.01
258.015	-0.05
258.23	-0.07
258.446	0.06
258.662	0.03
258.877	-0.06
259.093	-0.08
259.309	0.01
259.524	-0
259.74	-0.07
259.955	-0.1
260.171	0.01
260.387	-0.06
260.602	0.02
260.818	0.01
261.033	-0.13
261.249	-0.06
261.464	-0.08
261.68	-0.09
261.895	0.02
262.11	0.03
262.326	-0.07
262.541	-0.14
262.757	-0.02
262.972	0.13
263.187	-0.06
263.403	-0.02
263.618	0
263.833	-0.01
264.049	-0.11
264.264	-0.04
264.479	0.04
264.694	0.14
264.91	-0.14
265.125	0.04
265.34	0.01
265.555	0.13
265.77	0.03
265.986	-0.02
266.201	0.02
266.416	0.11
266.631	-0
266.846	-0
267.061	-0.02
267.276	-0.07
267.491	-0.16
267.706	-0
267.921	-0.03
268.136	-0.02
268.351	-0.03
268.566	-0.1
268.781	0.1
268.996	0.03
269.211	-0.01
269.426	-0.08
269.641	-0.02
269.856	0.01
270.071	-0.1
270.285	-0.09
270.5	0.1
270.715	0.01
270.93	-0.05
271.145	0.02
271.359	0.03
271.574	-0.03
271.789	-0.06
272.004	-0.1
272.218	-0.07
272.433	0.1
272.648	-0.05
272.862	0.05
273.077	-0.04
273.292	0.02
273.506	-0.09
273.721	-0.08
273.936	0.08
274.15	-0
274.365	-0.04
274.579	0.09
274.794	-0
275.008	0.07
275.223	-0.16
275.437	-0.02
275.652	0.04
275.866	0.04
276.081	-0.01
276.295	0.03
276.509	-0.02
276.724	-0.03
276.938	0.02
277.153	0.01
277.367	0.05
277.581	-0.02
277.796	-0.02
278.01	-0.11
278.224	0.06
278.438	0.12
278.653	-0.03
278.867	-0.04
279.081	0.02
279.295	-0.03
279.51	-0.02
279.724	-0.13
279.938	0.01
280.152	-0.02
280.366	-0.03
280.58	0.01
280.794	0.08
281.008	-0.03
281.222	0.09
281.437	0.1
281.651	0.01
281.865	0.06
282.079	0.01
282.293	-0.11
282.507	-0.08
282.721	-0.02
282.935	-0.02
283.148	-0.13
283.362	-0.03
283.576	-0.06
283.79	-0.02
284.004	-0.12
284.218	0.05
284.432	-0.03
284.646	-0
284.859	-0.04
285.073	-0.07
285.287	0.01
285.501	-0.04
285.714	0.01
285.928	-0.04
286.142	-0.02
286.356	-0.07
286.569	-0.05
286.783	0.08
286.997	0.02
287.21	0.01
287.424	0
287.637	-0.04
287.851	-0.01
288.065	0.04
288.278	-0
288.492	0.01
288.705	-0.02
288.919	-0.01
289.132	-0.03
289.346	0.06
289.559	-0.09
289.773	-0.04
289.986	-0.03
290.2	0.01
290.413	0.01
290.626	-0.05
290.84	-0.01
291.053	-0.04
291.267	0.02
291.48	0.02
291.693	-0.05
291.906	-0.03
292.12	-0
292.333	-0.06
292.546	-0.01
292.76	0.08
292.973	-0.05
293.186	0.03
293.399	-0.05
293.612	0.02
293.826	-0
294.039	-0.01
294.252	-0.01
294.465	0.01
294.678	0
294.891	0.04
295.104	-0.03
295.317	-0.01
295.53	0.02
295.743	-0.01
295.956	0.04
296.169	0.05
296.382	0.02
296.595	0.01
296.808	-0.07
297.021	0.08
297.234	0.04
297.447	-0.02
297.66	0.01
297.873	0.02
298.086	0.04
298.299	-0.04
298.511	-0.04
298.724	-0.01
298.937	-0.05
299.15	-0.08
299.363	-0.02
299.575	0.07
299.788	-0.03
300.001	-0.01
300.213	-0.01
300.426	-0.03
300.639	-0.04
300.852	-0
301.064	0.01
301.277	0.05
301.489	0.02
301.702	-0
301.915	0
302.127	-0
302.34	0.02
302.552	-0.03
302.765	-0.05
302.977	0.05
303.19	-0.01
303.402	-0.09
303.615	-0
303.827	0.02
304.04	-0.02
304.252	0.01
304.464	0
304.677	0.1
304.889	0.08
305.102	-0.04
305.314	-0.02
305.526	0.04
305.739	-0.04
305.951	-0.04
306.163	-0.01
306.375	0.06
306.588	-0.05
306.8	-0.06
307.012	-0.06
307.224	-0.03
307.436	0.08
307.649	-0.05
307.861	0.02
308.073	0.04
308.285	-0
308.497	-0.06
308.709	-0.07
308.921	-0
309.133	0.05
309.346	0.01
309.558	-0.01
309.77	0.05
309.982	0.04
310.194	0.04
310.406	-0.05
310.617	0.07
310.829	0.02
311.041	0
311.253	-0.03
311.465	-0.01
311.677	-0.01
311.889	0.01
312.101	-0.02
312.313	0.03
312.524	0.07
312.736	-0.06
312.948	0.01
313.16	0.08
313.372	0.07
313.583	-0.02
313.795	-0.01
314.007	-0.03
314.218	-0.01
314.43	-0.01
314.642	-0.04
314.853	-0.04
315.065	0.04
315.277	0
315.488	-0.02
315.7	0.03
315.912	-0.02
316.123	-0.02
316.335	0
316.546	0.12
316.758	-0.02
316.969	-0.04
317.181	0.01
317.392	0.01
317.604	0.04
317.815	-0.04
318.026	-0.06
318.238	-0.01
318.449	0.05
318.661	-0.05
318.872	-0.05
319.083	-0.09
319.295	0.03
319.506	-0.03
319.717	0.03
319.929	0.01
320.14	0.03
320.351	0.01
320.562	-0.05
320.774	-0.04
320.985	-0.03
321.196	-0.05
321.407	-0.11
321.618	0.07
321.829	-0.03
322.041	0.05
322.252	-0.02
322.463	0.03
322.674	0.03
322.885	-0.07
323.096	-0.02
323.307	-0.02
323.518	-0.03
323.729	-0.01
323.94	0.03
324.151	-0.02
324.362	0.01
324.573	0.01
324.784	-0.02
324.995	0.05
325.206	0.04
325.417	-0.03
325.628	-0.06
325.838	-0.04
326.049	-0
326.26	0.03
326.471	-0.03
326.682	0.01
326.892	-0
327.103	-0.06
327.314	-0.05
327.525	0.08
327.735	0
327.946	-0.05
328.157	-0.05
328.368	0.01
328.578	-0.05
328.789	0.05
328.999	-0.03
329.21	-0
329.421	0.02
329.631	-0.04
329.842	-0.08
330.052	0.01
330.263	0.01
330.473	0.03
330.684	-0.03
330.894	-0.01
331.105	0
331.315	0
331.526	-0.07
331.736	0.07
331.947	0.03
332.157	0.01
332.367	-0.04
332.578	0.03
332.788	0.06
332.999	0.01
333.209	0.03
333.419	-0.07
333.629	0.06
333.84	0
334.05	-0.02
334.26	0.07
334.47	0.02
334.681	0.05
334.891	-0.04
335.101	0.04
335.311	0.05
335.521	-0.02
335.732	-0.05
335.942	0.05
336.152	0.04
336.362	0.05
336.572	-0.03
336.782	0.01
336.992	-0.01
337.202	-0.02
337.412	-0.05
337.622	0.04
337.832	-0.04
338.042	0
338.252	0.02
338.462	-0.04
338.672	-0.02
338.882	0.01
339.092	-0.01
339.302	0.06
339.511	-0
339.721	-0
339.931	-0.05
340.141	0.02
340.351	0.03
340.561	-0.01
340.77	0.02
340.98	-0.03
341.19	0.01
341.4	0.01
341.609	-0.05
341.819	-0.03
342.029	-0.05
342.238	0.01
342.448	-0.06
342.658	-0.01
342.867	0.05
343.077	-0.01
343.286	0.01
343.496	0
343.706	0.09
343.915	-0.05
344.125	0.01
344.334	0.02
344.544	-0.01
344.753	-0.06
344.963	-0.04
345.172	-0.03
345.381	-0.04
345.591	0.02
345.8	-0.03
346.01	0.04
346.219	0.04
346.428	-0.11
346.638	0.02
346.847	0.01
347.056	0.08
347.266	-0.05
347.475	0.03
347.684	0.03
347.893	0.01
348.103	0.03
348.312	-0.03
348.521	-0.01
348.73	0.03
348.94	0.01
349.149	-0.01
349.358	-0.03
349.567	-0.02
349.776	-0.06
349.985	-0.03
350.194	0.06
350.403	0.05
350.612	-0.07
350.821	-0.03
351.03	0
351.239	-0.08
351.448	0
351.657	-0.03
351.866	0.08
352.075	-0.03
352.284	0
352.493	-0.02
352.702	0.05
352.911	0.04
353.12	-0
353.329	0
353.538	0.01
353.746	-0.04
353.955	-0.03
354.164	0.05
354.373	-0.02
354.582	0
354.79	-0.02
354.999	0.01
355.208	-0.01
355.416	0.05
355.625	-0.03
355.834	-0.02
356.042	-0.02
356.251	-0.01
356.46	-0.04
356.668	0.06
356.877	0.09
357.085	0.06
357.294	-0.04
357.503	0.02
357.711	0.01
357.92	0.14
358.128	0.05
358.337	-0
358.545	0.01
358.754	0.02
358.962	0.04
359.17	0
359.379	0.01
359.587	0.06
359.796	-0.02
360.004	0.06
360.212	0.04
360.421	0.07
360.629	-0
360.837	-0.04
361.046	0.02
361.254	0.11
361.462	0
361.67	0.01
361.879	0
362.087	0.08
362.295	0.02
362.503	-0.02
362.711	-0.06
362.92	0
363.128	-0.03
363.336	0.01
363.544	-0.07
363.752	-0.02
363.96	-0.03
364.168	0.01
364.376	-0.01
364.584	0.01
364.792	0.02
365	0
365.208	0.01
365.416	0.01
365.624	0.05
365.832	0.01
366.04	0.03
366.248	0.01
366.456	0.01
366.664	0.09
366.872	-0.01
367.079	0.01
367.287	-0.01
367.495	0.03
367.703	0.02
367.911	0.01
368.118	0
368.326	-0.01
368.534	-0.01
368.742	0.06
368.949	-0.04
369.157	-0.03
369.365	-0
369.572	-0.03
369.78	-0.04
369.988	0.04
370.195	0.02
370.403	0.03
370.61	-0.02
370.818	0.01
371.026	0.12
371.233	-0.03
371.441	-0
371.648	0.03
371.856	0.03
372.063	0.04
372.271	0
372.478	-0.05
372.685	0.01
372.893	0.08
373.1	0
373.308	-0.02
373.515	0.07
373.722	0.01
373.93	0
374.137	0.05
374.344	0.09
374.552	0.07
374.759	0.07
374.966	0.02
375.173	-0
375.381	0.06
375.588	0.01
375.795	-0.09
376.002	0.01
376.209	-0.01
376.417	0.02
376.624	-0.02
376.831	0.02
377.038	0
377.245	-0.04
377.452	-0.03
377.659	-0.01
377.866	-0.01
378.073	0.03
378.28	-0.01
378.487	0.07
378.694	0.05
378.901	0.03
379.108	0.01
379.315	0.03
379.522	0.1
379.729	0.06
379.936	0.02
380.143	0.03
380.35	0.08
380.557	0.02
380.763	0.03
380.97	0.01
381.177	0.06
381.384	0.04
381.591	-0.02
381.797	0.02
382.004	0.03
382.211	0.07
382.418	0.01
382.624	0.04
382.831	0.08
383.038	0.03
383.244	0.05
383.451	0.02
383.658	0.08
383.864	0.01
384.071	0
384.277	0.1
384.484	-0
384.69	0.06
384.897	0.06
385.103	0.04
385.31	0.02
385.516	-0.01
385.723	0.02
385.929	0.04
386.136	0.05
386.342	0.07
386.549	0.02
386.755	0.12
386.961	0.06
387.168	0.06
387.374	0.09
387.58	0.08
387.787	0.12
387.993	0.08
388.199	0.09
388.406	0.08
388.612	0.1
388.818	0.05
389.024	0.11
389.231	0.16
389.437	0.22
389.643	0.23
389.849	0.12
390.055	0.13
390.261	0.16
390.467	0.18
390.674	0.14
390.88	0.16
391.086	0.25
391.292	0.18
391.498	0.29
391.704	0.26
391.91	0.24
392.116	0.24
392.322	0.19
392.528	0.29
392.734	0.3
392.94	0.28
393.146	0.33
393.352	0.4
393.557	0.37
393.763	0.37
393.969	0.42
394.175	0.46
394.381	0.48
394.587	0.48
394.792	0.48
394.998	0.61
395.204	0.62
395.41	0.61
395.615	0.66
395.821	0.71
396.027	0.74
396.233	0.79
396.438	0.87
396.644	0.95
396.85	0.93
397.055	0.99
397.261	1.01
397.466	1.13
397.672	1.1
397.878	1.22
398.083	1.22
398.289	1.24
398.494	1.34
398.7	1.49
398.905	1.41
399.111	1.59
399.316	1.5
399.522	1.61
399.727	1.71
399.932	1.77
400.138	1.88
400.343	2
400.549	1.96
400.754	2.19
400.959	2.22
401.165	2.39
401.37	2.45
401.575	2.78
401.78	2.7
401.986	2.82
402.191	2.94
402.396	3.06
402.601	3.21
402.807	3.41
403.012	3.49
403.217	3.78
403.422	3.69
403.627	3.89
403.832	4.02
404.037	4.2
404.243	4.18
404.448	4.32
404.653	4.44
404.858	4.59
405.063	4.57
405.268	4.74
405.473	4.81
405.678	4.92
405.883	5.22
406.088	5.2
406.293	5.04
406.498	5.25
406.703	5.27
406.907	5.4
407.112	5.64
407.317	5.78
407.522	5.79
407.727	5.8
407.932	5.85
408.136	5.97
408.341	5.82
408.546	5.91
408.751	5.85
408.956	5.71
409.16	5.91
409.365	5.75
409.57	5.56
409.774	5.55
409.979	5.51
410.184	5.29
410.388	5.2
410.593	5.3
410.798	5.18
411.002	5.23
411.207	5.06
411.411	4.97
411.616	4.77
411.82	4.75
412.025	4.5
412.229	4.5
412.434	4.37
412.638	4.19
412.843	4.1
413.047	3.99
413.252	3.72
413.456	3.78
413.66	3.66
413.865	3.49
414.069	3.43
414.273	3.32
414.478	3.14
414.682	3.07
414.886	2.98
415.091	2.81
415.295	2.79
415.499	2.82
415.703	2.59
415.908	2.65
416.112	2.39
416.316	2.59
416.52	2.39
416.724	2.31
416.929	2.2
417.133	2.39
417.337	2.13
417.541	2.12
417.745	2.13
417.949	2.1
418.153	2.03
418.357	1.92
418.561	2.05
418.765	1.89
418.969	1.93
419.173	1.88
419.377	1.74
419.581	1.83
419.785	1.71
419.989	1.58
420.193	1.72
420.397	1.6
420.601	1.6
420.804	1.6
421.008	1.46
421.212	1.49
421.416	1.44
421.62	1.37
421.823	1.32
422.027	1.34
422.231	1.26
422.435	1.19
422.638	1.14
422.842	1.12
423.046	1.02
423.249	1.08
423.453	1.04
423.657	1.04
423.86	0.93
424.064	0.91
424.268	0.99
424.471	0.9
424.675	0.91
424.878	0.86
425.082	0.84
425.285	0.85
425.489	0.74
425.692	0.73
425.896	0.67
426.099	0.72
426.303	0.64
426.506	0.6
426.71	0.67
426.913	0.66
427.116	0.65
427.32	0.59
427.523	0.57
427.726	0.61
427.93	0.51
428.133	0.54
428.336	0.49
428.54	0.5
428.743	0.55
428.946	0.55
429.149	0.47
429.353	0.53
429.556	0.44
429.759	0.49
429.962	0.4
430.165	0.46
430.368	0.4
430.571	0.39
430.775	0.41
430.978	0.37
431.181	0.43
431.384	0.41
431.587	0.38
431.79	0.36
431.993	0.34
432.196	0.33
432.399	0.27
432.602	0.39
432.805	0.36
433.008	0.33
433.211	0.25
433.414	0.36
433.616	0.33
433.819	0.32
434.022	0.22
434.225	0.4
434.428	0.31
434.631	0.47
434.833	0.25
435.036	0.26
435.239	0.29
435.442	0.28
435.645	0.29
435.847	0.27
436.05	0.34
436.253	0.26
436.455	0.17
436.658	0.24
436.861	0.3
437.063	0.17
437.266	0.18
437.468	0.3
437.671	0.37
437.874	0.21
438.076	0.18
438.279	0.16
438.481	0.23
438.684	0.12
438.886	0.26
439.089	0.1
439.291	0.15
439.494	0.26
439.696	0.11
439.899	0.21
440.101	0.19
440.303	0.11
440.506	0.21
440.708	0.19
440.91	0.21
441.113	0.15
441.315	0.15
441.517	0.13
441.72	0.18
441.922	0.1
442.124	0.14
442.326	0.16
442.529	0.27
442.731	0.11
442.933	0.22
443.135	0.07
443.337	0.1
443.539	0.1
443.742	0.12
443.944	0.14
444.146	0.05
444.348	0.13
444.55	0.09
444.752	0.13
444.954	0.01
445.156	0.11
445.358	0.09
445.56	0.14
445.762	0.13
445.964	0.1
446.166	0.09
446.368	0.03
446.57	0.1
446.772	0.1
446.974	0.07
447.175	0.08
447.377	0.05
447.579	0.09
447.781	-0
447.983	0.15
448.184	0.09
448.386	0.12
448.588	0.03
448.79	0.03
448.991	0.03
449.193	0.1
449.395	0.07
449.597	0.12
449.798	0.1
450	0.14
450.202	0.07
450.403	0.04
450.605	0.11
450.806	0.14
451.008	0.01
451.21	0.06
451.411	0.06
451.613	0.08
451.814	0.07
452.016	0.09
452.217	0.04
452.419	0.12
452.62	0.07
452.821	0.11
453.023	0.1
453.224	0.09
453.426	0.06
453.627	0.06
453.828	0.12
454.03	0.08
454.231	0.08
454.432	0
454.634	0.18
454.835	0.04
455.036	-0
455.238	0.11
455.439	0.15
455.64	-0.02
455.841	0.04
456.042	0.17
456.244	0.1
456.445	-0.03
456.646	-0
456.847	0.04
457.048	0.1
457.249	0.13
457.45	0.25
457.651	-0
457.852	0.15
458.054	0.08
458.255	0.04
458.456	0.1
458.657	0.07
458.858	0.06
459.058	0.06
459.259	0.09
459.46	0.06
459.661	0.06
459.862	0.19
460.063	0
460.264	0.1
460.465	-0.02
460.666	0.15
460.866	0.03
461.067	-0.01
461.268	0.02
461.469	0
461.67	0.04
461.87	0.03
462.071	0.08
462.272	-0.01
462.473	0.06
462.673	0.05
462.874	-0.02
463.075	0.04
463.275	0.04
463.476	0.04
463.676	0.05
463.877	0.04
464.078	0.05
464.278	0.11
464.479	0.02
464.679	0.06
464.88	0.07
465.08	0.11
465.281	0.05
465.481	0
465.682	0.04
465.882	0.14
466.083	0.07
466.283	0.08
466.483	0.01
466.684	-0.01
466.884	-0
467.085	0.08
467.285	0.11
467.485	-0
467.686	0.03
467.886	0.02
468.086	0.04
468.286	0.05
468.487	0.09
468.687	0.01
468.887	0.03
469.087	0.06
469.287	0.02
469.488	-0.02
469.688	0.08
469.888	0.12
470.088	0.09
470.288	0.1
470.488	0.12
470.688	-0.02
470.888	-0.01
471.088	0.04
471.288	0.08
471.488	0.1
471.688	0.1
471.888	0
472.088	0.11
472.288	0.1
472.488	0
472.688	0.03
472.888	0.02
473.088	0.03
473.288	0.04
473.488	0.03
473.688	0.1
473.887	0.05
474.087	0.04
474.287	0.03
474.487	0
474.687	0.06
474.886	0.02
475.086	0.03
475.286	0.06
475.486	0.03
475.685	0.03
475.885	0.06
476.085	0.03
476.284	0.06
476.484	-0.01
476.684	0.01
476.883	0.1
477.083	0.08
477.282	0.01
477.482	0.08
477.681	0.12
477.881	0.05
478.08	-0
478.28	-0.02
478.479	0.08
478.679	0.14
478.878	0.03
479.078	-0.02
479.277	-0.01
479.477	0.05
479.676	0.08
479.875	0.01
480.075	-0.03
480.274	0.07
480.473	0.03
480.673	-0.01
480.872	0.07
481.071	0.04
481.271	0.03
481.47	0.03
481.669	0.01
481.868	0.01
482.067	0
482.267	0
482.466	0
482.665	-0.02
482.864	-0.03
483.063	-0.02
483.262	0.02
483.461	0.07
483.661	0.03
483.86	0.03
484.059	0.02
484.258	0.04
484.457	0.02
484.656	0.01
484.855	0.06
485.054	0
485.253	0.01
485.452	-0.02
485.651	0.01
485.849	0.03
486.048	-0
486.247	0
486.446	0.04
486.645	-0.01
486.844	-0.04
487.043	0.01
487.241	0.04
487.44	-0.01
487.639	-0
487.838	0.05
488.037	0.01
488.235	0.06
488.434	0.02
488.633	-0.02
488.831	0.02
489.03	0.03
489.229	0.04
489.427	0.02
489.626	0.07
489.825	0.06
490.023	0.01
490.222	0.01
490.42	0.04
490.619	0.03
490.817	0.02
491.016	-0.02
491.214	0.04
491.413	-0
491.611	0
491.81	0.02
492.008	0.06
492.207	0.03
492.405	0.04
492.604	-0.04
492.802	0.02
493	0.03
493.199	-0.01
493.397	0.01
493.595	0.01
493.794	0
493.992	0.08
494.19	0.02
494.388	0.03
494.587	-0.01
494.785	0.03
494.983	-0.01
495.181	-0.02
495.379	0.02
495.578	0.02
495.776	0.03
495.974	0.02
496.172	0.01
496.37	-0
496.568	-0.02
496.766	0.01
496.964	0.03
497.162	0.02
497.36	-0.01
497.558	0.02
497.756	0.03
497.954	-0.01
498.152	-0.01
498.35	0.02
498.548	0.02
498.746	-0
498.944	-0.02
499.142	0
499.34	-0.01
499.538	0.01
499.736	0
499.933	0.05
500.131	0.03
500.329	0.03
500.527	0.04
500.725	0.04
500.922	0.05
501.12	0.04
501.318	0.01
501.516	-0.01
501.713	0.02
501.911	0
502.109	-0.03
502.306	0.02
502.504	-0
502.701	-0.02
502.899	-0
503.097	0.05
503.294	0.01
503.492	0.02
503.689	0.02
503.887	0.02
504.084	0.06
504.282	0.01
504.479	-0
504.677	0.03
504.874	-0
505.072	-0.01
505.269	0
505.466	0.04
505.664	0.02
505.861	-0.03
506.059	-0
506.256	0.03
506.453	0.02
506.651	0.03
506.848	0.04
507.045	-0
507.242	0.02
507.44	0.01
507.637	0.01
507.834	-0
508.031	0.02
508.229	-0.03
508.426	0.02
508.623	0.01
508.82	0.01
509.017	-0.01
509.214	-0.02
509.411	0.02
509.608	-0.02
509.805	0
510.003	-0.02
510.2	-0
510.397	0.02
510.594	0.01
510.791	-0.02
510.988	-0
511.184	0.04
511.381	0
511.578	0
511.775	0.02
511.972	-0.02
512.169	0.01
512.366	-0
512.563	0.01
512.76	-0.03
512.956	0.03
513.153	0.01
513.35	0.03
513.547	0.01
513.744	-0.02
513.94	-0.03
514.137	0.01
514.334	0.02
514.53	-0.01
514.727	0
514.924	0.04
515.12	0
515.317	-0.04
515.514	-0.02
515.71	-0.02
515.907	-0.01
516.103	-0.01
516.3	0
516.497	0.04
516.693	0.03
516.89	0
517.086	-0
517.283	0.03
517.479	0.02
517.676	0.01
517.872	-0.02
518.068	-0.02
518.265	-0.01
518.461	-0.01
518.658	-0.02
518.854	0.02
519.05	-0.01
519.247	-0.02
519.443	0.01
519.639	0
519.836	0.02
520.032	0.01
520.228	-0.01
520.424	0.04
520.621	0.01
520.817	-0.01
521.013	-0
521.209	0.01
521.405	0.04
521.601	0.01
521.798	0.01
521.994	0.05
522.19	-0.02
522.386	-0.01
522.582	0
522.778	-0.01
522.974	-0.02
523.17	0
523.366	0.02
523.562	0.04
523.758	0
523.954	-0
524.15	0
524.346	0.01
524.542	-0.01
524.738	-0.02
524.934	0.01
525.129	-0.08
525.325	0.01
525.521	-0
525.717	0.02
525.913	-0.01
526.109	0.01
526.304	-0.04
526.5	0
526.696	-0.01
526.892	-0.01
527.087	-0
527.283	0.02
527.479	-0
527.674	-0.03
527.87	-0
528.066	-0.01
528.261	0.03
528.457	-0.01
528.653	-0.02
528.848	-0.02
529.044	0.01
529.239	-0
529.435	0.03
529.63	-0.03
529.826	0.04
530.021	0.02
530.217	0.02
530.412	-0.01
530.608	-0.01
530.803	-0
530.999	-0
531.194	-0.05
531.389	0.01
531.585	-0.05
531.78	-0.01
531.975	0.01
532.171	0.02
532.366	-0.01
532.561	-0
532.757	-0.03
532.952	0
533.147	0.03
533.342	-0.02
533.538	-0.01
533.733	0.03
533.928	-0
534.123	-0.03
534.318	-0.03
534.513	-0
534.709	0
534.904	-0.02
535.099	-0.02
535.294	0.01
535.489	0
535.684	0.01
535.879	-0.06
536.074	0
536.269	-0.03
536.464	0.01
536.659	0.01
536.854	-0.01
537.049	0.02
537.244	-0
537.439	-0.02
537.634	0.02
537.828	-0
538.023	0.01
538.218	-0.05
538.413	0.01
538.608	-0.03
538.803	0.03
538.997	-0.04
539.192	0.02
539.387	0.02
539.582	0
539.776	-0
539.971	-0.01
540.166	-0.02
540.36	-0.03
540.555	0.01
540.75	-0.02
540.944	0.01
541.139	-0.05
541.334	-0.01
541.528	0.01
541.723	0.01
541.917	-0.01
542.112	-0.01
542.306	-0.01
542.501	-0.01
542.695	-0.01
542.89	0
543.084	0.02
543.279	-0.01
543.473	-0.02
543.668	0
543.862	-0.02
544.056	0.01
544.251	-0.02
544.445	0.01
544.64	0
544.834	-0.04
545.028	0.01
545.222	0.01
545.417	0.01
545.611	0
545.805	-0.01
546	-0.02
546.194	-0
546.388	-0.03
546.582	0.01
546.776	-0.02
546.97	-0.03
547.165	0.01
547.359	0.02
547.553	-0.03
547.747	0.01
547.941	-0
548.135	-0
548.329	0.01
548.523	0.02
548.717	-0
548.911	-0.01
549.105	0.02
549.299	-0.01
549.493	0.02
549.687	0.03
549.881	0
550.075	-0.01
550.269	-0.03
550.463	0.02
550.657	-0
550.85	-0.01
551.044	-0.02
551.238	0.01
551.432	-0
551.626	-0.05
551.82	-0
552.013	0
552.207	0
552.401	0.01
552.594	-0
552.788	-0
552.982	0
553.176	-0.02
553.369	0.01
553.563	0
553.756	-0.05
553.95	-0.02
554.144	0.01
554.337	0.02
554.531	0
554.724	-0.01
554.918	0.01
555.111	0.02
555.305	-0.02
555.498	0.06
555.692	0.02
555.885	-0.02
556.079	0.01
556.272	-0.04
556.466	0.01
556.659	0
556.852	-0.02
557.046	-0.02
557.239	-0
557.432	-0.02
557.626	-0.03
557.819	0.01
558.012	0.01
558.206	0.02
558.399	0.01
558.592	0.03
558.785	-0
558.979	0.02
559.172	-0.02
559.365	0.01
559.558	0
559.751	-0.01
559.944	0.02
560.138	-0.01
560.331	-0
560.524	-0.01
560.717	-0.01
560.91	-0.01
561.103	0.01
561.296	0.02
561.489	0.01
561.682	-0
561.875	0.04
562.068	0.01
562.261	0
562.454	0.03
562.647	0.02
562.84	0.02
563.032	-0.02
563.225	0.01
563.418	-0.02
563.611	-0.05
563.804	0
563.997	-0.03
564.19	-0.03
564.382	-0
564.575	-0.01
564.768	0
564.961	-0.01
565.153	-0.03
565.346	0.03
565.539	0.02
565.731	0.01
565.924	0.02
566.117	0.03
566.309	-0
566.502	-0.01
566.695	-0.02
566.887	-0.02
567.08	-0.03
567.272	-0.01
567.465	-0.01
567.657	0
567.85	0
568.042	0.02
568.235	0.01
568.427	-0.01
568.62	-0
568.812	0
569.005	0.01
569.197	-0.04
569.389	0.01
569.582	0
569.774	-0.01
569.966	-0.04
570.159	-0.04
570.351	-0
570.543	-0.02
570.736	-0.01
570.928	-0.02
571.12	0.01
571.312	-0.04
571.505	-0.05
571.697	0.04
571.889	-0.04
572.081	-0.02
572.273	-0
572.465	0.02
572.658	-0.02
572.85	0.01
573.042	-0.01
573.234	-0.02
573.426	0.03
573.618	-0.06
573.81	0
574.002	0.02
574.194	0.03
574.386	-0.04
574.578	-0.07
574.77	-0.02
574.962	-0.02
575.154	-0.03
575.346	-0.04
575.538	-0.01
575.729	-0.03
575.921	-0.04
576.113	-0.02
576.305	0.01
576.497	-0.03
576.689	-0.01
576.88	-0.03
577.072	0
577.264	-0.03
577.456	-0.02
577.647	-0.06
577.839	-0.01
578.031	0.02
578.223	-0.05
578.414	-0.03
578.606	0.01
578.798	-0.01
578.989	-0.05
579.181	-0.02
579.372	-0.01
579.564	-0.01
579.755	0.01
579.947	0.01
580.139	0
580.33	-0.06
580.522	-0.02
580.713	-0.05
580.905	-0.01
581.096	0.02
581.287	-0
581.479	-0.01
581.67	0.02
581.862	-0
582.053	-0.05
582.244	-0.04
582.436	-0.02
582.627	-0.01
582.818	-0.02
583.01	-0.04
583.201	0.02
583.392	0.03
583.583	-0
583.775	-0.03
583.966	-0.01
584.157	-0.02
584.348	-0
584.54	-0.04
584.731	0.01
584.922	0
585.113	-0.02
585.304	0.04
585.495	-0.01
585.686	-0.02
585.877	0
586.068	0
586.259	0.01
586.45	-0
586.641	-0.05
586.832	-0.06
587.023	-0.02
587.214	-0.03
587.405	0
587.596	-0.05
587.787	0.05
587.978	0
588.169	-0.02
588.36	-0.01
588.551	0
588.742	-0.04
588.932	-0.01
589.123	-0.02
589.314	0.01
589.505	0
589.696	0.02
589.886	-0.04
590.077	-0.04
590.268	-0.01
590.458	-0.06
590.649	-0.05
590.84	0.02
591.03	-0.02
591.221	-0.07
591.412	-0.04
591.602	-0.02
591.793	0.01
591.984	-0.07
592.174	-0
592.365	0.07
592.555	-0.03
592.746	-0.01
592.936	0.02
593.127	-0.04
593.317	-0.02
593.508	-0.04
593.698	-0.04
593.889	-0
594.079	-0
594.269	-0.01
594.46	-0.03
594.65	-0
594.84	-0.02
595.031	-0.02
595.221	-0.04
595.411	-0.04
595.602	0.03
595.792	-0
595.982	-0.07
596.172	0.02
596.363	-0
596.553	0
596.743	-0.01
596.933	-0.02
597.123	0.02
597.314	-0.02
597.504	-0.03
597.694	0.03
597.884	-0
598.074	-0.02
598.264	-0.04
598.454	-0.02
598.644	-0.02
598.834	0
599.024	-0.08
599.214	-0.01
599.404	0.02
599.594	-0.03
599.784	-0.05
599.974	0.01
600.164	0.03
600.354	-0.04
600.544	-0.06
600.734	-0.01
600.924	0.05
601.114	-0.03
601.303	-0.01
601.493	-0.03
601.683	-0.02
601.873	0
602.063	-0.05
602.252	0.03
602.442	-0.09
602.632	-0.04
602.821	-0.05
603.011	0.03
603.201	-0.02
603.39	-0.05
603.58	-0.03
603.77	0
603.959	0.04
604.149	-0.01
604.339	-0.03
604.528	-0
604.718	0.03
604.907	-0.02
605.097	-0.04
605.286	-0.04
605.476	0.01
605.665	0.01
605.855	-0.03
606.044	0.01
606.234	0.02
606.423	-0.03
606.612	-0.02
606.802	-0
606.991	0.03
607.181	-0.01
607.37	-0.05
607.559	-0.01
607.749	-0.04
607.938	-0.02
608.127	-0.03
608.316	-0.03
608.506	0.03
608.695	-0.02
608.884	-0.02
609.073	-0.01
609.263	-0.01
609.452	0.02
609.641	-0.03
609.83	-0.05
610.019	-0.03
610.208	-0.05
610.397	-0.04
610.586	0.04
610.775	-0.06
610.965	-0.04
611.154	-0.02
611.343	-0.03
611.532	-0.01
611.721	-0.03
611.91	-0.03
612.099	0
612.287	-0.02
612.476	-0.06
612.665	-0.02
612.854	-0.02
613.043	0.02
613.232	-0.03
613.421	-0.04
613.61	-0.01
613.798	-0.02
613.987	0.02
614.176	0
614.365	0.01
614.554	-0
614.742	0
614.931	-0.03
615.12	-0
615.309	-0.03
615.497	0.01
615.686	-0.06
615.875	-0.02
616.063	0.01
616.252	-0.01
616.44	-0.03
616.629	-0.04
616.818	0.03
617.006	-0.02
617.195	-0.03
617.383	0
617.572	0
617.76	-0.04
617.949	-0.04
618.137	0.01
618.326	0.03
618.514	-0.04
618.703	-0.06
618.891	0.05
619.079	-0.09
619.268	-0.01
619.456	-0.04
619.644	0.01
619.833	-0.04
620.021	-0.01
620.209	-0.05
620.398	-0
620.586	-0.02
620.774	-0.01
620.962	-0.01
621.151	0.03
621.339	-0
621.527	-0.05
621.715	-0.05
621.903	-0.06
622.092	-0.07
622.28	0.01
622.468	0
622.656	0.01
622.844	0.01
623.032	-0.04
623.22	-0.08
623.408	0.01
623.596	0.01
623.784	0.03
623.972	-0.04
624.16	-0.04
624.348	0.04
624.536	-0.04
624.724	-0.04
624.912	0.02
625.1	0.01
625.288	-0.02
625.476	-0.04
625.664	0.04
625.851	-0.04
626.039	-0
626.227	0.01
626.415	-0.04
626.603	-0.07
626.79	-0.01
626.978	-0.02
627.166	0.01
627.354	-0.03
627.541	-0.07
627.729	-0.08
627.917	0
628.104	0.02
628.292	0
628.48	-0.01
628.667	-0.01
628.855	-0.02
629.042	0.01
629.23	-0.03
629.418	-0.04
629.605	-0.03
629.793	-0.05
629.98	-0.02
630.168	-0.03
630.355	-0.06
630.543	-0.01
630.73	-0.03
630.917	0.01
631.105	0.04
631.292	-0.04
631.48	-0.02
631.667	0.06
631.854	-0.01
632.042	-0.02
632.229	-0.05
632.416	0
632.604	-0.01
632.791	-0.06
632.978	0.01
633.165	-0.01
633.353	0.09
633.54	0.03
633.727	-0.08
633.914	-0.05
634.101	-0.08
634.289	0
634.476	-0.05
634.663	-0.02
634.85	-0.01
635.037	-0.04
635.224	-0.05
635.411	0.01
635.598	0
635.785	0.02
635.972	-0.02
636.159	0.01
636.346	-0.07
636.533	-0.02
636.72	-0.06
636.907	-0.01
637.094	-0
637.281	-0.05
637.468	0.02
637.655	-0.03
637.842	-0.01
638.029	-0.06
638.215	0.02
638.402	0.01
638.589	-0.07
638.776	-0.05
638.963	-0.04
639.149	0.02
639.336	0.06
639.523	-0.03
639.709	-0.03
639.896	-0.03
640.083	0.01
640.27	0.01
640.456	-0.02
640.643	-0.01
640.829	-0.07
641.016	-0.03
641.203	-0.05
641.389	-0.01
641.576	0.02
641.762	-0.05
641.949	-0.06
642.135	0.02
642.322	-0.01
642.508	-0.08
642.695	-0
642.881	-0.02
643.068	-0.05
643.254	-0.04
643.441	0
643.627	-0.03
643.813	-0.04
644	0.01
644.186	-0.05
644.372	-0.08
644.559	-0
644.745	-0.04
644.931	-0.04
645.118	-0.04
645.304	-0.04
645.49	-0.07
645.676	-0.03
645.862	0.01
646.049	0.04
646.235	-0.01
646.421	0.05
646.607	0.05
646.793	-0.04
646.979	-0.03
647.165	-0.02
647.352	-0.01
647.538	0.02
647.724	-0.02
647.91	-0.01
648.096	0.01
648.282	0.02
648.468	-0.04
648.654	-0
648.84	0.03
649.026	-0.05
649.212	-0.02
649.397	-0.06
649.583	-0.03
649.769	-0
649.955	-0.01
650.141	-0.02
650.327	0.02
650.513	-0.03
650.698	0.01
650.884	-0.09
651.07	0.01
651.256	0.01
651.442	-0.01
651.627	-0.05
651.813	-0.03
651.999	-0.03
652.184	-0
652.37	-0.03
652.556	-0.07
652.741	0.04
652.927	-0.09
653.113	-0.01
653.298	-0.03
653.484	-0.03
653.669	-0.09
653.855	-0.01
654.04	0
654.226	-0.01
654.412	-0.06
654.597	-0.1
654.782	-0.03
654.968	0.03
655.153	-0.01
655.339	-0.04
655.524	-0.03
655.71	-0
655.895	-0.03
656.08	-0.01
656.266	0.02
656.451	0.03
656.636	-0.06
656.822	0.01
657.007	-0.04
657.192	-0.05
657.378	-0.09
657.563	0.01
657.748	-0.01
657.933	0
658.118	-0.03
658.304	-0.05
658.489	0.02
658.674	-0.02
658.859	-0.09
659.044	-0.02
659.229	-0.03
659.414	-0.04
659.599	-0.07
659.785	-0.08
659.97	-0.03
660.155	0.02
660.34	-0.02
660.525	-0.03
660.71	-0.02
660.895	0.02
661.08	-0.05
661.264	-0.04
661.449	0.03
661.634	0.03
661.819	-0.01
662.004	-0.04
662.189	-0.13
662.374	-0.05
662.559	-0.06
662.743	-0.06
662.928	-0.03
663.113	-0.09
663.298	-0.08
663.483	-0.04
663.667	0.01
663.852	-0.05
664.037	0.02
664.221	-0.06
664.406	0.03
664.591	-0.02
664.775	-0.03
664.96	-0.06
665.145	-0.01
665.329	0.01
665.514	-0.05
665.698	-0.06
665.883	-0.05
666.068	0.02
666.252	-0.04
666.437	-0.07
666.621	-0.04
666.806	-0.01
666.99	-0.01
667.174	-0.09
667.359	-0
667.543	-0.02
667.728	-0.03
667.912	-0.08
668.096	0.01
668.281	-0.04
668.465	-0.01
668.649	-0.02
668.834	-0.07
669.018	-0.03
669.202	-0.03
669.387	-0.03
669.571	0.01
669.755	-0.04
669.939	-0.02
670.124	-0.03
670.308	0.04
670.492	0.03
670.676	0
670.86	-0.03
671.044	-0.07
671.228	0
671.413	-0.04
671.597	-0.1
671.781	-0.05
671.965	-0.03
672.149	-0.05
672.333	-0.03
672.517	-0.02
672.701	0
672.885	-0.03
673.069	-0.08
673.253	0.02
673.437	-0.03
673.621	-0.06
673.804	0
673.988	-0.01
674.172	0
674.356	-0.06
674.54	-0.06
674.724	0.1
674.908	-0.03
675.091	0.02
675.275	-0.02
675.459	-0.01
675.643	-0.04
675.826	-0.03
676.01	-0.02
676.194	-0.04
676.377	0.03
676.561	0.02
676.745	-0.03
676.928	-0.02
677.112	-0
677.296	-0.06
677.479	-0.05
677.663	-0.05
677.846	0.01
678.03	-0.04
678.213	-0.01
678.397	0
678.58	-0.04
678.764	-0.03
678.947	-0.05
679.131	0.01
679.314	0.02
679.498	-0.03
679.681	-0.01
679.865	0.01
680.048	0.01
680.231	-0.03
680.415	-0.06
680.598	0
680.781	-0.02
680.965	-0.03
681.148	0.02
681.331	-0.06
681.514	-0.01
681.698	-0.1
681.881	-0.01
682.064	-0.01
682.247	-0.02
682.43	-0.1
682.614	0
682.797	0.02
682.98	-0.02
683.163	-0.05
683.346	0.02
683.529	-0.02
683.712	-0.08
683.895	0.02
684.078	-0.08
684.261	-0.05
684.444	0.01
684.627	0
684.81	-0.06
684.993	-0
685.176	-0
685.359	-0.05
685.542	-0.06
685.725	0.04
685.908	-0.03
686.091	-0.08
686.274	-0.02
686.457	0.01
686.639	-0.05
686.822	0
687.005	0.02
687.188	-0.01
687.371	0.07
687.553	0.01
687.736	0
687.919	0.05
688.102	0.07
688.284	-0.05
688.467	-0.03
688.65	-0.04
688.832	-0.01
689.015	-0.02
689.197	-0.08
689.38	0.07
689.563	0.04
689.745	-0.07
689.928	-0.06
690.11	-0.06
690.293	-0.01
690.475	-0.11
690.658	-0.02
690.84	-0.08
691.023	0.03
691.205	-0.08
691.388	-0.08
691.57	0.01
691.752	0.02
691.935	-0.11
692.117	-0.06
692.3	-0
692.482	-0.04
692.664	-0.02
692.847	0.03
693.029	0.01
693.211	-0
693.393	-0.11
693.576	-0.05
693.758	-0
693.94	-0.04
694.122	-0.04
694.304	-0.06
694.487	-0.03
694.669	0.04
694.851	-0.11
695.033	-0.03
695.215	-0.07
695.397	-0.05
695.579	0.01
695.761	-0.08
695.943	-0.1
696.125	0.07
696.308	-0.03
696.49	-0.07
696.671	0.08
696.853	-0
697.035	0.12
697.217	-0.01
697.399	-0.04
697.581	-0.03
697.763	-0.05
697.945	-0.1
698.127	-0.02
698.309	-0.03
698.491	-0.02
698.672	0.01
698.854	0.02
699.036	0.06
699.218	-0.08
699.399	0.03
699.581	0.05
699.763	-0.01
699.945	-0.1
700.126	-0.08
700.308	-0
700.49	-0.04
700.671	-0.1
700.853	-0.07
701.035	-0.02
701.216	-0.01
701.398	-0.05
701.579	-0.05
701.761	-0.01
701.943	-0.03
702.124	-0.03
702.306	-0.04
702.487	0.09
702.669	-0.03
702.85	-0.06
703.031	-0.06
703.213	0.12
703.394	0.05
703.576	-0.04
703.757	0.01
703.938	-0.02
704.12	0.12
704.301	-0.01
704.483	-0.04
704.664	-0.01
704.845	0.05
705.026	-0
705.208	-0.03
705.389	-0.01
705.57	-0.02
705.751	-0.09
705.933	0.01
706.114	0.07
706.295	0.03
706.476	-0.1
706.657	0.05
706.838	0.02
707.02	0.05
707.201	-0.04
707.382	-0.04
707.563	-0
707.744	-0.09
707.925	-0.05
708.106	-0.08
708.287	-0.07
708.468	0.04
708.649	-0.03
708.83	0.01
709.011	-0.09
709.192	0.04
709.373	-0.1
709.554	-0.1
709.734	-0.03
709.915	-0.03
710.096	-0.04
710.277	-0.13
710.458	-0.01
710.639	0.01
710.819	-0.15
711	-0.04
711.181	0.06
711.362	0.02
711.542	-0.04
711.723	-0.06
711.904	0.04
712.085	-0.06
712.265	0
712.446	-0.05
712.627	-0.01
712.807	-0.07
712.988	-0.01
713.168	-0.12
713.349	-0.03
713.53	-0.11
713.71	-0.05
713.891	-0.11
714.071	-0.02
714.252	-0.07
714.432	-0.13
714.613	-0.09
714.793	-0.05
714.974	0.06
715.154	-0
715.334	-0.02
715.515	0.01
715.695	-0.1
715.876	-0.03
716.056	-0.1
716.236	-0.11
716.417	-0.09
716.597	-0.12
716.777	0.09
716.957	-0.05
717.138	-0.05
717.318	-0.02
717.498	-0.16
717.678	0
717.859	-0.04
718.039	-0.12
718.219	0
718.399	0.06
718.579	-0.12
718.759	-0.16
718.939	-0.09
719.12	0.09
719.3	0.02
719.48	-0.17
719.66	-0.11
719.84	0.1
720.02	-0.04
720.2	-0.06
720.38	-0.04
720.56	-0.04
720.74	0.01
720.92	0.01
721.1	-0.02
721.279	0.07
721.459	-0.11
721.639	-0.16
721.819	0.01
721.999	-0.08
722.179	-0.01
722.359	-0.13
722.538	-0.06
722.718	-0.09
722.898	-0.03
723.078	-0.11
723.257	-0.06
723.437	-0.09
723.617	-0.03
723.797	-0.03
723.976	-0.04
724.156	0.03
724.336	0.07
724.515	0.12
724.695	-0.1
724.874	0.01
725.054	0.05
725.234	-0.09
725.413	-0.01
725.593	-0.04
725.772	-0.08
725.952	-0.01
726.131	-0.12
726.311	-0.01
726.49	-0.06
726.67	-0.11
726.849	-0.11
727.028	-0.03
727.208	-0.07
727.387	0.02
727.567	-0.16
727.746	-0.11
727.925	-0.04
728.105	-0.12
728.284	-0.04
728.463	-0.08
728.643	-0.03
728.822	-0.18
729.001	-0.16
729.18	-0.11
729.359	-0.01
729.539	0.01
729.718	0.03
729.897	0.02
730.076	-0.12
730.255	-0.08
730.434	-0.08
730.614	-0.01
730.793	-0.06
730.972	-0.08
731.151	-0.08
731.33	0.06
731.509	0
731.688	-0.03
731.867	-0.06
732.046	-0.14
732.225	0.07
732.404	-0.1
732.583	-0.1
732.762	-0.06
732.941	0
733.12	-0.02
733.298	-0.08
733.477	-0.01
733.656	-0.18
733.835	-0.14
734.014	0.02
734.193	-0.1
734.371	0.03
734.55	-0.03
734.729	-0.11
734.908	-0.16
735.086	0.04
735.265	0.02
735.444	-0.09
735.623	-0.18
735.801	-0.16
735.98	-0.13
736.159	-0.11
736.337	0.02
736.516	0.06
736.694	-0.08
736.873	-0.06
737.052	-0.02
737.23	0.11
737.409	-0.12
737.587	0.07
737.766	-0.18
737.944	-0.06
738.123	-0.02
738.301	-0.04
738.479	-0.06
738.658	-0.04
738.836	-0.28
739.015	-0.05
739.193	-0.07
739.371	-0.23
739.55	-0.12
739.728	-0.1
739.906	0.06
740.085	0.08
740.263	-0.03
740.441	-0.19
740.62	0.04
740.798	0.05
740.976	-0.16
741.154	-0.14
741.332	0.15
741.511	-0.09
741.689	-0.11
741.867	0.01
742.045	-0.06
742.223	-0.11
742.401	-0.17
742.579	-0.17
742.757	0.03
742.935	-0.19
743.114	-0.1
743.292	-0.13
743.47	-0.1
743.648	-0.07
743.826	-0.17
744.004	0.01
744.181	0.02
744.359	-0.15
744.537	-0.04
744.715	-0.08
744.893	-0.02
745.071	-0.05
745.249	-0.19
745.427	-0.03
745.605	0.02
745.782	-0.08
745.96	-0.06
746.138	0.09
746.316	-0.01
746.493	0.01
746.671	-0.04
746.849	-0.17
747.027	0.05
747.204	-0.13
747.382	0.03
747.56	-0.11
747.737	-0.13
747.915	-0.17
748.093	-0
748.27	-0.05
748.448	-0.11
748.625	-0.2
748.803	-0.1
748.98	-0.2
749.158	0.03
749.335	-0.04
749.513	-0.1
749.69	-0.09
749.868	-0.04
750.045	0.07
750.223	-0.1
750.4	-0.21
750.578	0.13
750.755	-0.1
750.932	-0.23
751.11	0.07
751.287	-0.21
751.464	0.02
751.642	-0.04
751.819	-0.08
751.996	-0.01
752.173	-0.12
752.351	-0.11
752.528	-0.05
752.705	-0.14
752.882	-0.09
753.06	-0.01
753.237	0.01
753.414	0.13
753.591	0.02
753.768	-0.07
753.945	-0.07
754.122	-0.15
754.299	0.02
754.476	-0.18
754.654	-0.07
754.831	0.02
755.008	-0.01
755.185	-0.08
755.362	-0.25
755.539	0.12
755.716	-0.15
755.892	-0.18
756.069	-0.08
756.246	-0.15
756.423	-0.14
756.6	0.05
756.777	0.04
756.954	-0.06
757.131	-0.11
757.307	-0.18
757.484	-0.16
757.661	0.06
757.838	-0.04
758.015	-0.16
758.191	-0.03
758.368	-0.06
758.545	0.03
758.721	0
758.898	-0.18
759.075	0.05
759.251	-0.03
759.428	-0.07
759.605	-0.28
759.781	-0.12
759.958	0.11
760.134	0.03
760.311	-0.06
760.488	0.02
760.664	0.15
760.841	-0.12
761.017	-0.22
761.194	0.04
761.37	0.07
761.547	-0.04
761.723	-0.09
761.899	0.01
762.076	-0.17
762.252	-0.14
762.429	-0.02
762.605	-0.09
762.781	-0.1
762.958	0.03
763.134	-0.06
763.31	-0.11
763.486	0
763.663	-0.2
763.839	0.06
764.015	-0.2
764.191	-0.05
764.368	-0.05
764.544	-0.11
764.72	-0.04
764.896	0.04
765.072	0.02
765.248	-0.01
765.425	0.03
765.601	-0.01
765.777	0.01
765.953	-0.32
766.129	-0.2
766.305	-0.14
766.481	-0.01
766.657	0.02
766.833	0.15
767.009	-0.16
767.185	-0.15
767.361	-0.09
767.537	-0.25
767.713	0.16
767.889	-0.07
768.065	-0.1
768.24	0.06
768.416	0.01
768.592	-0.18
768.768	-0.07
768.944	0.04
769.12	-0.15
769.295	-0.09
769.471	-0.03
769.647	-0.08
769.823	0.01
769.998	-0.11
770.174	-0.24
770.35	0.25
770.525	0.15
770.701	-0.09
770.877	-0.08
771.052	0.01
771.228	-0.09
771.403	0.06
771.579	0.02
771.755	0.23
771.93	-0.13
772.106	-0.11
772.281	-0.2
772.457	-0.05
772.632	-0.05
772.808	-0.24
772.983	-0.09
773.159	-0.19
773.334	0.1
773.509	-0.03
773.685	-0.06
773.86	0.36
774.036	0.2
774.211	-0.02
774.386	-0.18
774.562	-0.1
774.737	0.06
774.912	-0.28
775.087	0.04
775.263	-0.01
775.438	-0.07
775.613	-0.28
775.788	-0.03
775.964	0.13
776.139	0.34
776.314	-0.29
776.489	0.06
776.664	0.01
776.839	-0.26
777.014	0.01
777.19	-0.09
777.365	0.16
777.54	0.11
777.715	-0.15
777.89	-0.07
778.065	-0.25
778.24	-0.01
778.415	0.02
778.59	-0.26
778.765	-0.14
778.94	-0.21
779.115	-0.21
779.289	-0.17
779.464	-0.05
779.639	-0.08
779.814	-0.19
779.989	-0.31
780.164	0.29
780.339	-0.16
780.513	-0.25
780.688	-0.16
780.863	-0.07
781.038	0.03
781.212	-0.34
781.387	-0.08
781.562	0.46
781.737	0.01
781.911	0.1
782.086	-0.12
782.261	-0.21
782.435	0.19
782.61	-0.17
782.784	-0.17
782.959	0.04
783.134	-0.14
783.308	-0.29
783.483	-0.13
783.657	0.21
783.832	0.06
784.006	-0.4
784.181	-0.18
784.355	0.01
784.53	-0.04
784.704	-0.28
784.878	0.21
785.053	0.1
785.227	-0.02
785.402	0.32
785.576	-0.19
785.75	-0.05
785.925	-0.36
786.099	0.01
786.273	-0.11
786.448	0.33
786.622	0.1
786.796	-0.15
786.97	-0.15
787.145	0.31
787.319	-0.27
787.493	-0.15
787.667	-0.48
787.841	-0.01
788.015	0.12
788.19	-0.2
788.364	-0.06
788.538	0.01
788.712	-0.13
788.886	-0.14
789.06	-0.02
789.234	-0.12
789.408	-0.32
789.582	-0.22
789.756	-0.14
789.93	-0.42
790.104	-0.27
790.278	-0.27
790.452	-0.4
790.626	0.01
790.8	-0.14
790.973	-0.02
791.147	-0.03
791.321	0.18
791.495	0.27
791.669	-0.13
791.843	-0.02
792.016	0.2
792.19	0.26
792.364	-0.42
792.538	0.29
792.711	0.16
792.885	-0.08
793.059	-0.21
793.233	-0.56
793.406	0.18
793.58	-0.04
793.754	0.15
793.927	-0.03
794.101	0.09
794.274	0.12
794.448	0.01
794.622	-0.4
794.795	-0.01
794.969	-0.34
795.142	0.24
795.316	-0.05
795.489	-0.18
795.663	0.33
795.836	0.1
796.009	-0.17
796.183	0.24
796.356	-0.02
796.53	0.12
796.703	-0.21
796.876	0.44
797.05	-0.27
797.223	-0.06
797.396	0.13
797.57	-0.1
797.743	0.37
797.916	-0.01
798.09	-0.02
798.263	0.18
798.436	0.17
798.609	-0.25
798.782	-0.25
798.956	-0.06
799.129	-0.29
799.302	-0.2
799.475	-0.45
799.648	-0.47
799.821	-0.2
799.994	-0.25
800.167	-0.71
800.34	-0.05
800.514	-0.12
800.687	-0.21
800.86	-0.22
801.033	-0.11
801.206	0
801.379	-0.5
801.551	0.26
801.724	0.09
801.897	0.25
802.07	-0.48
802.243	-0.49
802.416	-0.32
802.589	-0.31
802.762	-0.32
802.935	-0.28
803.107	0.14
803.28	0.16
803.453	0.21
803.626	-0.3
803.798	-0.2
803.971	-0.43
804.144	-0.01
804.317	-0.29
804.489	-0.23
804.662	0.03
804.835	0.08
805.007	-0.3
805.18	0.18
805.353	-0.04
805.525	-0.27
805.698	-0.39
805.87	0.08
806.043	0.1
806.215	-0.23
806.388	-0.43
806.56	-0.08
806.733	0.27
806.905	-0.06
807.078	-0.22
807.25	-0.73
807.423	0.05
807.595	-0.2
807.768	-0.07
807.94	0.33
808.112	0.04
808.285	-0.03
808.457	-0.1
808.629	-0.17
808.802	0.3
808.974	-0.27
809.146	-0.35
809.318	-0.31
809.491	0.12
809.663	0.27
809.835	-0.26
810.007	-0.05
810.18	-0.12
810.352	-0.6
810.524	-0.12
810.696	-0.01
810.868	-0.01
811.04	-0.24
811.212	-0.07
811.384	-0.01
811.556	-0.13
811.728	-0.29
811.901	0.46
812.073	-0.29
812.245	-0.23
812.417	0.01
812.589	-0.78
812.76	-0.02
812.932	0.01
813.104	0.12
813.276	0.01
813.448	0.38
813.62	-0.14
813.792	-0.09
813.964	-0.13
814.136	-0.11
814.307	-0.47
814.479	-0.22
814.651	-0.22
814.823	0.56
814.995	-0.57
815.166	-0.22
815.338	-0.56
815.51	-0.43
815.681	0.86
815.853	-0.07
816.025	-0.07
816.196	0.1
816.368	-0.14
816.54	-0.42
816.711	-0.19
816.883	-0.09
817.054	0.7
817.226	-0.48
817.398	0.09
817.569	-0.16
817.741	0.15
817.912	-0.15
818.084	-0.25
818.255	0.25
818.426	-0.39
818.598	-0.24
818.769	-0.52
818.941	0.64
819.112	0.31
819.283	-0.1
819.455	-0.54
819.626	-0.35
819.798	-0.33
819.969	-0.28
820.14	-0.29
820.311	-0.19
820.483	0.15
820.654	0.17
820.825	-0.2
820.996	-0.14
821.168	-0.34
821.339	0.15
821.51	-0.32
821.681	-0.36
821.852	-0.22
822.023	-0.81
822.195	-0.44
822.366	0.26
822.537	-0.42
822.708	-0.08
822.879	-0.92
823.05	0.29
823.221	-0.23
823.392	-0.11
823.563	-0.34
823.734	-0.43
823.905	-0.6
824.076	-0.45
824.247	-0.61
824.418	-0.47
824.589	0.54
824.759	0.14
824.93	-0.21
825.101	-0.58
825.272	0.81
825.443	0.29
825.614	0.13
825.784	-1.61
825.955	0.97
826.126	0.14
826.297	-0.42
826.467	0.61
826.638	0.52
826.809	-0.76
826.98	-0.46
827.15	-0.24
827.321	-0.16
827.492	0.27
827.662	-0.34
827.833	0.41
828.003	-0.09
828.174	-0.45
828.345	-1.11
828.515	0.3
828.686	0.24
828.856	-0.6
829.027	-0.39
829.197	-0
829.368	0.37
829.538	-0.91
829.709	-0.08
829.879	0.08
830.049	-0.45
830.22	-0.49
830.39	0.24
830.56	0.27
830.731	-0.22
830.901	-0.33
831.072	-0.3
831.242	0.44
831.412	-0.23
831.582	-0.59
831.753	-0.49
831.923	-0
832.093	-0.48
832.263	-0.51
832.434	-0.99
832.604	-0.01
832.774	0.41
832.944	-0.35
833.114	-0.26
833.284	0.01
833.454	-0.71
833.624	-0.4
833.795	-0.33
833.965	0.69
834.135	0.41
834.305	-0.89
834.475	-0.9
834.645	-0.51
834.815	-0.14
834.985	-0.8
835.155	-0.35
835.325	-0.09
835.494	0.29
835.664	-0.24
835.834	-1.06
836.004	-0.32
836.174	0.58
836.344	-0.38
836.514	-0.97
836.684	-1.22
836.853	-0.38
837.023	-0.48
837.193	-0.43
837.363	0.31
837.532	0.53
837.702	-0.35
837.872	-0.41
838.041	0.53
838.211	1.02
838.381	-0.93
838.55	-0.11
838.72	1.49
838.89	1.32
839.059	-0.66
839.229	-0.21
839.398	1.19
839.568	0.21
839.738	-0.44
839.907	1.14
840.077	0.1
840.246	-1.18
840.416	-1.13
840.585	-1.4
840.755	0.27
840.924	-0.17
841.093	-0.77
841.263	-0.67
841.432	-0.12
841.602	-1.35
841.771	-1.26
841.94	-0.02
842.11	1.6
842.279	0.94
842.448	-1.28
842.617	-0.56
842.787	0.93
842.956	-1.34
843.125	0.13
843.294	-0.26
843.464	0.62
843.633	0.24
843.802	-1.05
843.971	-0.25
844.14	0.19
844.309	1.11
844.479	-0.54
844.648	-1.13
844.817	-1.28
844.986	0.23
845.155	-0.78
845.324	-0.65
845.493	-0.66
845.662	-0.78
845.831	0.48
846	-0.26
846.169	-0.59
846.338	0.82
846.507	0.34
846.676	0.23
846.844	-1.37
847.013	0.6
847.182	0.25
847.351	-1.16
847.52	-0.27
847.689	-0.68
847.858	-0.23
848.026	-1.26
848.195	0.1
848.364	-0.95
848.533	-0.75
848.701	-0.93
848.87	-0.27
849.039	1.27
849.207	-0.13
849.376	0.67
849.545	1.16
849.713	-0.68
849.882	-0.14
850.051	-0.12
850.219	-0.73
850.388	0.32
850.556	-1
850.725	-1.34
850.893	-0.82
851.062	-0.79
851.23	-0.07
851.399	-1.08
851.567	-0.31
851.736	-0.72
851.904	-0.89
852.073	-1.05
852.241	-0.2
852.41	-0.97
852.578	-0.65
852.746	-0.63
852.915	0.88
853.083	-0.39
853.251	-1.49
853.42	-0.9
853.588	-0.87
853.756	0.85
853.924	-0.19
854.093	-0.89
854.261	-0.52
854.429	-2.01
854.597	0.43
854.765	-1.08
854.934	0.17
855.102	-0.03
855.27	-0.17
855.438	-0.38
855.606	1.76
855.774	0.54
855.942	-1.62
856.11	-2.52
856.278	-0.15
856.446	-0.13
856.614	-0.18
856.782	-1.01
856.95	0.09
857.118	0.54
857.286	0.37
857.454	-1.44
857.622	0.41
857.79	-0.29
857.958	-1.92
858.126	-2.15
858.294	-3.11
858.462	-1.05
858.629	-0.3
858.797	-0.87
858.965	-0.66
859.133	-1.3
859.301	-0.33
859.468	0.74
859.636	-0.61
859.804	1.56
859.971	0.41
860.139	-1.18
860.307	0.47
860.474	-0.94
860.642	-1.89
860.81	-2.04
860.977	-0.68
861.145	1.2
861.313	0.7
861.48	0.39
861.648	-0.27
861.815	-0.67
861.983	-1.86
862.15	-0.3
862.318	1.07
862.485	-0.13
862.653	-1.53
862.82	-1.41
862.988	2.19
863.155	1.46
863.322	-1.26
863.49	-0.93
863.657	-0.32
863.824	1.35
863.992	0.18
864.159	-1.23
864.326	0.85
864.494	-0.3
864.661	0.91
864.828	-1.64
864.996	-0.11
865.163	0.71
865.33	-1.39
865.497	-2.59
865.664	-1.49
865.832	-3.04
865.999	-0.7
866.166	-2.67
866.333	-1.5
866.5	-2.73
866.667	-1
866.834	-1.2
867.001	0.61
867.168	-1.72
867.335	0.28
867.502	-2.1
867.669	0.33
867.836	1.44
868.003	-0.46
868.17	0.49
868.337	1.18
868.504	1.07
868.671	-3.51
868.838	-1.4
869.005	-0.34
869.172	0.45
869.339	0.28
869.505	-1.76
869.672	0.56
869.839	1.12
870.006	-0.89
870.173	-1.86
870.339	-0.57
870.506	-0.11
870.673	-2.48
870.84	1.44
871.006	-2.07
871.173	-0.78
871.34	-0.67
871.506	-1.41
871.673	-0.63
871.839	-1.22
872.006	1.15
872.173	-0.1
872.339	0.28
872.506	1.34
872.672	-0.94
872.839	-1.84
873.005	-1.36
873.172	3
873.338	2
873.505	-0.05
873.671	-1.39
873.838	0.43
874.004	-1.54
874.171	-1.26
874.337	-0.77
874.503	0.4
874.67	-1.55
874.836	-0.55
875.002	1.89
875.169	0.54
875.335	-0.52
875.501	-1.28
875.668	0.92
875.834	-0.55
876	-1.6
876.166	0.63
876.332	0.81
876.499	0.8
876.665	-1.03
876.831	0.2
876.997	2.58
877.163	-0.93
877.329	-1.59
877.495	0.2
877.662	-0.69
877.828	-0.6
877.994	0.7
878.16	-3.06
878.326	-1.81
878.492	1.54
878.658	-1
878.824	-0.42
878.99	0
879.156	-1.56
879.322	-0.65
879.487	0.25
879.653	-0.69
879.819	-0.28
879.985	-2.3
880.151	-0.78
880.317	-0.48
880.483	-1.34
880.648	0.58
880.814	-2.95
880.98	0
881.146	-3.9
881.312	-3.17
881.477	-1.09
881.643	-1.03
881.809	0.08
881.974	-0.39
882.14	-3.21
882.306	-1.16
882.471	1.3
882.637	-0.65
882.803	0.23
882.968	2.06
883.134	1.07
883.299	-0.76
883.465	0.04
883.63	0.21
883.796	-0.57
883.961	0.85
884.127	0.6
884.292	-4.95
884.458	-2.25
884.623	-2.25
