Data from Apollo_Calib_20240827__AbsoluteIrradiance__400__05-49-03-050.txt Node

Date: Wed Aug 28 05:49:03 BST 2024
User: biology
Spectrometer: FLMT08252
Trigger mode: 0
Integration Time (sec): 5.000000E-1
Scans to average: 5
Electric dark correction enabled: true
Nonlinearity correction enabled: false
Boxcar width: 0
XAxis mode: Wavelengths
Number of Pixels in Spectrum: 3648
>>>>>Begin Spectral Data<<<<<
179.588	-0
179.809	-0
180.03	-0
180.251	-0
180.473	-0
180.694	0
180.915	0
181.136	-0
181.357	-0
181.578	0
181.799	-0
182.02	-0
182.241	0
182.462	-0
182.683	0
182.904	-0
183.125	-0
183.346	0
183.567	0
183.788	-0
184.009	-0
184.23	0
184.451	0
184.672	-0
184.892	-0
185.113	0
185.334	0
185.555	-0
185.776	-0
185.996	0
186.217	0
186.438	0
186.659	-0
186.879	0
187.1	0
187.321	-0
187.541	-0
187.762	0
187.983	0
188.203	0
188.424	0
188.644	0
188.865	0
189.086	0
189.306	-0
189.527	0
189.747	0
189.968	-0
190.188	0
190.409	0
190.629	0
190.849	-0
191.07	-0
191.29	0
191.511	0
191.731	-0
191.951	-0
192.172	-0
192.392	0
192.612	-0
192.833	-0
193.053	0
193.273	0
193.493	0
193.714	-0
193.934	0
194.154	0
194.374	0
194.594	0
194.815	0
195.035	0
195.255	-0
195.475	-0
195.695	0
195.915	0
196.135	0
196.355	0
196.575	0
196.795	0
197.015	-0
197.235	-0
197.455	-0
197.675	0
197.895	-0
198.115	-0
198.335	0
198.555	-0
198.775	0
198.995	0
199.214	0
199.434	0
199.654	-0
199.874	-0
200.094	1.07
200.313	0.29
200.533	0.28
200.753	-0.05
200.973	0.94
201.192	0.44
201.412	-0.69
201.632	0.05
201.851	1.24
202.071	-0.02
202.291	-0.37
202.51	-0.63
202.73	0.74
202.95	-0.02
203.169	-0.52
203.389	-0.16
203.608	-0.14
203.828	-0.35
204.047	-0.36
204.267	0.48
204.486	0.08
204.706	0.3
204.925	0.01
205.145	-0.32
205.364	0.23
205.583	0.97
205.803	-0.12
206.022	-0.6
206.242	0.05
206.461	-0.2
206.68	-0.26
206.9	0.15
207.119	0.54
207.338	0.73
207.557	0.23
207.777	0.21
207.996	0.07
208.215	0.56
208.434	-0.38
208.654	-0.31
208.873	0.24
209.092	0.77
209.311	-0.04
209.53	-0.23
209.749	-0.01
209.968	-0.06
210.187	0.11
210.407	-0.49
210.626	0.01
210.845	0.39
211.064	0.02
211.283	-0.24
211.502	0.26
211.721	0
211.94	0.04
212.159	0.17
212.377	0.5
212.596	0.36
212.815	0.17
213.034	0.34
213.253	0.33
213.472	0.19
213.691	0.01
213.91	-0.16
214.128	0.01
214.347	0.56
214.566	-0.34
214.785	-0.21
215.003	0.37
215.222	0.19
215.441	-0.08
215.66	-0.16
215.878	-0.11
216.097	0.33
216.316	-0.2
216.534	-0.11
216.753	0.27
216.972	-0.08
217.19	0.06
217.409	-0.29
217.627	-0.19
217.846	-0.03
218.064	0.19
218.283	-0.27
218.501	0.45
218.72	0.37
218.938	-0.08
219.157	0.02
219.375	0.26
219.594	0.25
219.812	-0.08
220.031	-0.26
220.249	0.49
220.467	0.27
220.686	-0.08
220.904	-0.15
221.122	-0.06
221.341	0.38
221.559	0.11
221.777	-0.2
221.995	0
222.214	0.07
222.432	-0.11
222.65	0.11
222.868	0.12
223.086	0.12
223.305	0.19
223.523	-0.07
223.741	0.31
223.959	-0.05
224.177	-0.21
224.395	-0.07
224.613	0.06
224.831	0.26
225.049	-0.08
225.267	-0.03
225.485	0.06
225.703	0.06
225.921	0.08
226.139	0.02
226.357	0.19
226.575	0.07
226.793	-0.12
227.011	0.58
227.229	0.05
227.447	0.22
227.665	-0.07
227.883	-0.13
228.1	0.01
228.318	0.15
228.536	-0.1
228.754	0.01
228.972	0.11
229.189	0.14
229.407	-0.18
229.625	-0.07
229.843	0.24
230.06	0.16
230.278	-0.06
230.496	0.03
230.713	-0.03
230.931	0.12
231.149	-0.05
231.366	-0.19
231.584	0.02
231.801	0.33
232.019	0.14
232.236	-0.19
232.454	-0.14
232.671	-0.02
232.889	0
233.106	-0.09
233.324	0.11
233.541	-0
233.759	-0.04
233.976	-0.1
234.194	-0.03
234.411	-0.13
234.628	0.05
234.846	-0.01
235.063	0
235.28	0.05
235.498	0.04
235.715	-0.09
235.932	0.18
236.149	0
236.367	-0.11
236.584	0.15
236.801	0.02
237.018	0.18
237.236	0.05
237.453	-0.21
237.67	0.09
237.887	0.03
238.104	-0.05
238.321	-0.09
238.538	-0.06
238.755	0.19
238.973	-0.12
239.19	-0.01
239.407	0.06
239.624	0.05
239.841	-0.13
240.058	-0.08
240.275	0.07
240.492	0.03
240.709	0.02
240.925	-0.07
241.142	0.06
241.359	-0.12
241.576	-0.11
241.793	-0.05
242.01	0.03
242.227	0.13
242.444	0.05
242.66	0.12
242.877	0.14
243.094	0.02
243.311	0.03
243.527	-0.02
243.744	0.14
243.961	0.18
244.178	-0.03
244.394	-0.08
244.611	0.13
244.828	0.22
245.044	-0.05
245.261	0.06
245.477	-0.02
245.694	0.15
245.911	-0.1
246.127	-0.02
246.344	0.08
246.56	0.09
246.777	-0.01
246.993	-0.01
247.21	0.09
247.426	0.07
247.643	-0.01
247.859	-0.01
248.076	-0.04
248.292	0.22
248.508	0.02
248.725	0.08
248.941	0.1
249.157	0.15
249.374	0.02
249.59	0.04
249.806	0.02
250.023	0.08
250.239	-0.04
250.455	0.01
250.671	0.01
250.888	0.12
251.104	0.1
251.32	0.02
251.536	-0.06
251.752	0.01
251.969	0.03
252.185	0.03
252.401	0.21
252.617	0.11
252.833	0.06
253.049	0.08
253.265	-0.01
253.481	0.1
253.697	-0.06
253.913	-0.08
254.129	0.1
254.345	0.06
254.561	0.02
254.777	-0.03
254.993	0.08
255.209	0.01
255.425	-0
255.641	0
255.857	0.08
256.073	0.08
256.288	-0.09
256.504	-0.05
256.72	0.05
256.936	0.18
257.152	-0.07
257.367	-0.1
257.583	0.06
257.799	0.18
258.015	-0.02
258.23	0.03
258.446	0.2
258.662	0.03
258.877	-0.08
259.093	0.03
259.309	0.07
259.524	0.03
259.74	-0.03
259.955	-0.09
260.171	0.04
260.387	-0.01
260.602	0.1
260.818	0.09
261.033	-0.02
261.249	0.09
261.464	-0.05
261.68	-0.08
261.895	0.06
262.11	0.08
262.326	-0.01
262.541	-0.12
262.757	0.05
262.972	0.02
263.187	0.08
263.403	0.04
263.618	0.12
263.833	0.08
264.049	0.01
264.264	0.01
264.479	0.07
264.694	0.09
264.91	-0.07
265.125	-0.03
265.34	0.07
265.555	0.11
265.77	-0.01
265.986	-0.03
266.201	0.05
266.416	0.08
266.631	-0.02
266.846	-0.01
267.061	0.06
267.276	0.06
267.491	-0.15
267.706	0.04
267.921	0.06
268.136	0.02
268.351	0.02
268.566	-0.09
268.781	0.08
268.996	0.05
269.211	-0.06
269.426	-0.09
269.641	-0.01
269.856	0.06
270.071	-0.03
270.285	-0.05
270.5	0.11
270.715	0.08
270.93	-0.02
271.145	0.08
271.359	0.05
271.574	0
271.789	0.05
272.004	0.01
272.218	0.03
272.433	0.09
272.648	-0.05
272.862	0.07
273.077	0.02
273.292	0.01
273.506	-0.08
273.721	0.07
273.936	0.05
274.15	0.12
274.365	-0.01
274.579	0.03
274.794	0.07
275.008	0.04
275.223	-0.07
275.437	0.07
275.652	0.06
275.866	0.1
276.081	0.01
276.295	0.05
276.509	0.11
276.724	0.08
276.938	0
277.153	0.01
277.367	0.02
277.581	0
277.796	-0.03
278.01	-0.01
278.224	0.06
278.438	0.09
278.653	-0.02
278.867	-0.02
279.081	-0.02
279.295	-0.03
279.51	0.06
279.724	-0.01
279.938	0.04
280.152	0.02
280.366	-0.02
280.58	0.05
280.794	0.16
281.008	-0.01
281.222	0.08
281.437	0.15
281.651	0.02
281.865	0.04
282.079	0
282.293	-0.1
282.507	-0.03
282.721	0.03
282.935	0.06
283.148	-0.05
283.362	-0.02
283.576	-0.02
283.79	0.05
284.004	-0
284.218	0.09
284.432	0.03
284.646	0.01
284.859	-0.05
285.073	-0
285.287	-0
285.501	-0
285.714	0.01
285.928	0.02
286.142	0.03
286.356	-0.01
286.569	0.01
286.783	0.16
286.997	0.05
287.21	0.05
287.424	0.02
287.637	0.02
287.851	-0.02
288.065	0.03
288.278	0.02
288.492	0.04
288.705	0.04
288.919	0.06
289.132	-0.06
289.346	0.07
289.559	-0.03
289.773	-0.02
289.986	-0.04
290.2	0.03
290.413	0.1
290.626	-0.05
290.84	0.03
291.053	-0.01
291.267	0.07
291.48	-0.03
291.693	0.05
291.906	-0.01
292.12	-0.02
292.333	-0.01
292.546	-0
292.76	0.15
292.973	0.06
293.186	0.05
293.399	-0.01
293.612	0.06
293.826	0.05
294.039	0.01
294.252	0.04
294.465	0.09
294.678	0.07
294.891	0.03
295.104	-0.04
295.317	-0
295.53	0.02
295.743	-0.02
295.956	-0
296.169	0.08
296.382	0.02
296.595	-0.02
296.808	-0
297.021	0.06
297.234	0.05
297.447	0.02
297.66	0.08
297.873	0.08
298.086	-0.02
298.299	-0.03
298.511	0.02
298.724	-0.03
298.937	0.01
299.15	-0.01
299.363	0.01
299.575	0.05
299.788	0.03
300.001	0.05
300.213	-0.04
300.426	0.02
300.639	-0
300.852	-0.02
301.064	0.06
301.277	0.09
301.489	0.04
301.702	0.06
301.915	0.03
302.127	0.03
302.34	0.04
302.552	0.02
302.765	-0.01
302.977	0.09
303.19	-0.02
303.402	0.03
303.615	0.03
303.827	0.01
304.04	0.04
304.252	0.05
304.464	-0.03
304.677	0.17
304.889	0.01
305.102	-0.03
305.314	0
305.526	0.08
305.739	0.05
305.951	-0.03
306.163	-0.03
306.375	0.13
306.588	0.03
306.8	0
307.012	0
307.224	0.03
307.436	0.07
307.649	-0.03
307.861	0.01
308.073	0.07
308.285	-0
308.497	-0.02
308.709	0.05
308.921	0.02
309.133	0.07
309.346	0.03
309.558	-0
309.77	0.04
309.982	0.06
310.194	0.06
310.406	-0.02
310.617	0.1
310.829	0.03
311.041	0.03
311.253	-0.04
311.465	0.01
311.677	0.05
311.889	0.04
312.101	-0.02
312.313	0.08
312.524	0.04
312.736	-0.02
312.948	0.04
313.16	0.08
313.372	0.06
313.583	0.01
313.795	0.04
314.007	-0.01
314.218	0.08
314.43	0.05
314.642	-0.02
314.853	-0
315.065	0.05
315.277	0.01
315.488	0.04
315.7	0.07
315.912	0.02
316.123	0.01
316.335	0.03
316.546	0.11
316.758	-0.01
316.969	-0.02
317.181	0.06
317.392	0.06
317.604	0.09
317.815	0.02
318.026	0
318.238	0.02
318.449	0.01
318.661	-0.03
318.872	-0.02
319.083	-0.06
319.295	0.04
319.506	-0.01
319.717	0.06
319.929	0.05
320.14	0.02
320.351	0.02
320.562	0.01
320.774	-0.01
320.985	-0.04
321.196	-0.07
321.407	-0.05
321.618	0.05
321.829	0.04
322.041	0.06
322.252	0.02
322.463	0.01
322.674	0.07
322.885	-0.02
323.096	-0.02
323.307	0.04
323.518	0.07
323.729	-0.02
323.94	0.03
324.151	-0
324.362	0.06
324.573	0.06
324.784	-0.02
324.995	0.06
325.206	0.04
325.417	-0.03
325.628	-0
325.838	0.05
326.049	0.04
326.26	0.07
326.471	-0.02
326.682	0.03
326.892	0.02
327.103	-0
327.314	0
327.525	0.08
327.735	0
327.946	0.02
328.157	-0.03
328.368	0.03
328.578	0
328.789	0.02
328.999	0.03
329.21	0.02
329.421	0.08
329.631	-0
329.842	-0.02
330.052	0.05
330.263	0.05
330.473	0.05
330.684	0.01
330.894	0.04
331.105	0.04
331.315	0.03
331.526	-0
331.736	0.09
331.947	0.03
332.157	0.05
332.367	-0.03
332.578	0.05
332.788	0.08
332.999	0.03
333.209	-0
333.419	-0.07
333.629	0.03
333.84	0.08
334.05	0.01
334.26	0.04
334.47	0.01
334.681	0.07
334.891	-0
335.101	0.08
335.311	0.08
335.521	0.03
335.732	0.01
335.942	0.06
336.152	0.08
336.362	0.05
336.572	0.01
336.782	0.05
336.992	-0.02
337.202	0
337.412	0.03
337.622	0.04
337.832	0.03
338.042	-0.01
338.252	0
338.462	-0.01
338.672	0.01
338.882	-0.04
339.092	-0.04
339.302	0.08
339.511	0.05
339.721	-0.03
339.931	0.04
340.141	0.08
340.351	0.03
340.561	0.05
340.77	0.02
340.98	0.01
341.19	0.06
341.4	-0.01
341.609	-0.03
341.819	0.01
342.029	-0.06
342.238	0
342.448	-0.02
342.658	0.05
342.867	0.04
343.077	0.07
343.286	0.03
343.496	0.02
343.706	0.07
343.915	-0.04
344.125	0.03
344.334	0.06
344.544	-0.01
344.753	-0.01
344.963	0.02
345.172	-0.03
345.381	0
345.591	-0.04
345.8	-0
346.01	0.12
346.219	0.04
346.428	-0.15
346.638	-0.01
346.847	-0
347.056	0.08
347.266	-0.02
347.475	0.03
347.684	0.06
347.893	0.02
348.103	0.05
348.312	-0.01
348.521	-0.03
348.73	0.02
348.94	0.01
349.149	0.04
349.358	0.01
349.567	-0.02
349.776	-0.07
349.985	-0.01
350.194	0.09
350.403	0.07
350.612	-0.03
350.821	-0.02
351.03	0.01
351.239	-0.02
351.448	-0
351.657	0.02
351.866	0.08
352.075	0.05
352.284	0.05
352.493	-0.03
352.702	0.1
352.911	0.02
353.12	0.02
353.329	0.02
353.538	0.04
353.746	0
353.955	-0.04
354.164	0.02
354.373	-0.01
354.582	0.06
354.79	0.05
354.999	0.07
355.208	0.02
355.416	0.07
355.625	-0.04
355.834	0.02
356.042	0.02
356.251	-0.01
356.46	0
356.668	0.06
356.877	0.1
357.085	0.07
357.294	-0.05
357.503	0.06
357.711	0.02
357.92	0.16
358.128	0.02
358.337	0.02
358.545	0.02
358.754	0.01
358.962	0.03
359.17	0.02
359.379	0.07
359.587	0.06
359.796	-0
360.004	0.08
360.212	0.03
360.421	0.07
360.629	-0.01
360.837	-0.01
361.046	0.08
361.254	0.12
361.462	0.06
361.67	-0.04
361.879	0.03
362.087	0.1
362.295	0.02
362.503	-0.01
362.711	-0.09
362.92	-0.02
363.128	-0.02
363.336	-0.01
363.544	-0.04
363.752	0.03
363.96	0.01
364.168	-0.02
364.376	0.02
364.584	0.08
364.792	0.05
365	0.07
365.208	0.02
365.416	0.02
365.624	0.05
365.832	0.01
366.04	0.06
366.248	0.04
366.456	0.05
366.664	-0
366.872	0
367.079	0.02
367.287	0.04
367.495	0.04
367.703	0
367.911	0.01
368.118	0.01
368.326	0.03
368.534	-0.03
368.742	0.09
368.949	-0.04
369.157	-0.02
369.365	0.08
369.572	0.03
369.78	-0.02
369.988	0.06
370.195	0.04
370.403	0.07
370.61	0.01
370.818	0.04
371.026	0.06
371.233	-0.02
371.441	0.02
371.648	0.01
371.856	0.01
372.063	0.02
372.271	-0.01
372.478	0
372.685	0
372.893	0.03
373.1	-0
373.308	0.04
373.515	0.08
373.722	0.07
373.93	0.03
374.137	0.05
374.344	0.08
374.552	0.07
374.759	0.09
374.966	0.05
375.173	0.02
375.381	0.07
375.588	0
375.795	-0.04
376.002	-0
376.209	-0.03
376.417	-0.01
376.624	0.05
376.831	0.06
377.038	0.04
377.245	-0.05
377.452	-0
377.659	0.03
377.866	-0.04
378.073	0.02
378.28	-0.03
378.487	0.06
378.694	0.05
378.901	0.01
379.108	0.03
379.315	0.02
379.522	0.09
379.729	0.04
379.936	0.03
380.143	0.03
380.35	0.06
380.557	0.01
380.763	0.02
380.97	0.01
381.177	0.05
381.384	0.06
381.591	-0.05
381.797	0
382.004	0.03
382.211	0.04
382.418	0.08
382.624	0.09
382.831	0.05
383.038	0.01
383.244	0.02
383.451	0.03
383.658	0.03
383.864	-0
384.071	-0.01
384.277	0.1
384.484	-0
384.69	0.04
384.897	-0
385.103	0.05
385.31	-0
385.516	-0.01
385.723	-0.02
385.929	0.01
386.136	-0.02
386.342	0.05
386.549	0.01
386.755	0.11
386.961	0.05
387.168	0
387.374	0.02
387.58	0.08
387.787	0.04
387.993	0.05
388.199	0.02
388.406	0.03
388.612	0.04
388.818	0.03
389.024	0
389.231	0.06
389.437	0.1
389.643	0.06
389.849	0.01
390.055	0.04
390.261	0.05
390.467	0.04
390.674	-0.02
390.88	0.04
391.086	0.05
391.292	0
391.498	0.05
391.704	0.02
391.91	0.02
392.116	0.02
392.322	-0.06
392.528	0.06
392.734	0.03
392.94	0.01
393.146	-0.02
393.352	0.06
393.557	-0.01
393.763	0.03
393.969	0.04
394.175	0.03
394.381	0.02
394.587	-0.02
394.792	0.01
394.998	0.07
395.204	0.09
395.41	-0.02
395.615	0.04
395.821	0.05
396.027	0.06
396.233	-0.02
396.438	0.09
396.644	0.11
396.85	0.01
397.055	0
397.261	0.02
397.466	0.14
397.672	0.01
397.878	0.07
398.083	0.04
398.289	0.01
398.494	0.07
398.7	0.03
398.905	-0.02
399.111	0.14
399.316	-0.03
399.522	0.04
399.727	0.04
399.932	0.04
400.138	0.04
400.343	0.08
400.549	0.01
400.754	0.04
400.959	0.02
401.165	0.04
401.37	0.07
401.575	0.1
401.78	0.08
401.986	0.01
402.191	-0.02
402.396	0.03
402.601	0.05
402.807	0.05
403.012	0.01
403.217	0.06
403.422	0.05
403.627	0
403.832	0.02
404.037	0.05
404.243	0.06
404.448	0.01
404.653	0.02
404.858	0.01
405.063	0.07
405.268	0
405.473	-0.02
405.678	0.03
405.883	0.15
406.088	0.05
406.293	-0.02
406.498	-0.01
406.703	0.05
406.907	0.08
407.112	-0.08
407.317	0.02
407.522	0.06
407.727	-0.05
407.932	0.04
408.136	0.04
408.341	0.05
408.546	0.05
408.751	-0.01
408.956	0.01
409.16	0.02
409.365	0.05
409.57	-0.02
409.774	0.05
409.979	0.06
410.184	0.01
410.388	-0.01
410.593	0.12
410.798	0.06
411.002	0.04
411.207	0.03
411.411	0.04
411.616	-0.04
411.82	0.01
412.025	0.03
412.229	-0.02
412.434	0.05
412.638	0
412.843	0.01
413.047	0.02
413.252	-0.03
413.456	0
413.66	0.03
413.865	-0.02
414.069	0.1
414.273	-0.04
414.478	0.01
414.682	0
414.886	-0.01
415.091	-0.05
415.295	-0.05
415.499	0.05
415.703	0
415.908	0.06
416.112	-0.09
416.316	0.05
416.52	0.02
416.724	-0.04
416.929	-0.01
417.133	0.12
417.337	0.01
417.541	-0.03
417.745	0.02
417.949	0.02
418.153	0.06
418.357	-0.03
418.561	0.11
418.765	0.03
418.969	0.13
419.173	0.05
419.377	0.03
419.581	0.12
419.785	0.01
419.989	-0.01
420.193	-0.03
420.397	0.02
420.601	0.09
420.804	0.08
421.008	0.01
421.212	0.02
421.416	0.1
421.62	-0.03
421.823	0.02
422.027	0.11
422.231	0.06
422.435	0.05
422.638	0.03
422.842	0.06
423.046	-0.03
423.249	0.07
423.453	0.07
423.657	0.07
423.86	0.07
424.064	0.01
424.268	0.06
424.471	0.04
424.675	0.1
424.878	0.1
425.082	0.02
425.285	0.11
425.489	0.05
425.692	0.02
425.896	-0.03
426.099	0.06
426.303	-0.01
426.506	-0.04
426.71	0.05
426.913	0.08
427.116	0.07
427.32	0.01
427.523	0.02
427.726	0.12
427.93	-0.05
428.133	0.01
428.336	-0.02
428.54	-0.02
428.743	0.03
428.946	0.04
429.149	-0.01
429.353	0.03
429.556	0
429.759	0.08
429.962	-0.04
430.165	0.03
430.368	0.06
430.571	0.03
430.775	0.06
430.978	0.03
431.181	0.07
431.384	0.07
431.587	0.01
431.79	0.02
431.993	-0.05
432.196	0.04
432.399	0
432.602	0.11
432.805	0.01
433.008	0.05
433.211	0
433.414	0.04
433.616	0.01
433.819	0.04
434.022	-0.03
434.225	0.15
434.428	0.04
434.631	0.11
434.833	0.04
435.036	0.02
435.239	0.1
435.442	0.1
435.645	0.01
435.847	0.06
436.05	0.04
436.253	0.09
436.455	-0.07
436.658	0.07
436.861	0.13
437.063	-0.02
437.266	0.03
437.468	0.07
437.671	0.23
437.874	0.03
438.076	-0.01
438.279	-0.03
438.481	0.03
438.684	-0.01
438.886	0.07
439.089	-0.04
439.291	0.08
439.494	0.1
439.696	0.01
439.899	0.03
440.101	0.09
440.303	-0.02
440.506	0.08
440.708	0.03
440.91	0.1
441.113	-0.02
441.315	0.05
441.517	-0.03
441.72	0.07
441.922	-0.02
442.124	-0.02
442.326	0
442.529	0.12
442.731	0
442.933	0.06
443.135	0.07
443.337	-0.01
443.539	0.05
443.742	0.04
443.944	0.04
444.146	0.01
444.348	0.02
444.55	0.04
444.752	0.03
444.954	-0.03
445.156	0.03
445.358	0.03
445.56	0.12
445.762	0.03
445.964	0.07
446.166	0.04
446.368	0.02
446.57	0.16
446.772	0.04
446.974	-0.02
447.175	0.04
447.377	0.03
447.579	-0.01
447.781	-0.06
447.983	0.11
448.184	0.02
448.386	0.03
448.588	-0.06
448.79	0.06
448.991	0.04
449.193	0.03
449.395	-0.01
449.597	0.11
449.798	0.08
450	0.05
450.202	0.07
450.403	0.05
450.605	0.08
450.806	0.02
451.008	0.01
451.21	0.02
451.411	0.07
451.613	0.04
451.814	0.01
452.016	0.11
452.217	0.08
452.419	0.09
452.62	0.01
452.821	0.04
453.023	0.16
453.224	0.07
453.426	0.01
453.627	0.05
453.828	0.1
454.03	0.02
454.231	0.05
454.432	-0.01
454.634	0.07
454.835	0.01
455.036	0
455.238	0.11
455.439	0.12
455.64	0.05
455.841	-0.03
456.042	0.14
456.244	0.02
456.445	0.02
456.646	-0.01
456.847	0.02
457.048	0.08
457.249	0.1
457.45	0.21
457.651	0.01
457.852	0.07
458.054	0.07
458.255	0.08
458.456	0.07
458.657	0.1
458.858	0.01
459.058	0.03
459.259	0.11
459.46	0.01
459.661	-0
459.862	0.19
460.063	0.04
460.264	0.13
460.465	-0.03
460.666	0.16
460.866	-0.02
461.067	0.01
461.268	0.05
461.469	0.03
461.67	0.02
461.87	0.03
462.071	0
462.272	0.02
462.473	0.03
462.673	0.06
462.874	0.07
463.075	0.05
463.275	0.03
463.476	0.05
463.676	0.06
463.877	0.04
464.078	0.04
464.278	0.09
464.479	0.06
464.679	0.02
464.88	0.05
465.08	0.11
465.281	-0.02
465.481	0.07
465.682	0.02
465.882	0.06
466.083	0.09
466.283	0.05
466.483	0.07
466.684	-0.01
466.884	-0.01
467.085	0.06
467.285	0.09
467.485	-0
467.686	0.07
467.886	-0.02
468.086	0.03
468.286	0.03
468.487	0.07
468.687	-0.01
468.887	0.04
469.087	0.07
469.287	-0
469.488	-0.03
469.688	0.08
469.888	0.11
470.088	0.08
470.288	0.12
470.488	0.09
470.688	0.01
470.888	0.04
471.088	0
471.288	0.1
471.488	0.07
471.688	0.08
471.888	0.04
472.088	0.08
472.288	0.1
472.488	0.02
472.688	0.03
472.888	0.07
473.088	0.08
473.288	0.07
473.488	0.05
473.688	0.15
473.887	0.08
474.087	0.03
474.287	0.09
474.487	0.01
474.687	0.08
474.886	0.05
475.086	0.07
475.286	0.05
475.486	0.09
475.685	0.11
475.885	0.04
476.085	0.09
476.284	0.06
476.484	0.06
476.684	0.07
476.883	0.12
477.083	0.07
477.282	0.05
477.482	0.13
477.681	0.12
477.881	0.08
478.08	0.06
478.28	0.04
478.479	0.12
478.679	0.16
478.878	0.05
479.078	0.07
479.277	0.1
479.477	0.08
479.676	0.11
479.875	0.07
480.075	0.03
480.274	0.11
480.473	0.12
480.673	0.06
480.872	0.13
481.071	0.09
481.271	0.1
481.47	0.08
481.669	0.1
481.868	0.06
482.067	0.1
482.267	0.06
482.466	0.06
482.665	0.09
482.864	0.06
483.063	0.07
483.262	0.16
483.461	0.17
483.661	0.13
483.86	0.15
484.059	0.14
484.258	0.15
484.457	0.15
484.656	0.13
484.855	0.21
485.054	0.09
485.253	0.12
485.452	0.1
485.651	0.16
485.849	0.16
486.048	0.11
486.247	0.13
486.446	0.17
486.645	0.11
486.844	0.14
487.043	0.15
487.241	0.21
487.44	0.16
487.639	0.16
487.838	0.18
488.037	0.19
488.235	0.21
488.434	0.18
488.633	0.16
488.831	0.21
489.03	0.24
489.229	0.2
489.427	0.21
489.626	0.23
489.825	0.25
490.023	0.23
490.222	0.21
490.42	0.27
490.619	0.25
490.817	0.26
491.016	0.24
491.214	0.28
491.413	0.24
491.611	0.26
491.81	0.25
492.008	0.28
492.207	0.3
492.405	0.31
492.604	0.24
492.802	0.32
493	0.3
493.199	0.29
493.397	0.29
493.595	0.33
493.794	0.34
493.992	0.4
494.19	0.37
494.388	0.36
494.587	0.35
494.785	0.38
494.983	0.34
495.181	0.4
495.379	0.4
495.578	0.4
495.776	0.42
495.974	0.41
496.172	0.41
496.37	0.44
496.568	0.41
496.766	0.44
496.964	0.51
497.162	0.52
497.36	0.47
497.558	0.53
497.756	0.55
497.954	0.54
498.152	0.51
498.35	0.57
498.548	0.56
498.746	0.58
498.944	0.55
499.142	0.57
499.34	0.59
499.538	0.67
499.736	0.62
499.933	0.7
500.131	0.69
500.329	0.74
500.527	0.77
500.725	0.8
500.922	0.79
501.12	0.82
501.318	0.8
501.516	0.81
501.713	0.85
501.911	0.86
502.109	0.83
502.306	0.91
502.504	0.88
502.701	0.89
502.899	0.93
503.097	1.04
503.294	0.99
503.492	1
503.689	1.06
503.887	1.08
504.084	1.15
504.282	1.11
504.479	1.1
504.677	1.19
504.874	1.17
505.072	1.19
505.269	1.27
505.466	1.28
505.664	1.32
505.861	1.3
506.059	1.34
506.256	1.39
506.453	1.4
506.651	1.51
506.848	1.52
507.045	1.51
507.242	1.57
507.44	1.58
507.637	1.63
507.834	1.63
508.031	1.68
508.229	1.66
508.426	1.66
508.623	1.82
508.82	1.83
509.017	1.79
509.214	1.84
509.411	1.96
509.608	1.91
509.805	2.02
510.003	2.02
510.2	2.03
510.397	2.18
510.594	2.12
510.791	2.2
510.988	2.21
511.184	2.23
511.381	2.21
511.578	2.32
511.775	2.41
511.972	2.35
512.169	2.47
512.366	2.45
512.563	2.53
512.76	2.62
512.956	2.66
513.153	2.62
513.35	2.63
513.547	2.65
513.744	2.75
513.94	2.78
514.137	2.87
514.334	2.89
514.53	2.9
514.727	3.03
514.924	3.05
515.12	3.04
515.317	3.05
515.514	3.02
515.71	3.05
515.907	3.21
516.103	3.25
516.3	3.27
516.497	3.3
516.693	3.33
516.89	3.36
517.086	3.41
517.283	3.45
517.479	3.35
517.676	3.53
517.872	3.54
518.068	3.55
518.265	3.56
518.461	3.56
518.658	3.67
518.854	3.67
519.05	3.71
519.247	3.76
519.443	3.75
519.639	3.83
519.836	3.74
520.032	3.78
520.228	3.83
520.424	3.88
520.621	3.88
520.817	3.89
521.013	3.84
521.209	3.99
521.405	3.94
521.601	3.96
521.798	3.93
521.994	3.97
522.19	3.92
522.386	3.96
522.582	3.99
522.778	4.03
522.974	3.96
523.17	4.01
523.366	3.96
523.562	3.97
523.758	4.03
523.954	3.9
524.15	4.01
524.346	4
524.542	4
524.738	3.93
524.934	3.99
525.129	3.96
525.325	3.88
525.521	3.89
525.717	3.98
525.913	3.89
526.109	3.89
526.304	3.87
526.5	3.84
526.696	3.85
526.892	3.81
527.087	3.93
527.283	3.81
527.479	3.78
527.674	3.66
527.87	3.77
528.066	3.75
528.261	3.7
528.457	3.62
528.653	3.64
528.848	3.62
529.044	3.67
529.239	3.52
529.435	3.52
529.63	3.44
529.826	3.48
530.021	3.49
530.217	3.45
530.412	3.34
530.608	3.34
530.803	3.27
530.999	3.26
531.194	3.22
531.389	3.25
531.585	3.15
531.78	3.25
531.975	3.14
532.171	3.15
532.366	3.11
532.561	3.06
532.757	3.02
532.952	3.05
533.147	2.91
533.342	2.96
533.538	2.85
533.733	2.93
533.928	2.77
534.123	2.77
534.318	2.81
534.513	2.69
534.709	2.76
534.904	2.7
535.099	2.69
535.294	2.65
535.489	2.63
535.684	2.58
535.879	2.5
536.074	2.53
536.269	2.51
536.464	2.45
536.659	2.43
536.854	2.4
537.049	2.42
537.244	2.35
537.439	2.3
537.634	2.34
537.828	2.28
538.023	2.28
538.218	2.18
538.413	2.18
538.608	2.15
538.803	2.18
538.997	2.08
539.192	2.11
539.387	2.07
539.582	2.04
539.776	1.99
539.971	1.99
540.166	1.99
540.36	1.96
540.555	1.96
540.75	1.97
540.944	1.93
541.139	1.86
541.334	1.86
541.528	1.89
541.723	1.86
541.917	1.81
542.112	1.73
542.306	1.71
542.501	1.7
542.695	1.76
542.89	1.67
543.084	1.71
543.279	1.66
543.473	1.66
543.668	1.65
543.862	1.59
544.056	1.58
544.251	1.61
544.445	1.59
544.64	1.55
544.834	1.44
545.028	1.45
545.222	1.44
545.417	1.51
545.611	1.46
545.805	1.46
546	1.37
546.194	1.39
546.388	1.39
546.582	1.43
546.776	1.34
546.97	1.32
547.165	1.34
547.359	1.32
547.553	1.24
547.747	1.28
547.941	1.27
548.135	1.25
548.329	1.28
548.523	1.25
548.717	1.14
548.911	1.17
549.105	1.14
549.299	1.16
549.493	1.16
549.687	1.12
549.881	1.14
550.075	1.1
550.269	1.04
550.463	1.05
550.657	1.02
550.85	1.02
551.044	1.01
551.238	1.03
551.432	0.97
551.626	0.97
551.82	0.99
552.013	0.93
552.207	0.94
552.401	0.97
552.594	0.92
552.788	0.9
552.982	0.89
553.176	0.87
553.369	0.87
553.563	0.89
553.756	0.83
553.95	0.84
554.144	0.83
554.337	0.83
554.531	0.78
554.724	0.8
554.918	0.77
555.111	0.81
555.305	0.79
555.498	0.81
555.692	0.77
555.885	0.72
556.079	0.73
556.272	0.69
556.466	0.7
556.659	0.66
556.852	0.69
557.046	0.64
557.239	0.67
557.432	0.63
557.626	0.61
557.819	0.63
558.012	0.65
558.206	0.63
558.399	0.6
558.592	0.61
558.785	0.55
558.979	0.62
559.172	0.57
559.365	0.58
559.558	0.57
559.751	0.53
559.944	0.55
560.138	0.53
560.331	0.51
560.524	0.52
560.717	0.51
560.91	0.51
561.103	0.53
561.296	0.47
561.489	0.5
561.682	0.51
561.875	0.47
562.068	0.51
562.261	0.46
562.454	0.51
562.647	0.47
562.84	0.45
563.032	0.43
563.225	0.43
563.418	0.42
563.611	0.43
563.804	0.42
563.997	0.36
564.19	0.33
564.382	0.38
564.575	0.42
564.768	0.36
564.961	0.38
565.153	0.37
565.346	0.38
565.539	0.38
565.731	0.36
565.924	0.38
566.117	0.39
566.309	0.37
566.502	0.34
566.695	0.33
566.887	0.33
567.08	0.32
567.272	0.31
567.465	0.31
567.657	0.36
567.85	0.32
568.042	0.32
568.235	0.31
568.427	0.28
568.62	0.3
568.812	0.31
569.005	0.3
569.197	0.25
569.389	0.28
569.582	0.28
569.774	0.3
569.966	0.25
570.159	0.22
570.351	0.26
570.543	0.23
570.736	0.25
570.928	0.23
571.12	0.26
571.312	0.27
571.505	0.2
571.697	0.24
571.889	0.19
572.081	0.23
572.273	0.21
572.465	0.26
572.658	0.22
572.85	0.22
573.042	0.21
573.234	0.2
573.426	0.24
573.618	0.18
573.81	0.22
574.002	0.25
574.194	0.23
574.386	0.16
574.578	0.12
574.77	0.18
574.962	0.18
575.154	0.16
575.346	0.2
575.538	0.2
575.729	0.14
575.921	0.18
576.113	0.18
576.305	0.2
576.497	0.16
576.689	0.15
576.88	0.15
577.072	0.2
577.264	0.17
577.456	0.16
577.647	0.11
577.839	0.16
578.031	0.19
578.223	0.11
578.414	0.12
578.606	0.16
578.798	0.16
578.989	0.13
579.181	0.14
579.372	0.16
579.564	0.12
579.755	0.15
579.947	0.12
580.139	0.16
580.33	0.09
580.522	0.11
580.713	0.06
580.905	0.12
581.096	0.14
581.287	0.13
581.479	0.11
581.67	0.14
581.862	0.11
582.053	0.12
582.244	0.07
582.436	0.1
582.627	0.13
582.818	0.12
583.01	0.08
583.201	0.17
583.392	0.16
583.583	0.11
583.775	0.08
583.966	0.09
584.157	0.08
584.348	0.08
584.54	0.08
584.731	0.12
584.922	0.12
585.113	0.07
585.304	0.11
585.495	0.12
585.686	0.09
585.877	0.11
586.068	0.11
586.259	0.11
586.45	0.1
586.641	0.08
586.832	0.04
587.023	0.11
587.214	0.06
587.405	0.1
587.596	0.08
587.787	0.11
587.978	0.1
588.169	0.05
588.36	0.07
588.551	0.09
588.742	0.09
588.932	0.1
589.123	0.09
589.314	0.11
589.505	0.1
589.696	0.07
589.886	0.05
590.077	0.04
590.268	0.07
590.458	0.04
590.649	0.03
590.84	0.08
591.03	0.08
591.221	0.02
591.412	0.05
591.602	0.08
591.793	0.08
591.984	0.04
592.174	0.04
592.365	0.13
592.555	0.03
592.746	0.06
592.936	0.07
593.127	0.07
593.317	0.1
593.508	0.04
593.698	0.03
593.889	0.06
594.079	0.08
594.269	0.04
594.46	0.07
594.65	0.03
594.84	0.04
595.031	0.02
595.221	0.03
595.411	0.03
595.602	0.12
595.792	0.06
595.982	0.02
596.172	0.12
596.363	0.05
596.553	0.06
596.743	0.06
596.933	0.04
597.123	0.09
597.314	0.02
597.504	0.02
597.694	0.09
597.884	0.08
598.074	0.05
598.264	0.05
598.454	0.04
598.644	0.04
598.834	0.03
599.024	-0.01
599.214	0
599.404	0.09
599.594	0.05
599.784	0.04
599.974	0.08
600.164	0.09
600.354	-0.01
600.544	-0.01
600.734	0.04
600.924	0.09
601.114	0.03
601.303	0.05
601.493	0.05
601.683	0.01
601.873	0.05
602.063	-0.01
602.252	0.06
602.442	-0
602.632	-0.01
602.821	-0
603.011	0.08
603.201	0.03
603.39	0.02
603.58	-0
603.77	0.06
603.959	0.07
604.149	0.06
604.339	0.02
604.528	0.1
604.718	0.06
604.907	0.04
605.097	0.01
605.286	0.03
605.476	0.06
605.665	0.02
605.855	0.02
606.044	0.06
606.234	0.03
606.423	-0
606.612	-0.02
606.802	0.05
606.991	0.03
607.181	0.04
607.37	-0.02
607.559	0.05
607.749	-0.03
607.938	0.03
608.127	0.04
608.316	0.02
608.506	0.03
608.695	0.04
608.884	0.01
609.073	0.02
609.263	0.05
609.452	0.05
609.641	0.04
609.83	0.02
610.019	0.04
610.208	0.03
610.397	0.03
610.586	0.07
610.775	0.02
610.965	0.01
611.154	0.01
611.343	0.01
611.532	0
611.721	-0
611.91	0.04
612.099	0.05
612.287	0.01
612.476	-0.01
612.665	0.04
612.854	0.02
613.043	0.05
613.232	0.01
613.421	-0.04
613.61	0.03
613.798	0.01
613.987	0.06
614.176	0.01
614.365	0.07
614.554	0.02
614.742	0.06
614.931	0.01
615.12	0.06
615.309	-0.01
615.497	0.07
615.686	-0.01
615.875	0.03
616.063	0.01
616.252	0.01
616.44	0.02
616.629	0.04
616.818	0.01
617.006	0.03
617.195	0.02
617.383	0.02
617.572	0.02
617.76	0.02
617.949	0.02
618.137	0.04
618.326	0.08
618.514	0.02
618.703	-0
618.891	0.07
619.079	-0.01
619.268	0.05
619.456	-0.03
619.644	0.08
619.833	0.03
620.021	0.02
620.209	-0.04
620.398	0.03
620.586	0.04
620.774	0.03
620.962	-0.02
621.151	0.08
621.339	0.02
621.527	-0.03
621.715	-0.02
621.903	0.01
622.092	0.01
622.28	0.02
622.468	0.04
622.656	0
622.844	0.04
623.032	0.01
623.22	-0
623.408	0.06
623.596	0.03
623.784	0.03
623.972	0.01
624.16	0.01
624.348	0.1
624.536	-0.02
624.724	0.01
624.912	0.08
625.1	0.06
625.288	-0.01
625.476	-0.02
625.664	0.04
625.851	-0.02
626.039	0.03
626.227	0.04
626.415	0.01
626.603	-0.03
626.79	0.02
626.978	-0.01
627.166	0.03
627.354	-0.01
627.541	-0.01
627.729	-0.07
627.917	0.05
628.104	0.07
628.292	0.01
628.48	0.01
628.667	0.01
628.855	0.01
629.042	0.01
629.23	-0.01
629.418	0.02
629.605	-0
629.793	-0
629.98	0
630.168	0.03
630.355	0.02
630.543	0.05
630.73	0.01
630.917	0.07
631.105	0.08
631.292	-0.02
631.48	0.01
631.667	0.08
631.854	0.03
632.042	0.04
632.229	-0.01
632.416	0.03
632.604	0.04
632.791	-0.01
632.978	0.04
633.165	0.06
633.353	0.09
633.54	0.06
633.727	-0.03
633.914	-0
634.101	-0.09
634.289	0.05
634.476	-0.01
634.663	-0
634.85	0.03
635.037	-0.05
635.224	-0.02
635.411	0.04
635.598	0.03
635.785	0.01
635.972	0.03
636.159	0.05
636.346	-0.02
636.533	0.01
636.72	0.01
636.907	-0.01
637.094	0.05
637.281	0.02
637.468	0.03
637.655	0.01
637.842	0.05
638.029	-0.01
638.215	0.07
638.402	0.01
638.589	-0.03
638.776	-0.01
638.963	-0
639.149	0.05
639.336	0.09
639.523	-0.01
639.709	0.01
639.896	-0.01
640.083	0.09
640.27	0.02
640.456	0.01
640.643	0.07
640.829	0
641.016	-0
641.203	-0.04
641.389	0.04
641.576	0.06
641.762	0.02
641.949	-0.03
642.135	0.04
642.322	0.01
642.508	-0.05
642.695	0.02
642.881	0
643.068	0.01
643.254	0.01
643.441	0.04
643.627	-0.03
643.813	-0.01
644	0.06
644.186	-0.01
644.372	0.04
644.559	0.05
644.745	-0
644.931	-0
645.118	-0
645.304	0
645.49	0.02
645.676	-0
645.862	0.02
646.049	0.08
646.235	0.02
646.421	0.1
646.607	0.07
646.793	0
646.979	0.01
647.165	0.02
647.352	-0
647.538	0.05
647.724	0.02
647.91	0.03
648.096	0.04
648.282	0.03
648.468	-0.01
648.654	-0.01
648.84	0.03
649.026	0.03
649.212	0.02
649.397	-0.04
649.583	-0.02
649.769	0.04
649.955	0
650.141	0.02
650.327	0.07
650.513	-0.01
650.698	0.03
650.884	-0.05
651.07	0.02
651.256	0.03
651.442	0
651.627	0.02
651.813	0.06
651.999	0.01
652.184	0.04
652.37	0.02
652.556	-0.04
652.741	0.07
652.927	-0.05
653.113	-0.02
653.298	0.02
653.484	0.01
653.669	-0.05
653.855	0.01
654.04	0.05
654.226	0.01
654.412	0.01
654.597	-0.04
654.782	0.05
654.968	0.04
655.153	0.05
655.339	-0.03
655.524	-0.02
655.71	0.05
655.895	0.02
656.08	-0
656.266	0.07
656.451	0.02
656.636	-0.01
656.822	0.07
657.007	0.02
657.192	0.02
657.378	-0.03
657.563	0.02
657.748	0.02
657.933	0.04
658.118	0.02
658.304	0.01
658.489	0.04
658.674	0.03
658.859	-0.01
659.044	-0.01
659.229	0.01
659.414	-0.01
659.599	0.02
659.785	-0.05
659.97	-0.04
660.155	0.02
660.34	0.01
660.525	0.01
660.71	0.01
660.895	0
661.08	0.02
661.264	0.01
661.449	0.09
661.634	0.06
661.819	0.04
662.004	0.01
662.189	-0.06
662.374	-0.02
662.559	-0.02
662.743	-0.01
662.928	0.01
663.113	0
663.298	-0.08
663.483	-0.02
663.667	0.05
663.852	-0.04
664.037	0.04
664.221	-0.04
664.406	0.05
664.591	0.02
664.775	0.02
664.96	-0.02
665.145	0.04
665.329	0.04
665.514	-0.04
665.698	0
665.883	-0.06
666.068	0.05
666.252	-0
666.437	-0.05
666.621	0.03
666.806	0.03
666.99	-0.01
667.174	-0.01
667.359	0.08
667.543	0.02
667.728	0.01
667.912	-0.06
668.096	0.04
668.281	0
668.465	0.01
668.649	0.01
668.834	-0.04
669.018	0.01
669.202	0
669.387	-0.05
669.571	0.03
669.755	-0.03
669.939	0.02
670.124	0.03
670.308	0.06
670.492	0.05
670.676	0.06
670.86	0.03
671.044	-0.03
671.228	0.04
671.413	-0
671.597	0.01
671.781	-0.01
671.965	0.06
672.149	0.02
672.333	0.02
672.517	-0.01
672.701	0.03
672.885	0.02
673.069	-0.03
673.253	0.08
673.437	0
673.621	-0.01
673.804	0.05
673.988	-0.04
674.172	0.03
674.356	0.01
674.54	0.01
674.724	0.12
674.908	0.04
675.091	0.06
675.275	-0.02
675.459	0.08
675.643	0.1
675.826	0.05
676.01	0.04
676.194	-0.03
676.377	0.06
676.561	0.05
676.745	0.03
676.928	0.04
677.112	0.07
677.296	0
677.479	-0.01
677.663	0.01
677.846	0.01
678.03	0.01
678.213	0.01
678.397	0.05
678.58	0.01
678.764	0.01
678.947	-0.03
679.131	-0.03
679.314	0.06
679.498	0.01
679.681	0.04
679.865	0.06
680.048	0.03
680.231	0.03
680.415	-0.01
680.598	0.04
680.781	0
680.965	-0.03
681.148	0.04
681.331	-0.01
681.514	0.03
681.698	0
681.881	0.02
682.064	0.04
682.247	0.05
682.43	-0.07
682.614	0.03
682.797	0.09
682.98	0.05
683.163	0.02
683.346	0.01
683.529	0.03
683.712	0
683.895	0.04
684.078	-0.1
684.261	0
684.444	0.07
684.627	0.01
684.81	-0.01
684.993	0.01
685.176	0.09
685.359	-0.02
685.542	-0
685.725	0.08
685.908	0.05
686.091	-0.03
686.274	0.07
686.457	0.07
686.639	0.03
686.822	0.05
687.005	0.01
687.188	0.04
687.371	0.1
687.553	0.03
687.736	0.06
687.919	0.08
688.102	0.07
688.284	-0.01
688.467	0.04
688.65	0.02
688.832	-0
689.015	0.02
689.197	-0.03
689.38	0.11
689.563	0.1
689.745	0.01
689.928	-0.01
690.11	-0
690.293	0.09
690.475	-0.08
690.658	0.02
690.84	0.01
691.023	0.05
691.205	-0.02
691.388	0.07
691.57	0.08
691.752	0.04
691.935	-0.01
692.117	0.05
692.3	0.03
692.482	-0.01
692.664	0.02
692.847	0.03
693.029	0.08
693.211	0.03
693.393	-0.01
693.576	-0.01
693.758	0.02
693.94	-0.01
694.122	0.01
694.304	-0.03
694.487	0.01
694.669	0.11
694.851	-0
695.033	0.02
695.215	-0.06
695.397	0.04
695.579	0.06
695.761	-0.04
695.943	-0.05
696.125	0.07
696.308	0.02
696.49	-0.06
696.671	0.16
696.853	0.04
697.035	0.08
697.217	0.03
697.399	0.05
697.581	0.03
697.763	0.04
697.945	-0.02
698.127	-0.02
698.309	0.07
698.491	0.07
698.672	0.07
698.854	0.12
699.036	0.06
699.218	-0.02
699.399	0.06
699.581	0.09
699.763	0
699.945	0
700.126	-0.04
700.308	0.01
700.49	0.04
700.671	-0.03
700.853	-0.03
701.035	0.02
701.216	0.04
701.398	-0.03
701.579	0.03
701.761	0.07
701.943	-0.01
702.124	-0.03
702.306	-0.01
702.487	0.1
702.669	-0.02
702.85	-0.05
703.031	-0.04
703.213	0.17
703.394	0.04
703.576	0
703.757	0.12
703.938	0.1
704.12	0.11
704.301	0.02
704.483	-0.04
704.664	0.03
704.845	0.14
705.026	0.06
705.208	0.03
705.389	0.06
705.57	0.06
705.751	-0.05
705.933	0.06
706.114	0.08
706.295	0.05
706.476	-0.05
706.657	0.11
706.838	0.05
707.02	0.12
707.201	-0.04
707.382	0.01
707.563	0.1
707.744	-0
707.925	-0.02
708.106	-0.05
708.287	0.04
708.468	0.1
708.649	0.04
708.83	0.06
709.011	-0.02
709.192	0.07
709.373	-0
709.554	0.01
709.734	0.09
709.915	0.04
710.096	-0.02
710.277	-0.15
710.458	0.03
710.639	0.06
710.819	-0.1
711	-0.04
711.181	0.08
711.362	0.09
711.542	-0.01
711.723	-0.08
711.904	0.05
712.085	0
712.265	0
712.446	0.01
712.627	0.1
712.807	-0.03
712.988	0.06
713.168	-0.04
713.349	0.09
713.53	-0.01
713.71	0.04
713.891	-0.04
714.071	0.03
714.252	-0.02
714.432	-0
714.613	-0.06
714.793	-0.05
714.974	0.09
715.154	0.07
715.334	0.08
715.515	0.19
715.695	-0.03
715.876	0.05
716.056	-0.03
716.236	-0.01
716.417	-0.02
716.597	-0.04
716.777	0.18
716.957	-0.06
717.138	0.05
717.318	0.02
717.498	-0.02
717.678	0.09
717.859	0.09
718.039	-0.05
718.219	0.04
718.399	0.12
718.579	-0.06
718.759	0.01
718.939	0.08
719.12	-0.04
719.3	0.05
719.48	-0.14
719.66	-0.08
719.84	0.08
720.02	0
720.2	-0.01
720.38	-0.03
720.56	0.1
720.74	-0.02
720.92	0.06
721.1	0.02
721.279	0.13
721.459	0.04
721.639	-0.03
721.819	0.05
721.999	0.02
722.179	0.05
722.359	-0.08
722.538	0.01
722.718	-0.03
722.898	-0.01
723.078	0.02
723.257	-0.05
723.437	0.05
723.617	0.09
723.797	-0.05
723.976	-0.02
724.156	0.04
724.336	0.13
724.515	0.11
724.695	-0.14
724.874	0.03
725.054	0.06
725.234	0.01
725.413	0.09
725.593	-0.02
725.772	0.04
725.952	0.05
726.131	-0.02
726.311	0.03
726.49	-0.02
726.67	-0.02
726.849	-0.03
727.028	0.05
727.208	-0.03
727.387	0.04
727.567	-0.01
727.746	0
727.925	0.04
728.105	-0.09
728.284	-0
728.463	-0.06
728.643	0.07
728.822	-0.03
729.001	-0.01
729.18	0.02
729.359	-0.01
729.539	-0
729.718	0.05
729.897	0.18
730.076	0.04
730.255	-0.12
730.434	0.09
730.614	0.06
730.793	0.09
730.972	-0.01
731.151	-0.01
731.33	0.11
731.509	0.08
731.688	0.03
731.867	-0.01
732.046	-0.15
732.225	0.27
732.404	-0.07
732.583	-0.09
732.762	0.13
732.941	0.12
733.12	0.01
733.298	0.05
733.477	0.1
733.656	-0.04
733.835	-0.05
734.014	0.14
734.193	-0.04
734.371	0.15
734.55	0.08
734.729	-0.12
734.908	0
735.086	-0.04
735.265	0.07
735.444	-0.15
735.623	-0.01
735.801	-0.02
735.98	-0
736.159	-0.06
736.337	0.06
736.516	0.07
736.694	0.01
736.873	-0.02
737.052	0.18
737.23	0.14
737.409	0.01
737.587	0.2
737.766	-0.13
737.944	-0.01
738.123	0.11
738.301	0.06
738.479	-0.13
738.658	0.03
738.836	-0.19
739.015	0.08
739.193	0.23
739.371	0.01
739.55	-0.01
739.728	-0.01
739.906	0.09
740.085	0.15
740.263	0.04
740.441	-0.23
740.62	0.19
740.798	0.14
740.976	0.02
741.154	0.01
741.332	0.12
741.511	-0.02
741.689	-0
741.867	0.08
742.045	0.02
742.223	-0
742.401	0
742.579	-0.11
742.757	0.14
742.935	-0.05
743.114	-0.06
743.292	0.05
743.47	-0.01
743.648	-0
743.826	-0.17
744.004	0.12
744.181	0.1
744.359	-0.09
744.537	0.1
744.715	-0.01
744.893	0.04
745.071	0.07
745.249	-0.05
745.427	-0.04
745.605	0.1
745.782	-0.02
745.96	0.1
746.138	0.18
746.316	0.14
746.493	-0.04
746.671	-0.01
746.849	0.05
747.027	0.17
747.204	-0.05
747.382	0.04
747.56	-0.26
747.737	0.11
747.915	-0.08
748.093	0.11
748.27	-0.02
748.448	-0.11
748.625	-0.09
748.803	-0.06
748.98	-0.01
749.158	0.09
749.335	0.07
749.513	-0.02
749.69	-0.03
749.868	0.01
750.045	-0.06
750.223	0.02
750.4	-0.16
750.578	0.13
750.755	-0.05
750.932	-0.15
751.11	0.15
751.287	-0.13
751.464	0.1
751.642	-0.02
751.819	0.11
751.996	0.1
752.173	-0.02
752.351	-0.1
752.528	-0.06
752.705	0.06
752.882	-0.01
753.06	0.09
753.237	0.07
753.414	0.22
753.591	0.1
753.768	-0.03
753.945	-0.12
754.122	-0.06
754.299	0.06
754.476	-0.03
754.654	0.04
754.831	0.06
755.008	0.02
755.185	-0.08
755.362	-0.08
755.539	0.13
755.716	-0.09
755.892	-0.01
756.069	-0.04
756.246	-0.01
756.423	0.07
756.6	0.18
756.777	0.04
756.954	0.22
757.131	-0.03
757.307	-0
757.484	-0.07
757.661	0.03
757.838	0.02
758.015	-0.17
758.191	0.17
758.368	0.07
758.545	0.09
758.721	0.13
758.898	-0.03
759.075	0.05
759.251	0.09
759.428	0.14
759.605	-0.02
759.781	0.06
759.958	0.01
760.134	0.09
760.311	-0.09
760.488	0.22
760.664	0.14
760.841	0.04
761.017	-0.1
761.194	0.12
761.37	0.17
761.547	-0.04
761.723	0
761.899	0.15
762.076	-0.07
762.252	-0.02
762.429	-0.04
762.605	0.12
762.781	-0.08
762.958	0.12
763.134	-0.06
763.31	-0.11
763.486	0.12
763.663	-0.07
763.839	0.2
764.015	-0.2
764.191	-0.13
764.368	0.04
764.544	-0.09
764.72	0.1
764.896	0.13
765.072	0.06
765.248	0.04
765.425	-0.05
765.601	0.12
765.777	-0.05
765.953	-0.17
766.129	0
766.305	-0.02
766.481	0.06
766.657	0.02
766.833	0.07
767.009	-0.18
767.185	-0.04
767.361	-0
767.537	-0.05
767.713	0.14
767.889	0.01
768.065	-0.03
768.24	0.18
768.416	0.19
768.592	-0.11
768.768	-0.04
768.944	0.12
769.12	-0.05
769.295	-0.18
769.471	-0.11
769.647	-0
769.823	0.31
769.998	0.03
770.174	-0.04
770.35	0.26
770.525	0.28
770.701	-0.04
770.877	-0.01
771.052	-0.01
771.228	0.04
771.403	-0.02
771.579	0.07
771.755	0.3
771.93	-0
772.106	-0.11
772.281	-0.2
772.457	-0.01
772.632	0.1
772.808	-0.21
772.983	-0
773.159	-0.16
773.334	0.12
773.509	0.08
773.685	-0.03
773.86	0.37
774.036	0.32
774.211	0.19
774.386	-0.1
774.562	-0.11
774.737	0.16
774.912	-0.03
775.087	0.22
775.263	-0.09
775.438	0.11
775.613	-0.13
775.788	-0.03
775.964	0.08
776.139	0.41
776.314	-0.14
776.489	0.15
776.664	0.17
776.839	-0.09
777.014	0.16
777.19	0.24
777.365	0.21
777.54	0.26
777.715	0.06
777.89	-0.03
778.065	-0.23
778.24	-0.06
778.415	0.1
778.59	-0.03
778.765	0.01
778.94	0.09
779.115	0.04
779.289	-0.07
779.464	0.16
779.639	0.05
779.814	-0.13
779.989	-0.02
780.164	0.09
780.339	0.06
780.513	-0.06
780.688	-0.14
780.863	-0.02
781.038	0.28
781.212	0.13
781.387	-0.01
781.562	0.45
781.737	0.01
781.911	0.15
782.086	-0.09
782.261	0.05
782.435	0.26
782.61	0.06
782.784	-0.04
782.959	0.18
783.134	0.03
783.308	-0.22
783.483	-0.1
783.657	0.26
783.832	0.19
784.006	-0.23
784.181	-0.15
784.355	0.11
784.53	-0.25
784.704	-0.08
784.878	0.36
785.053	0.22
785.227	0.3
785.402	0.42
785.576	-0.31
785.75	0.06
785.925	-0.06
786.099	0.12
786.273	0.1
786.448	0.27
786.622	0.27
786.796	0.09
786.97	-0.24
787.145	0.5
787.319	-0.37
787.493	0.14
787.667	-0.58
787.841	0
788.015	0.29
788.19	-0.15
788.364	0.1
788.538	0.33
788.712	0.14
788.886	0.07
789.06	0.17
789.234	0.23
789.408	-0.22
789.582	-0.14
789.756	0.07
789.93	-0.16
790.104	-0.04
790.278	-0.13
790.452	-0.08
790.626	0.05
790.8	-0.17
790.973	0.37
791.147	0.42
791.321	0.21
791.495	0.2
791.669	0.03
791.843	0.22
792.016	0.09
792.19	0.37
792.364	-0.15
792.538	0.35
792.711	0.37
792.885	-0.31
793.059	-0.24
793.233	-0.4
793.406	0.38
793.58	0.03
793.754	0.09
793.927	-0.04
794.101	0.27
794.274	0.02
794.448	0.14
794.622	-0.14
794.795	0.35
794.969	-0.18
795.142	0.25
795.316	-0.05
795.489	-0.12
795.663	0.39
795.836	0.16
796.009	-0.18
796.183	0.3
796.356	0.08
796.53	0.15
796.703	0
796.876	0.68
797.05	0.17
797.223	-0.03
797.396	0.04
797.57	0.02
797.743	0.43
797.916	0.19
798.09	-0.05
798.263	0.42
798.436	0.2
798.609	-0.04
798.782	0.09
798.956	0.01
799.129	-0.08
799.302	0.05
799.475	-0.06
799.648	-0.04
799.821	-0
799.994	0
800.167	-0.24
800.34	-0.02
800.514	0.31
800.687	0.1
800.86	-0.17
801.033	0.08
801.206	0.06
801.379	-0.27
801.551	0.32
801.724	0.13
801.897	0.42
802.07	-0.09
802.243	-0.46
802.416	-0.23
802.589	0.17
802.762	0.04
802.935	-0.03
803.107	0.45
803.28	0.11
803.453	0.01
803.626	0.03
803.798	0.32
803.971	-0.15
804.144	0.23
804.317	-0.07
804.489	0.28
804.662	-0.1
804.835	0.2
805.007	-0.07
805.18	0.41
805.353	0.07
805.525	-0.08
805.698	0.01
805.87	0.31
806.043	0.51
806.215	-0.15
806.388	0.01
806.56	0.29
806.733	0.72
806.905	0.08
807.078	-0.45
807.25	-0.3
807.423	0.23
807.595	0.37
807.768	0.19
807.94	0.46
808.112	0.2
808.285	0.02
808.457	-0.19
808.629	0.29
808.802	0.27
808.974	0.06
809.146	-0.16
809.318	-0.32
809.491	-0.04
809.663	0.69
809.835	-0.12
810.007	0.4
810.18	-0.12
810.352	-0.16
810.524	-0.05
810.696	0.32
810.868	0.28
811.04	-0.15
811.212	-0.01
811.384	0.15
811.556	0.25
811.728	0.08
811.901	0.52
812.073	-0.11
812.245	0.1
812.417	0.24
812.589	-0.26
812.76	0.19
812.932	0.29
813.104	0.31
813.276	0.11
813.448	0.62
813.62	0.15
813.792	0.01
813.964	-0.26
814.136	-0.03
814.307	-0
814.479	-0.26
814.651	-0.21
814.823	0.74
814.995	-0.13
815.166	0.4
815.338	-0.19
815.51	-0.55
815.681	1
815.853	0.36
816.025	-0.18
816.196	0.59
816.368	0.65
816.54	-0.66
816.711	-0.34
816.883	0.26
817.054	0.55
817.226	-0.09
817.398	0.23
817.569	-0.31
817.741	0.17
817.912	-0.05
818.084	-0.04
818.255	0.37
818.426	0.31
818.598	-0.1
818.769	-0.42
818.941	0.23
819.112	0.38
819.283	0.09
819.455	-0.25
819.626	0.33
819.798	0.29
819.969	-0.21
820.14	-0.4
820.311	0.06
820.483	0.09
820.654	0.45
820.825	0.05
820.996	-0.19
821.168	-0.26
821.339	-0.3
821.51	-0.38
821.681	-0.1
821.852	0.01
822.023	-0.11
822.195	-0.33
822.366	0.64
822.537	-0.43
822.708	0.3
822.879	-0.33
823.05	0.81
823.221	-0.05
823.392	0.17
823.563	0.22
823.734	0.06
823.905	-0.04
824.076	-0.03
824.247	-0.06
824.418	-0.52
824.589	0.13
824.759	-0.07
824.93	-0.14
825.101	-1.02
825.272	0.43
825.443	0.64
825.614	0.57
825.784	-1.1
825.955	1.16
826.126	0.58
826.297	0.07
826.467	0.56
826.638	1.52
826.809	-0.56
826.98	-0.34
827.15	0.26
827.321	0.11
827.492	0.56
827.662	0.68
827.833	0.47
828.003	0.91
828.174	-0.23
828.345	-0.68
828.515	0.81
828.686	0.2
828.856	-0.08
829.027	0.11
829.197	0.33
829.368	0.04
829.538	-0.42
829.709	0.09
829.879	0.03
830.049	0.41
830.22	0.11
830.39	0.06
830.56	0.55
830.731	-0.11
830.901	-0.34
831.072	0.16
831.242	0.43
831.412	-0.42
831.582	0.39
831.753	-0.56
831.923	0.48
832.093	0.28
832.263	-0.14
832.434	-0.68
832.604	-0.52
832.774	0.37
832.944	-0.03
833.114	0.29
833.284	0.79
833.454	-0.61
833.624	-0.29
833.795	-0.39
833.965	1.15
834.135	0.48
834.305	-1.14
834.475	-0.78
834.645	0.05
834.815	-0.37
834.985	-0.5
835.155	0.04
835.325	0.3
835.494	0.39
835.664	0.17
835.834	-0.44
836.004	-0.1
836.174	0.19
836.344	0.48
836.514	-0.63
836.684	-0.01
836.853	0.76
837.023	0.2
837.193	-0.43
837.363	0.99
837.532	0.67
837.702	-0.54
837.872	-0.66
838.041	0.77
838.211	1.41
838.381	-0.85
838.55	0.24
838.72	1.69
838.89	1.01
839.059	0.11
839.229	-0.95
839.398	1.77
839.568	0.48
839.738	0.29
839.907	0.78
840.077	0.84
840.246	-0.06
840.416	-0.52
840.585	-0.56
840.755	1.71
840.924	0.93
841.093	-0.95
841.263	0.39
841.432	0.22
841.602	-0.68
841.771	-0.6
841.94	0.56
842.11	1.55
842.279	1.7
842.448	-0.94
842.617	-0.67
842.787	1.29
842.956	-0.87
843.125	0.04
843.294	-0.46
843.464	1.12
843.633	0.46
843.802	-1.27
843.971	0.09
844.14	-0.5
844.309	0.19
844.479	-0.41
844.648	-0.28
844.817	-0.19
844.986	0.04
845.155	0.44
845.324	-0.04
845.493	-0.61
845.662	-0.63
845.831	0.63
846	0.29
846.169	0.51
846.338	0.73
846.507	0.41
846.676	0.23
846.844	-0.02
847.013	-0.01
847.182	0.45
847.351	0.07
847.52	0.91
847.689	1.22
847.858	0.27
848.026	-0.1
848.195	0.78
848.364	-0.68
848.533	-0.76
848.701	-0.84
848.87	0.28
849.039	0.42
849.207	0.58
849.376	1.08
849.545	0.67
849.713	-1.28
849.882	-0.6
850.051	0.17
850.219	0.4
850.388	1.06
850.556	-0.99
850.725	-0.2
850.893	0.25
851.062	-0.42
851.23	0.81
851.399	-1.7
851.567	-0.13
851.736	0.53
851.904	-0.19
852.073	0.42
852.241	1.16
852.41	-0.45
852.578	-0.1
852.746	-0.03
852.915	1.29
853.083	-0.03
853.251	-1.53
853.42	-0.28
853.588	1.13
853.756	0.6
853.924	-0.39
854.093	0.75
854.261	-0.01
854.429	-0.65
854.597	0.02
854.765	-0.92
854.934	0.53
855.102	1.42
855.27	-0.74
855.438	0.77
855.606	0.81
855.774	1.58
855.942	-0.85
856.11	-1.49
856.278	-0.08
856.446	1.12
856.614	0.34
856.782	-0.24
856.95	0.61
857.118	-0.06
857.286	0.61
857.454	0.06
857.622	0.25
857.79	0.04
857.958	-0.02
858.126	0.32
858.294	-1.99
858.462	-0.44
858.629	-0.16
858.797	-0.82
858.965	0.41
859.133	0.2
859.301	-0.68
859.468	0.11
859.636	-0.67
859.804	1.85
859.971	1.18
860.139	-0.57
860.307	0.52
860.474	-0.14
860.642	-0.81
860.81	-1.61
860.977	-0.33
861.145	2.17
861.313	-0.63
861.48	-0.12
861.648	0.43
861.815	-0.67
861.983	-1.48
862.15	-0.86
862.318	2.35
862.485	2.15
862.653	0.96
862.82	-0.34
862.988	1.6
863.155	1.27
863.322	-1.83
863.49	-0.27
863.657	-0.34
863.824	2.48
863.992	0.47
864.159	0.86
864.326	-0.11
864.494	-1.38
864.661	1.88
864.828	-1.54
864.996	2.59
865.163	1.39
865.33	-1.32
865.497	-2.16
865.664	-0.46
865.832	-2.73
865.999	-0.45
866.166	-1.43
866.333	-1.43
866.5	-1.44
866.667	-1.26
866.834	-1.18
867.001	1.6
867.168	-1.02
867.335	0.82
867.502	-0.6
867.669	-0.01
867.836	3.09
868.003	-0.4
868.17	1.33
868.337	2.44
868.504	3.4
868.671	1.19
868.838	-0.78
869.005	0.02
869.172	1.45
869.339	0.8
869.505	0.05
869.672	0.05
869.839	1.51
870.006	0.63
870.173	-2.01
870.339	0.57
870.506	2.21
870.673	-0.72
870.84	0.04
871.006	0.72
871.173	-0.87
871.34	-0.11
871.506	-0.7
871.673	1.97
871.839	-3.15
872.006	0.79
872.173	-1.38
872.339	0.1
872.506	1.28
872.672	-0.36
872.839	-2.46
873.005	0.69
873.172	2.72
873.338	0.82
873.505	-0.83
873.671	-0.7
873.838	0.82
874.004	-2.9
874.171	-0.25
874.337	1.05
874.503	0.74
874.67	1.07
874.836	-0.44
875.002	2.98
875.169	0.94
875.335	0.51
875.501	1.11
875.668	0.2
875.834	0.93
876	-0.96
876.166	1.29
876.332	0.06
876.499	3.49
876.665	0.31
876.831	0.52
876.997	4.21
877.163	1.14
877.329	0.33
877.495	-0.11
877.662	0.48
877.828	-0.22
877.994	0.41
878.16	-2.86
878.326	-1.1
878.492	1.15
878.658	-0.74
878.824	2.36
878.99	1.05
879.156	0.41
879.322	2.43
879.487	0.49
879.653	1.35
879.819	0.3
879.985	-1.67
880.151	1.39
880.317	0.34
880.483	0.49
880.648	1.27
880.814	-1.71
880.98	0.32
881.146	-2.6
881.312	0.4
881.477	0.47
881.643	1.49
881.809	1.1
881.974	1.04
882.14	-2.08
882.306	0.53
882.471	2.42
882.637	-0.09
882.803	1.6
882.968	1.16
883.134	3.31
883.299	-0.24
883.465	0.96
883.63	2.49
883.796	2.3
883.961	1.04
884.127	1.59
884.292	-3.39
884.458	-1.27
884.623	-1.27
