Data from Apollo_Calib_20240827__AbsoluteIrradiance__432__06-21-02-978.txt Node

Date: Wed Aug 28 06:21:02 BST 2024
User: biology
Spectrometer: FLMT08252
Trigger mode: 0
Integration Time (sec): 5.000000E-1
Scans to average: 5
Electric dark correction enabled: true
Nonlinearity correction enabled: false
Boxcar width: 0
XAxis mode: Wavelengths
Number of Pixels in Spectrum: 3648
>>>>>Begin Spectral Data<<<<<
179.588	-0
179.809	-0
180.03	-0
180.251	-0
180.473	-0
180.694	0
180.915	0
181.136	-0
181.357	0
181.578	-0
181.799	-0
182.02	-0
182.241	-0
182.462	-0
182.683	0
182.904	0
183.125	-0
183.346	0
183.567	0
183.788	0
184.009	0
184.23	0
184.451	0
184.672	0
184.892	0
185.113	0
185.334	0
185.555	-0
185.776	0
185.996	0
186.217	0
186.438	0
186.659	0
186.879	0
187.1	0
187.321	-0
187.541	0
187.762	0
187.983	0
188.203	0
188.424	0
188.644	0
188.865	0
189.086	0
189.306	0
189.527	0
189.747	0
189.968	0
190.188	0
190.409	0
190.629	0
190.849	0
191.07	0
191.29	0
191.511	0
191.731	0
191.951	-0
192.172	0
192.392	0
192.612	0
192.833	0
193.053	0
193.273	0
193.493	0
193.714	0
193.934	0
194.154	0
194.374	0
194.594	0
194.815	0
195.035	0
195.255	0
195.475	0
195.695	0
195.915	0
196.135	0
196.355	0
196.575	0
196.795	0
197.015	0
197.235	0
197.455	0
197.675	0
197.895	0
198.115	0
198.335	0
198.555	0
198.775	0
198.995	0
199.214	0
199.434	0
199.654	0
199.874	0
200.094	0.01
200.313	0.93
200.533	0.76
200.753	0.28
200.973	1.87
201.192	1.42
201.412	0.27
201.632	0.72
201.851	1.59
202.071	0.54
202.291	0.4
202.51	0.29
202.73	1.51
202.95	0.64
203.169	0.14
203.389	0.45
203.608	0.93
203.828	0.63
204.047	0.65
204.267	1.07
204.486	0.94
204.706	1.34
204.925	0.74
205.145	0.67
205.364	1.18
205.583	1.45
205.803	0.38
206.022	0.29
206.242	0.83
206.461	0.75
206.68	0.47
206.9	1.06
207.119	1.25
207.338	0.76
207.557	0.54
207.777	0.52
207.996	0.6
208.215	1.14
208.434	0.46
208.654	-0.25
208.873	0.64
209.092	1.11
209.311	0.59
209.53	0.53
209.749	0.51
209.968	0.21
210.187	0.66
210.407	0.28
210.626	0.4
210.845	0.76
211.064	0.57
211.283	0.17
211.502	0.79
211.721	0.6
211.94	0.67
212.159	0.77
212.377	0.74
212.596	0.58
212.815	0.61
213.034	0.62
213.253	0.62
213.472	0.77
213.691	0.26
213.91	0.31
214.128	0.31
214.347	1.16
214.566	0.17
214.785	0.25
215.003	0.38
215.222	0.71
215.441	0.57
215.66	0.21
215.878	0.28
216.097	0.6
216.316	0.18
216.534	0.47
216.753	0.44
216.972	0.36
217.19	0.4
217.409	0.24
217.627	0.25
217.846	0.41
218.064	0.46
218.283	0.3
218.501	0.91
218.72	0.57
218.938	0.25
219.157	0.22
219.375	0.71
219.594	0.71
219.812	0.09
220.031	0.1
220.249	0.65
220.467	0.56
220.686	0.4
220.904	0.19
221.122	0.25
221.341	0.72
221.559	0.38
221.777	0.23
221.995	0.4
222.214	0.55
222.432	0.19
222.65	0.56
222.868	0.33
223.086	0.45
223.305	0.41
223.523	0.34
223.741	0.49
223.959	0.23
224.177	0.16
224.395	0.15
224.613	0.47
224.831	0.5
225.049	0.27
225.267	0.29
225.485	0.37
225.703	0.23
225.921	0.33
226.139	0.25
226.357	0.44
226.575	0.26
226.793	0.35
227.011	0.82
227.229	0.36
227.447	0.4
227.665	0.31
227.883	0.13
228.1	0.38
228.318	0.44
228.536	0.04
228.754	0.17
228.972	0.21
229.189	0.3
229.407	0.26
229.625	0.29
229.843	0.35
230.06	0.24
230.278	0.13
230.496	0.21
230.713	0.22
230.931	0.55
231.149	0.14
231.366	0.06
231.584	0.23
231.801	0.49
232.019	0.34
232.236	0.09
232.454	0.16
232.671	0.33
232.889	0.19
233.106	0.06
233.324	0.19
233.541	0.28
233.759	0.17
233.976	0.24
234.194	0.22
234.411	0.26
234.628	0.2
234.846	0.13
235.063	0.28
235.28	0.25
235.498	0.17
235.715	0.13
235.932	0.34
236.149	0.27
236.367	0.15
236.584	0.26
236.801	0.26
237.018	0.31
237.236	0.23
237.453	0.07
237.67	0.36
237.887	0.22
238.104	0.25
238.321	0.1
238.538	0.11
238.755	0.3
238.973	0.04
239.19	0.25
239.407	0.26
239.624	0.27
239.841	0.17
240.058	0.14
240.275	0.23
240.492	0.15
240.709	0.3
240.925	0.2
241.142	0.18
241.359	0.05
241.576	0.1
241.793	0.19
242.01	0.18
242.227	0.3
242.444	0.25
242.66	0.31
242.877	0.24
243.094	0.18
243.311	0.19
243.527	0.15
243.744	0.17
243.961	0.31
244.178	0.11
244.394	0.13
244.611	0.34
244.828	0.35
245.044	0.1
245.261	0.08
245.477	0.18
245.694	0.22
245.911	0.14
246.127	0.14
246.344	0.32
246.56	0.26
246.777	0.18
246.993	0.21
247.21	0.23
247.426	0.15
247.643	0.14
247.859	0.1
248.076	0.07
248.292	0.3
248.508	0.18
248.725	0.31
248.941	0.14
249.157	0.3
249.374	0.05
249.59	0.16
249.806	0.17
250.023	0.42
250.239	0.07
250.455	0.14
250.671	0.11
250.888	0.14
251.104	0.28
251.32	0.13
251.536	0.1
251.752	0.17
251.969	0.22
252.185	0.19
252.401	0.34
252.617	0.18
252.833	0.14
253.049	0.23
253.265	0.19
253.481	0.22
253.697	0.16
253.913	0.07
254.129	0.25
254.345	0.11
254.561	0.13
254.777	0.16
254.993	0.26
255.209	0.23
255.425	0.14
255.641	0.11
255.857	0.24
256.073	0.19
256.288	0.05
256.504	0.11
256.72	0.19
256.936	0.26
257.152	0.15
257.367	0.13
257.583	0.11
257.799	0.2
258.015	0.11
258.23	0.12
258.446	0.29
258.662	0.19
258.877	0.1
259.093	0.13
259.309	0.12
259.524	0.23
259.74	0.14
259.955	0.01
260.171	0.21
260.387	0.2
260.602	0.24
260.818	0.21
261.033	0.02
261.249	0.11
261.464	0.1
261.68	0.07
261.895	0.23
262.11	0.26
262.326	0.17
262.541	0.08
262.757	0.28
262.972	0.17
263.187	0.22
263.403	0.1
263.618	0.22
263.833	0.18
264.049	0.13
264.264	0.16
264.479	0.16
264.694	0.33
264.91	0.13
265.125	0.13
265.34	0.21
265.555	0.35
265.77	0.14
265.986	0.15
266.201	0.18
266.416	0.29
266.631	0.1
266.846	0.2
267.061	0.12
267.276	0.19
267.491	0.03
267.706	0.26
267.921	0.2
268.136	0.17
268.351	0.21
268.566	0.09
268.781	0.3
268.996	0.22
269.211	0.14
269.426	0.06
269.641	0.11
269.856	0.27
270.071	0.1
270.285	0.08
270.5	0.19
270.715	0.22
270.93	0.12
271.145	0.15
271.359	0.12
271.574	0.13
271.789	0.23
272.004	0.13
272.218	0.07
272.433	0.21
272.648	0.1
272.862	0.18
273.077	0.15
273.292	0.11
273.506	0.1
273.721	0.12
273.936	0.23
274.15	0.19
274.365	0.11
274.579	0.15
274.794	0.17
275.008	0.19
275.223	0.06
275.437	0.12
275.652	0.21
275.866	0.23
276.081	0.09
276.295	0.2
276.509	0.16
276.724	0.18
276.938	0.1
277.153	0.17
277.367	0.16
277.581	0.11
277.796	0.16
278.01	0.11
278.224	0.19
278.438	0.28
278.653	0.09
278.867	0.16
279.081	-0.06
279.295	0.15
279.51	0.14
279.724	0.03
279.938	0.2
280.152	0.19
280.366	0.1
280.58	0.14
280.794	0.19
281.008	0.22
281.222	0.2
281.437	0.25
281.651	0.15
281.865	0.26
282.079	0.1
282.293	0.03
282.507	0.11
282.721	0.13
282.935	0.11
283.148	0.05
283.362	0.15
283.576	0.11
283.79	0.14
284.004	0.09
284.218	0.21
284.432	0.05
284.646	0.13
284.859	0.12
285.073	0.13
285.287	0.17
285.501	0.14
285.714	0.19
285.928	0.14
286.142	0.17
286.356	0.06
286.569	0.1
286.783	0.24
286.997	0.16
287.21	0.17
287.424	0.14
287.637	0.12
287.851	0.11
288.065	0.13
288.278	0.08
288.492	0.14
288.705	0.1
288.919	0.15
289.132	0.04
289.346	0.21
289.559	0.06
289.773	0.1
289.986	0.09
290.2	0.09
290.413	0.2
290.626	0.09
290.84	0.09
291.053	0.11
291.267	0.17
291.48	0.12
291.693	0.14
291.906	0.12
292.12	0.08
292.333	0.1
292.546	0.1
292.76	0.18
292.973	0.14
293.186	0.09
293.399	0.09
293.612	0.17
293.826	0.15
294.039	0.12
294.252	0.12
294.465	0.14
294.678	0.16
294.891	0.1
295.104	0.08
295.317	0.09
295.53	0.06
295.743	0.08
295.956	0.12
296.169	0.2
296.382	0.12
296.595	0.12
296.808	0.07
297.021	0.24
297.234	0.15
297.447	0.14
297.66	0.14
297.873	0.19
298.086	0.15
298.299	0.11
298.511	0.04
298.724	0.12
298.937	0.09
299.15	0.08
299.363	0.08
299.575	0.15
299.788	0.15
300.001	0.08
300.213	0.05
300.426	0.08
300.639	0.08
300.852	0.09
301.064	0.16
301.277	0.17
301.489	0.19
301.702	0.14
301.915	0.1
302.127	0.13
302.34	0.13
302.552	0.15
302.765	0.1
302.977	0.18
303.19	0.05
303.402	0.08
303.615	0.08
303.827	0.07
304.04	0.09
304.252	0.16
304.464	0.1
304.677	0.24
304.889	0.18
305.102	0.09
305.314	0.09
305.526	0.16
305.739	0.19
305.951	0.04
306.163	0.11
306.375	0.14
306.588	0.06
306.8	0.07
307.012	0.05
307.224	0.13
307.436	0.19
307.649	0.03
307.861	0.15
308.073	0.12
308.285	0.13
308.497	0.1
308.709	0.08
308.921	0.14
309.133	0.19
309.346	0.07
309.558	0.12
309.77	0.17
309.982	0.17
310.194	0.15
310.406	0.06
310.617	0.17
310.829	0.12
311.041	0.15
311.253	0.1
311.465	0.09
311.677	0.12
311.889	0.11
312.101	0.11
312.313	0.18
312.524	0.14
312.736	0.03
312.948	0.11
313.16	0.19
313.372	0.14
313.583	0.11
313.795	0.12
314.007	0.09
314.218	0.16
314.43	0.1
314.642	0.03
314.853	0.05
315.065	0.15
315.277	0.13
315.488	0.13
315.7	0.19
315.912	0.13
316.123	0.09
316.335	0.09
316.546	0.17
316.758	0.11
316.969	0.09
317.181	0.1
317.392	0.1
317.604	0.15
317.815	0.09
318.026	0.03
318.238	0.12
318.449	0.12
318.661	0.03
318.872	0.06
319.083	0.1
319.295	0.12
319.506	0.07
319.717	0.1
319.929	0.1
320.14	0.15
320.351	0.12
320.562	0.07
320.774	0.1
320.985	0.16
321.196	0.08
321.407	0.03
321.618	0.15
321.829	0.15
322.041	0.16
322.252	0.1
322.463	0.1
322.674	0.08
322.885	0.08
323.096	0.1
323.307	0.11
323.518	0.12
323.729	0.07
323.94	0.07
324.151	0.13
324.362	0.11
324.573	0.13
324.784	0.06
324.995	0.19
325.206	0.13
325.417	0.11
325.628	0.06
325.838	0.12
326.049	0.12
326.26	0.15
326.471	0.09
326.682	0.12
326.892	0.09
327.103	0.04
327.314	0.07
327.525	0.22
327.735	0.09
327.946	0.11
328.157	0.07
328.368	0.14
328.578	0.08
328.789	0.15
328.999	0.13
329.21	0.11
329.421	0.17
329.631	0.08
329.842	0.1
330.052	0.17
330.263	0.16
330.473	0.17
330.684	0.09
330.894	0.07
331.105	0.14
331.315	0.11
331.526	0.05
331.736	0.14
331.947	0.12
332.157	0.14
332.367	0.08
332.578	0.17
332.788	0.15
332.999	0.13
333.209	0.14
333.419	0.06
333.629	0.11
333.84	0.12
334.05	0.1
334.26	0.17
334.47	0.11
334.681	0.15
334.891	0.1
335.101	0.16
335.311	0.16
335.521	0.1
335.732	0.07
335.942	0.14
336.152	0.14
336.362	0.1
336.572	0.1
336.782	0.12
336.992	0.1
337.202	0.1
337.412	0.05
337.622	0.15
337.832	0.11
338.042	0.11
338.252	0.09
338.462	0.09
338.672	0.1
338.882	0.02
339.092	0.07
339.302	0.18
339.511	0.14
339.721	0.09
339.931	0.04
340.141	0.19
340.351	0.12
340.561	0.15
340.77	0.12
340.98	0.11
341.19	0.13
341.4	0.06
341.609	0.06
341.819	0.11
342.029	0.06
342.238	0.11
342.448	0.07
342.658	0.15
342.867	0.1
343.077	0.11
343.286	0.14
343.496	0.12
343.706	0.19
343.915	0.07
344.125	0.1
344.334	0.15
344.544	0.04
344.753	0.08
344.963	0.09
345.172	0.06
345.381	0.06
345.591	0.12
345.8	0.15
346.01	0.17
346.219	0.13
346.428	-0.01
346.638	0.09
346.847	0.11
347.056	0.16
347.266	0.06
347.475	0.09
347.684	0.12
347.893	0.16
348.103	0.14
348.312	0.07
348.521	0.08
348.73	0.14
348.94	0.1
349.149	0.11
349.358	0.09
349.567	0.09
349.776	0.06
349.985	0.04
350.194	0.12
350.403	0.15
350.612	0.05
350.821	0.09
351.03	0.1
351.239	0.04
351.448	0.08
351.657	0.07
351.866	0.15
352.075	0.12
352.284	0.12
352.493	0.04
352.702	0.15
352.911	0.11
353.12	0.13
353.329	0.1
353.538	0.13
353.746	0.1
353.955	0.07
354.164	0.13
354.373	0.13
354.582	0.17
354.79	0.16
354.999	0.14
355.208	0.09
355.416	0.14
355.625	0.08
355.834	0.11
356.042	0.12
356.251	0.08
356.46	0.07
356.668	0.08
356.877	0.21
357.085	0.15
357.294	0.01
357.503	0.11
357.711	0.12
357.92	0.21
358.128	0.09
358.337	0.1
358.545	0.11
358.754	0.08
358.962	0.15
359.17	0.11
359.379	0.14
359.587	0.14
359.796	0.08
360.004	0.12
360.212	0.14
360.421	0.18
360.629	0.1
360.837	0.09
361.046	0.18
361.254	0.21
361.462	0.08
361.67	0.1
361.879	0.12
362.087	0.19
362.295	0.13
362.503	0.11
362.711	0.06
362.92	0.08
363.128	0.09
363.336	0.06
363.544	0.06
363.752	0.07
363.96	0.07
364.168	0.08
364.376	0.13
364.584	0.11
364.792	0.15
365	0.13
365.208	0.11
365.416	0.14
365.624	0.15
365.832	0.09
366.04	0.18
366.248	0.1
366.456	0.1
366.664	0.14
366.872	0.09
367.079	0.09
367.287	0.13
367.495	0.12
367.703	0.11
367.911	0.08
368.118	0.07
368.326	0.11
368.534	0.03
368.742	0.17
368.949	0.07
369.157	0.07
369.365	0.15
369.572	0.09
369.78	0.07
369.988	0.14
370.195	0.13
370.403	0.14
370.61	0.11
370.818	0.1
371.026	0.15
371.233	0.07
371.441	0.12
371.648	0.11
371.856	0.1
372.063	0.09
372.271	0.09
372.478	0.08
372.685	0.09
372.893	0.12
373.1	0.11
373.308	0.11
373.515	0.16
373.722	0.15
373.93	0.1
374.137	0.15
374.344	0.16
374.552	0.17
374.759	0.14
374.966	0.15
375.173	0.13
375.381	0.15
375.588	0.09
375.795	0.05
376.002	0.07
376.209	0.08
376.417	0.09
376.624	0.11
376.831	0.16
377.038	0.09
377.245	0.02
377.452	0.13
377.659	0.1
377.866	0.11
378.073	0.09
378.28	0.12
378.487	0.12
378.694	0.16
378.901	0.09
379.108	0.08
379.315	0.17
379.522	0.16
379.729	0.12
379.936	0.1
380.143	0.14
380.35	0.12
380.557	0.11
380.763	0.1
380.97	0.12
381.177	0.11
381.384	0.13
381.591	0.08
381.797	0.12
382.004	0.14
382.211	0.18
382.418	0.15
382.624	0.15
382.831	0.17
383.038	0.09
383.244	0.1
383.451	0.12
383.658	0.15
383.864	0.11
384.071	0.04
384.277	0.14
384.484	0.12
384.69	0.13
384.897	0.1
385.103	0.07
385.31	0.12
385.516	0.13
385.723	0.09
385.929	0.12
386.136	0.08
386.342	0.17
386.549	0.1
386.755	0.15
386.961	0.12
387.168	0.08
387.374	0.1
387.58	0.18
387.787	0.12
387.993	0.13
388.199	0.1
388.406	0.11
388.612	0.14
388.818	0.11
389.024	0.14
389.231	0.11
389.437	0.2
389.643	0.15
389.849	0.07
390.055	0.12
390.261	0.12
390.467	0.13
390.674	0.06
390.88	0.09
391.086	0.18
391.292	0.09
391.498	0.13
391.704	0.17
391.91	0.13
392.116	0.09
392.322	0
392.528	0.12
392.734	0.12
392.94	0.11
393.146	0.15
393.352	0.15
393.557	0.14
393.763	0.11
393.969	0.16
394.175	0.11
394.381	0.1
394.587	0.11
394.792	0.15
394.998	0.18
395.204	0.19
395.41	0.05
395.615	0.17
395.821	0.15
396.027	0.14
396.233	0.12
396.438	0.13
396.644	0.23
396.85	0.1
397.055	0.12
397.261	0.16
397.466	0.1
397.672	0.12
397.878	0.21
398.083	0.16
398.289	0.06
398.494	0.19
398.7	0.18
398.905	0.11
399.111	0.18
399.316	0.09
399.522	0.1
399.727	0.11
399.932	0.09
400.138	0.15
400.343	0.15
400.549	0.15
400.754	0.15
400.959	0.15
401.165	0.1
401.37	0.1
401.575	0.24
401.78	0.15
401.986	0.09
402.191	0.13
402.396	0.11
402.601	0.16
402.807	0.2
403.012	0.1
403.217	0.15
403.422	0.14
403.627	0.14
403.832	0.09
404.037	0.19
404.243	0.2
404.448	0.11
404.653	0.11
404.858	0.14
405.063	0.18
405.268	0.12
405.473	0.08
405.678	0.11
405.883	0.25
406.088	0.15
406.293	0.12
406.498	0.15
406.703	0.16
406.907	0.14
407.112	0.12
407.317	0.16
407.522	0.21
407.727	0.11
407.932	0.17
408.136	0.27
408.341	0.14
408.546	0.21
408.751	0.19
408.956	0.09
409.16	0.17
409.365	0.12
409.57	0.19
409.774	0.1
409.979	0.2
410.184	0.14
410.388	0.13
410.593	0.18
410.798	0.19
411.002	0.08
411.207	0.17
411.411	0.17
411.616	0.13
411.82	0.15
412.025	0.2
412.229	0.14
412.434	0.18
412.638	0.23
412.843	0.15
413.047	0.14
413.252	0.16
413.456	0.17
413.66	0.19
413.865	0.17
414.069	0.27
414.273	0.14
414.478	0.15
414.682	0.13
414.886	0.13
415.091	0.09
415.295	0.09
415.499	0.19
415.703	0.17
415.908	0.2
416.112	0.09
416.316	0.19
416.52	0.15
416.724	0.11
416.929	0.12
417.133	0.3
417.337	0.16
417.541	0.17
417.745	0.17
417.949	0.19
418.153	0.2
418.357	0.11
418.561	0.26
418.765	0.14
418.969	0.29
419.173	0.18
419.377	0.12
419.581	0.24
419.785	0.16
419.989	0.07
420.193	0.2
420.397	0.2
420.601	0.25
420.804	0.17
421.008	0.21
421.212	0.21
421.416	0.24
421.62	0.14
421.823	0.18
422.027	0.27
422.231	0.21
422.435	0.13
422.638	0.16
422.842	0.14
423.046	0.14
423.249	0.23
423.453	0.2
423.657	0.17
423.86	0.15
424.064	0.15
424.268	0.3
424.471	0.2
424.675	0.24
424.878	0.26
425.082	0.2
425.285	0.22
425.489	0.2
425.692	0.13
425.896	0.13
426.099	0.22
426.303	0.11
426.506	0.09
426.71	0.24
426.913	0.22
427.116	0.28
427.32	0.22
427.523	0.22
427.726	0.29
427.93	0.11
428.133	0.19
428.336	0.17
428.54	0.17
428.743	0.22
428.946	0.25
429.149	0.18
429.353	0.21
429.556	0.19
429.759	0.15
429.962	0.15
430.165	0.22
430.368	0.2
430.571	0.19
430.775	0.15
430.978	0.2
431.181	0.19
431.384	0.2
431.587	0.15
431.79	0.18
431.993	0.19
432.196	0.17
432.399	0.18
432.602	0.28
432.805	0.19
433.008	0.18
433.211	0.18
433.414	0.28
433.616	0.23
433.819	0.22
434.022	0.11
434.225	0.25
434.428	0.2
434.631	0.31
434.833	0.19
435.036	0.21
435.239	0.24
435.442	0.19
435.645	0.13
435.847	0.2
436.05	0.26
436.253	0.19
436.455	0.14
436.658	0.21
436.861	0.26
437.063	0.16
437.266	0.22
437.468	0.21
437.671	0.33
437.874	0.18
438.076	0.12
438.279	0.15
438.481	0.19
438.684	0.16
438.886	0.23
439.089	0.11
439.291	0.24
439.494	0.2
439.696	0.16
439.899	0.19
440.101	0.21
440.303	0.18
440.506	0.26
440.708	0.27
440.91	0.21
441.113	0.13
441.315	0.24
441.517	0.13
441.72	0.25
441.922	0.19
442.124	0.19
442.326	0.25
442.529	0.27
442.731	0.17
442.933	0.28
443.135	0.23
443.337	0.2
443.539	0.19
443.742	0.19
443.944	0.22
444.146	0.13
444.348	0.19
444.55	0.13
444.752	0.24
444.954	0.17
445.156	0.22
445.358	0.19
445.56	0.29
445.762	0.21
445.964	0.23
446.166	0.18
446.368	0.2
446.57	0.26
446.772	0.21
446.974	0.23
447.175	0.23
447.377	0.21
447.579	0.2
447.781	0.16
447.983	0.3
448.184	0.19
448.386	0.24
448.588	0.17
448.79	0.26
448.991	0.21
449.193	0.23
449.395	0.23
449.597	0.31
449.798	0.23
450	0.23
450.202	0.26
450.403	0.22
450.605	0.27
450.806	0.24
451.008	0.16
451.21	0.21
451.411	0.25
451.613	0.2
451.814	0.26
452.016	0.24
452.217	0.23
452.419	0.28
452.62	0.23
452.821	0.28
453.023	0.3
453.224	0.25
453.426	0.23
453.627	0.21
453.828	0.31
454.03	0.21
454.231	0.27
454.432	0.22
454.634	0.33
454.835	0.24
455.036	0.23
455.238	0.32
455.439	0.34
455.64	0.22
455.841	0.25
456.042	0.36
456.244	0.3
456.445	0.17
456.646	0.22
456.847	0.29
457.048	0.28
457.249	0.29
457.45	0.47
457.651	0.21
457.852	0.31
458.054	0.31
458.255	0.28
458.456	0.32
458.657	0.31
458.858	0.24
459.058	0.3
459.259	0.31
459.46	0.28
459.661	0.3
459.862	0.45
460.063	0.28
460.264	0.36
460.465	0.26
460.666	0.45
460.866	0.32
461.067	0.26
461.268	0.26
461.469	0.25
461.67	0.33
461.87	0.32
462.071	0.27
462.272	0.26
462.473	0.28
462.673	0.35
462.874	0.25
463.075	0.34
463.275	0.28
463.476	0.35
463.676	0.36
463.877	0.33
464.078	0.36
464.278	0.42
464.479	0.28
464.679	0.35
464.88	0.32
465.08	0.46
465.281	0.34
465.481	0.32
465.682	0.33
465.882	0.41
466.083	0.36
466.283	0.35
466.483	0.36
466.684	0.32
466.884	0.31
467.085	0.36
467.285	0.46
467.485	0.32
467.686	0.37
467.886	0.3
468.086	0.37
468.286	0.38
468.487	0.44
468.687	0.36
468.887	0.37
469.087	0.43
469.287	0.44
469.488	0.33
469.688	0.49
469.888	0.45
470.088	0.48
470.288	0.51
470.488	0.5
470.688	0.35
470.888	0.44
471.088	0.39
471.288	0.48
471.488	0.49
471.688	0.52
471.888	0.45
472.088	0.56
472.288	0.51
472.488	0.46
472.688	0.51
472.888	0.51
473.088	0.56
473.288	0.54
473.488	0.49
473.688	0.66
473.887	0.58
474.087	0.56
474.287	0.65
474.487	0.56
474.687	0.66
474.886	0.62
475.086	0.58
475.286	0.61
475.486	0.67
475.685	0.66
475.885	0.63
476.085	0.68
476.284	0.73
476.484	0.69
476.684	0.72
476.883	0.77
477.083	0.72
477.282	0.7
477.482	0.82
477.681	0.78
477.881	0.71
478.08	0.75
478.28	0.79
478.479	0.85
478.679	0.87
478.878	0.82
479.078	0.82
479.277	0.9
479.477	0.87
479.676	0.91
479.875	0.9
480.075	0.86
480.274	0.96
480.473	1.01
480.673	0.94
480.872	1.01
481.071	1.04
481.271	1.04
481.47	1.02
481.669	1.05
481.868	1.08
482.067	1.07
482.267	1.05
482.466	1.1
482.665	1.12
482.864	1.17
483.063	1.19
483.262	1.28
483.461	1.26
483.661	1.35
483.86	1.27
484.059	1.37
484.258	1.32
484.457	1.37
484.656	1.44
484.855	1.51
485.054	1.37
485.253	1.43
485.452	1.44
485.651	1.55
485.849	1.47
486.048	1.58
486.247	1.62
486.446	1.64
486.645	1.64
486.844	1.72
487.043	1.69
487.241	1.79
487.44	1.79
487.639	1.82
487.838	1.88
488.037	1.87
488.235	1.99
488.434	2.03
488.633	1.92
488.831	2.12
489.03	2.1
489.229	2.14
489.427	2.14
489.626	2.23
489.825	2.25
490.023	2.37
490.222	2.32
490.42	2.38
490.619	2.45
490.817	2.44
491.016	2.51
491.214	2.61
491.413	2.64
491.611	2.61
491.81	2.66
492.008	2.71
492.207	2.88
492.405	2.83
492.604	2.79
492.802	2.93
493	3.03
493.199	3.1
493.397	3.06
493.595	3.21
493.794	3.2
493.992	3.35
494.19	3.33
494.388	3.47
494.587	3.41
494.785	3.52
494.983	3.49
495.181	3.64
495.379	3.75
495.578	3.86
495.776	3.87
495.974	3.82
496.172	3.93
496.37	4.14
496.568	4.22
496.766	4.19
496.964	4.37
497.162	4.38
497.36	4.5
497.558	4.52
497.756	4.67
497.954	4.72
498.152	4.88
498.35	5.05
498.548	4.94
498.746	5.01
498.944	5.1
499.142	5.17
499.34	5.34
499.538	5.51
499.736	5.37
499.933	5.58
500.131	5.66
500.329	5.93
500.527	5.89
500.725	6.16
500.922	6.21
501.12	6.34
501.318	6.48
501.516	6.49
501.713	6.66
501.911	6.64
502.109	6.7
502.306	6.98
502.504	6.9
502.701	7.1
502.899	7.21
503.097	7.61
503.294	7.43
503.492	7.71
503.689	7.88
503.887	7.9
504.084	7.99
504.282	8.08
504.479	8.23
504.677	8.52
504.874	8.49
505.072	8.46
505.269	8.94
505.466	9.07
505.664	9.15
505.861	9.05
506.059	9.38
506.256	9.36
506.453	9.59
506.651	9.85
506.848	10.04
507.045	10.02
507.242	10.18
507.44	10.41
507.637	10.49
507.834	10.56
508.031	10.86
508.229	10.82
508.426	10.85
508.623	11.18
508.82	11.44
509.017	11.4
509.214	11.46
509.411	11.82
509.608	11.82
509.805	12.15
510.003	12.17
510.2	12.34
510.397	12.61
510.594	12.47
510.791	12.89
510.988	12.81
511.184	12.87
511.381	12.7
511.578	13.14
511.775	13.49
511.972	13.41
512.169	13.56
512.366	13.67
512.563	13.92
512.76	14.21
512.956	14.23
513.153	14.2
513.35	14.11
513.547	14.15
513.744	14.52
513.94	14.55
514.137	14.82
514.334	14.8
514.53	14.95
514.727	15.42
514.924	15.14
515.12	15.16
515.317	15.34
515.514	15.14
515.71	15.16
515.907	15.68
516.103	15.73
516.3	15.48
516.497	15.8
516.693	15.77
516.89	15.85
517.086	15.95
517.283	15.9
517.479	15.59
517.676	16.09
517.872	16.19
518.068	16.19
518.265	16.17
518.461	16
518.658	16.33
518.854	16.14
519.05	16.45
519.247	16.49
519.443	16.3
519.639	16.49
519.836	16.24
520.032	16.07
520.228	16.42
520.424	16.12
520.621	16.22
520.817	16.4
521.013	16.03
521.209	16.5
521.405	16.28
521.601	16.22
521.798	16.1
521.994	15.89
522.19	15.81
522.386	15.87
522.582	15.93
522.778	16.1
522.974	15.68
523.17	15.63
523.366	15.61
523.562	15.53
523.758	15.49
523.954	15.11
524.15	15.39
524.346	15.31
524.542	15.28
524.738	15.04
524.934	15.18
525.129	14.96
525.325	14.72
525.521	14.64
525.717	14.95
525.913	14.42
526.109	14.41
526.304	14.52
526.5	14.33
526.696	14.25
526.892	13.97
527.087	14.33
527.283	13.92
527.479	13.8
527.674	13.4
527.87	13.58
528.066	13.41
528.261	13.29
528.457	13.03
528.653	13.28
528.848	13.03
529.044	13.08
529.239	12.72
529.435	12.48
529.63	12.37
529.826	12.28
530.021	12.19
530.217	12.25
530.412	11.96
530.608	11.9
530.803	11.84
530.999	11.53
531.194	11.56
531.389	11.56
531.585	11.34
531.78	11.46
531.975	11.14
532.171	11.07
532.366	10.98
532.561	10.84
532.757	10.71
532.952	10.77
533.147	10.24
533.342	10.42
533.538	10.17
533.733	10.34
533.928	9.81
534.123	9.96
534.318	9.85
534.513	9.64
534.709	9.81
534.904	9.62
535.099	9.54
535.294	9.41
535.489	9.37
535.684	9.2
535.879	9.07
536.074	9.03
536.269	8.95
536.464	8.88
536.659	8.69
536.854	8.59
537.049	8.63
537.244	8.41
537.439	8.35
537.634	8.24
537.828	8.21
538.023	8.13
538.218	7.97
538.413	7.8
538.608	7.85
538.803	7.72
538.997	7.61
539.192	7.54
539.387	7.45
539.582	7.37
539.776	7.22
539.971	7.3
540.166	7.23
540.36	7.05
540.555	7.18
540.75	7
540.944	6.88
541.139	6.85
541.334	6.71
541.528	6.63
541.723	6.63
541.917	6.59
542.112	6.38
542.306	6.29
542.501	6.27
542.695	6.22
542.89	6.08
543.084	6.09
543.279	6.07
543.473	5.99
543.668	5.95
543.862	5.75
544.056	5.67
544.251	5.77
544.445	5.72
544.64	5.6
544.834	5.33
545.028	5.19
545.222	5.37
545.417	5.4
545.611	5.28
545.805	5.17
546	4.98
546.194	5.04
546.388	5.02
546.582	4.87
546.776	4.85
546.97	4.86
547.165	4.75
547.359	4.7
547.553	4.61
547.747	4.57
547.941	4.61
548.135	4.44
548.329	4.43
548.523	4.39
548.717	4.28
548.911	4.23
549.105	4.15
549.299	4.17
549.493	4.12
549.687	4.01
549.881	4.01
550.075	3.95
550.269	3.84
550.463	3.87
550.657	3.74
550.85	3.75
551.044	3.67
551.238	3.69
551.432	3.6
551.626	3.57
551.82	3.56
552.013	3.44
552.207	3.48
552.401	3.41
552.594	3.34
552.788	3.25
552.982	3.21
553.176	3.16
553.369	3.21
553.563	3.18
553.756	3.1
553.95	3.04
554.144	3.01
554.337	2.98
554.531	2.87
554.724	2.88
554.918	2.9
555.111	2.85
555.305	2.76
555.498	2.76
555.692	2.76
555.885	2.7
556.079	2.63
556.272	2.55
556.466	2.62
556.659	2.5
556.852	2.51
557.046	2.46
557.239	2.45
557.432	2.38
557.626	2.41
557.819	2.41
558.012	2.34
558.206	2.35
558.399	2.28
558.592	2.26
558.785	2.16
558.979	2.22
559.172	2.15
559.365	2.15
559.558	2.07
559.751	2.07
559.944	2.02
560.138	2.01
560.331	1.98
560.524	1.97
560.717	1.97
560.91	1.89
561.103	1.91
561.296	1.82
561.489	1.87
561.682	1.85
561.875	1.83
562.068	1.8
562.261	1.73
562.454	1.81
562.647	1.74
562.84	1.75
563.032	1.66
563.225	1.66
563.418	1.6
563.611	1.62
563.804	1.59
563.997	1.51
564.19	1.5
564.382	1.56
564.575	1.49
564.768	1.48
564.961	1.44
565.153	1.43
565.346	1.42
565.539	1.45
565.731	1.41
565.924	1.39
566.117	1.43
566.309	1.37
566.502	1.3
566.695	1.28
566.887	1.32
567.08	1.32
567.272	1.28
567.465	1.22
567.657	1.23
567.85	1.21
568.042	1.24
568.235	1.25
568.427	1.15
568.62	1.17
568.812	1.17
569.005	1.16
569.197	1.07
569.389	1.11
569.582	1.11
569.774	1.1
569.966	1.03
570.159	1.01
570.351	1.03
570.543	1.04
570.736	1.03
570.928	0.96
571.12	0.99
571.312	0.94
571.505	0.89
571.697	0.97
571.889	0.94
572.081	0.93
572.273	0.87
572.465	0.95
572.658	0.87
572.85	0.92
573.042	0.86
573.234	0.86
573.426	0.89
573.618	0.82
573.81	0.83
574.002	0.83
574.194	0.85
574.386	0.76
574.578	0.68
574.77	0.77
574.962	0.76
575.154	0.73
575.346	0.72
575.538	0.74
575.729	0.72
575.921	0.73
576.113	0.72
576.305	0.74
576.497	0.69
576.689	0.68
576.88	0.68
577.072	0.71
577.264	0.66
577.456	0.67
577.647	0.57
577.839	0.64
578.031	0.69
578.223	0.56
578.414	0.58
578.606	0.65
578.798	0.62
578.989	0.58
579.181	0.61
579.372	0.6
579.564	0.56
579.755	0.57
579.947	0.55
580.139	0.6
580.33	0.51
580.522	0.48
580.713	0.48
580.905	0.53
581.096	0.53
581.287	0.53
581.479	0.51
581.67	0.5
581.862	0.48
582.053	0.49
582.244	0.44
582.436	0.46
582.627	0.47
582.818	0.46
583.01	0.46
583.201	0.43
583.392	0.47
583.583	0.47
583.775	0.41
583.966	0.41
584.157	0.44
584.348	0.43
584.54	0.39
584.731	0.44
584.922	0.4
585.113	0.37
585.304	0.43
585.495	0.44
585.686	0.4
585.877	0.46
586.068	0.4
586.259	0.4
586.45	0.4
586.641	0.36
586.832	0.35
587.023	0.38
587.214	0.39
587.405	0.39
587.596	0.31
587.787	0.41
587.978	0.37
588.169	0.33
588.36	0.31
588.551	0.38
588.742	0.34
588.932	0.36
589.123	0.34
589.314	0.39
589.505	0.32
589.696	0.34
589.886	0.29
590.077	0.31
590.268	0.33
590.458	0.24
590.649	0.27
590.84	0.31
591.03	0.29
591.221	0.24
591.412	0.26
591.602	0.33
591.793	0.32
591.984	0.27
592.174	0.27
592.365	0.37
592.555	0.26
592.746	0.29
592.936	0.29
593.127	0.29
593.317	0.32
593.508	0.27
593.698	0.25
593.889	0.25
594.079	0.25
594.269	0.23
594.46	0.25
594.65	0.26
594.84	0.25
595.031	0.22
595.221	0.24
595.411	0.22
595.602	0.27
595.792	0.23
595.982	0.24
596.172	0.28
596.363	0.24
596.553	0.25
596.743	0.23
596.933	0.21
597.123	0.27
597.314	0.21
597.504	0.2
597.694	0.27
597.884	0.23
598.074	0.2
598.264	0.2
598.454	0.23
598.644	0.21
598.834	0.23
599.024	0.13
599.214	0.19
599.404	0.25
599.594	0.21
599.784	0.19
599.974	0.23
600.164	0.22
600.354	0.15
600.544	0.16
600.734	0.17
600.924	0.25
601.114	0.18
601.303	0.18
601.493	0.22
601.683	0.19
601.873	0.21
602.063	0.17
602.252	0.22
602.442	0.14
602.632	0.19
602.821	0.16
603.011	0.2
603.201	0.15
603.39	0.17
603.58	0.18
603.77	0.2
603.959	0.18
604.149	0.17
604.339	0.15
604.528	0.24
604.718	0.21
604.907	0.17
605.097	0.15
605.286	0.13
605.476	0.18
605.665	0.17
605.855	0.16
606.044	0.21
606.234	0.17
606.423	0.14
606.612	0.14
606.802	0.17
606.991	0.2
607.181	0.2
607.37	0.12
607.559	0.17
607.749	0.11
607.938	0.16
608.127	0.17
608.316	0.13
608.506	0.15
608.695	0.15
608.884	0.14
609.073	0.15
609.263	0.18
609.452	0.17
609.641	0.15
609.83	0.1
610.019	0.14
610.208	0.12
610.397	0.15
610.586	0.19
610.775	0.12
610.965	0.13
611.154	0.1
611.343	0.18
611.532	0.14
611.721	0.09
611.91	0.14
612.099	0.17
612.287	0.14
612.476	0.11
612.665	0.17
612.854	0.09
613.043	0.19
613.232	0.16
613.421	0.09
613.61	0.15
613.798	0.09
613.987	0.17
614.176	0.15
614.365	0.16
614.554	0.15
614.742	0.15
614.931	0.11
615.12	0.17
615.309	0.13
615.497	0.11
615.686	0.09
615.875	0.14
616.063	0.13
616.252	0.1
616.44	0.11
616.629	0.12
616.818	0.17
617.006	0.11
617.195	0.14
617.383	0.15
617.572	0.14
617.76	0.12
617.949	0.1
618.137	0.14
618.326	0.16
618.514	0.12
618.703	0.12
618.891	0.19
619.079	0.08
619.268	0.14
619.456	0.1
619.644	0.15
619.833	0.13
620.021	0.1
620.209	0.09
620.398	0.12
620.586	0.13
620.774	0.18
620.962	0.1
621.151	0.16
621.339	0.16
621.527	0.07
621.715	0.09
621.903	0.07
622.092	0.08
622.28	0.13
622.468	0.13
622.656	0.1
622.844	0.16
623.032	0.14
623.22	0.08
623.408	0.16
623.596	0.17
623.784	0.16
623.972	0.09
624.16	0.13
624.348	0.16
624.536	0.13
624.724	0.11
624.912	0.15
625.1	0.14
625.288	0.09
625.476	0.08
625.664	0.15
625.851	0.09
626.039	0.11
626.227	0.13
626.415	0.09
626.603	0.05
626.79	0.13
626.978	0.1
627.166	0.13
627.354	0.08
627.541	0.09
627.729	0.04
627.917	0.16
628.104	0.13
628.292	0.13
628.48	0.13
628.667	0.1
628.855	0.14
629.042	0.09
629.23	0.11
629.418	0.09
629.605	0.1
629.793	0.09
629.98	0.08
630.168	0.11
630.355	0.09
630.543	0.08
630.73	0.08
630.917	0.11
631.105	0.17
631.292	0.09
631.48	0.09
631.667	0.15
631.854	0.11
632.042	0.08
632.229	0.07
632.416	0.14
632.604	0.09
632.791	0.08
632.978	0.11
633.165	0.12
633.353	0.17
633.54	0.16
633.727	0.05
633.914	0.08
634.101	0.04
634.289	0.14
634.476	0.05
634.663	0.05
634.85	0.1
635.037	0.04
635.224	0.04
635.411	0.12
635.598	0.14
635.785	0.12
635.972	0.11
636.159	0.12
636.346	0.07
636.533	0.08
636.72	0.12
636.907	0.09
637.094	0.12
637.281	0.09
637.468	0.1
637.655	0.06
637.842	0.1
638.029	0.08
638.215	0.14
638.402	0.13
638.589	0.08
638.776	0.08
638.963	0.07
639.149	0.17
639.336	0.16
639.523	0.11
639.709	0.1
639.896	0.08
640.083	0.13
640.27	0.1
640.456	0.09
640.643	0.12
640.829	0.09
641.016	0.1
641.203	0.06
641.389	0.13
641.576	0.1
641.762	0.1
641.949	0.05
642.135	0.12
642.322	0.08
642.508	0.03
642.695	0.08
642.881	0.1
643.068	0.08
643.254	0.08
643.441	0.14
643.627	0.09
643.813	0.07
644	0.12
644.186	0.03
644.372	0.06
644.559	0.13
644.745	0.1
644.931	0.08
645.118	0.08
645.304	0.1
645.49	0.07
645.676	0.1
645.862	0.09
646.049	0.15
646.235	0.09
646.421	0.16
646.607	0.17
646.793	0.07
646.979	0.12
647.165	0.14
647.352	0.11
647.538	0.14
647.724	0.09
647.91	0.12
648.096	0.13
648.282	0.11
648.468	0.08
648.654	0.13
648.84	0.09
649.026	0.1
649.212	0.07
649.397	0.06
649.583	0.04
649.769	0.13
649.955	0.05
650.141	0.1
650.327	0.14
650.513	0.07
650.698	0.14
650.884	0.01
651.07	0.1
651.256	0.12
651.442	0.09
651.627	0.09
651.813	0.1
651.999	0.11
652.184	0.12
652.37	0.07
652.556	0.07
652.741	0.13
652.927	0.01
653.113	0.08
653.298	0.11
653.484	0.11
653.669	0.05
653.855	0.11
654.04	0.11
654.226	0.09
654.412	0.07
654.597	0.07
654.782	0.11
654.968	0.16
655.153	0.12
655.339	0.05
655.524	0.07
655.71	0.09
655.895	0.08
656.08	0.1
656.266	0.14
656.451	0.1
656.636	0.07
656.822	0.11
657.007	0.05
657.192	0.08
657.378	0.05
657.563	0.09
657.748	0.11
657.933	0.11
658.118	0.05
658.304	0.07
658.489	0.13
658.674	0.09
658.859	0.08
659.044	0.13
659.229	0.12
659.414	0.05
659.599	0.1
659.785	0.05
659.97	0.09
660.155	0.15
660.34	0.09
660.525	0.09
660.71	0.06
660.895	0.14
661.08	0.11
661.264	0.1
661.449	0.15
661.634	0.14
661.819	0.12
662.004	0.11
662.189	0.05
662.374	0.09
662.559	0.07
662.743	0.08
662.928	0.08
663.113	0.08
663.298	0.07
663.483	0.08
663.667	0.12
663.852	0.07
664.037	0.14
664.221	0.09
664.406	0.11
664.591	0.12
664.775	0.09
664.96	0.12
665.145	0.1
665.329	0.1
665.514	0.07
665.698	0.1
665.883	0.04
666.068	0.14
666.252	0.15
666.437	0.1
666.621	0.07
666.806	0.15
666.99	0.09
667.174	0.08
667.359	0.17
667.543	0.1
667.728	0.11
667.912	-0
668.096	0.11
668.281	0.08
668.465	0.11
668.649	0.11
668.834	0.09
669.018	0.11
669.202	0.13
669.387	0.1
669.571	0.13
669.755	0.04
669.939	0.09
670.124	0.09
670.308	0.14
670.492	0.15
670.676	0.08
670.86	0.13
671.044	0.04
671.228	0.14
671.413	0.12
671.597	0.12
671.781	0.08
671.965	0.16
672.149	0.1
672.333	0.13
672.517	0.04
672.701	0.09
672.885	0.13
673.069	0.05
673.253	0.15
673.437	0.09
673.621	0.07
673.804	0.11
673.988	0.13
674.172	0.13
674.356	0.09
674.54	0.11
674.724	0.16
674.908	0.13
675.091	0.15
675.275	0.12
675.459	0.16
675.643	0.14
675.826	0.15
676.01	0.13
676.194	0.12
676.377	0.16
676.561	0.14
676.745	0.11
676.928	0.15
677.112	0.15
677.296	0.13
677.479	0.12
677.663	0.13
677.846	0.16
678.03	0.13
678.213	0.1
678.397	0.13
678.58	0.1
678.764	0.1
678.947	0.07
679.131	0.05
679.314	0.2
679.498	0.12
679.681	0.17
679.865	0.2
680.048	0.14
680.231	0.13
680.415	0.12
680.598	0.1
680.781	0.11
680.965	0.08
681.148	0.17
681.331	0.13
681.514	0.15
681.698	0.11
681.881	0.13
682.064	0.13
682.247	0.13
682.43	0.02
682.614	0.15
682.797	0.17
682.98	0.19
683.163	0.06
683.346	0.18
683.529	0.13
683.712	0.08
683.895	0.15
684.078	0.07
684.261	0.12
684.444	0.12
684.627	0.1
684.81	0.1
684.993	0.11
685.176	0.12
685.359	0.1
685.542	0.07
685.725	0.18
685.908	0.17
686.091	0.1
686.274	0.18
686.457	0.13
686.639	0.13
686.822	0.16
687.005	0.12
687.188	0.18
687.371	0.22
687.553	0.17
687.736	0.14
687.919	0.2
688.102	0.15
688.284	0.13
688.467	0.12
688.65	0.09
688.832	0.15
689.015	0.12
689.197	0.06
689.38	0.18
689.563	0.16
689.745	0.09
689.928	0.06
690.11	0.08
690.293	0.11
690.475	0.05
690.658	0.15
690.84	0.09
691.023	0.05
691.205	0.09
691.388	0.13
691.57	0.16
691.752	0.17
691.935	0.03
692.117	0.12
692.3	0.16
692.482	0.07
692.664	0.12
692.847	0.16
693.029	0.17
693.211	0.16
693.393	0.12
693.576	0.11
693.758	0.13
693.94	0.12
694.122	0.06
694.304	0.08
694.487	0.11
694.669	0.21
694.851	0.06
695.033	0.11
695.215	0.11
695.397	0.09
695.579	0.1
695.761	0.07
695.943	0.03
696.125	0.11
696.308	0.19
696.49	0.04
696.671	0.19
696.853	0.09
697.035	0.26
697.217	0.13
697.399	0.13
697.581	0.08
697.763	0.12
697.945	0.07
698.127	0.08
698.309	0.2
698.491	0.12
698.672	0.19
698.854	0.14
699.036	0.2
699.218	0.13
699.399	0.14
699.581	0.14
699.763	0.12
699.945	0.13
700.126	0.06
700.308	0.14
700.49	0.14
700.671	0.04
700.853	0.13
701.035	0.14
701.216	0.1
701.398	0.05
701.579	0.1
701.761	0.23
701.943	0.1
702.124	0.13
702.306	0.11
702.487	0.28
702.669	0.08
702.85	0.12
703.031	0.02
703.213	0.2
703.394	0.12
703.576	0.06
703.757	0.2
703.938	0.23
704.12	0.26
704.301	0.14
704.483	0.09
704.664	0.13
704.845	0.24
705.026	0.23
705.208	0.12
705.389	0.15
705.57	0.16
705.751	0.11
705.933	0.14
706.114	0.14
706.295	0.14
706.476	0.05
706.657	0.23
706.838	0.19
707.02	0.18
707.201	0.07
707.382	0.03
707.563	0.13
707.744	0.11
707.925	-0
708.106	0.11
708.287	0.23
708.468	0.21
708.649	0.1
708.83	0.13
709.011	0.1
709.192	0.15
709.373	0.05
709.554	0.14
709.734	0.19
709.915	0.17
710.096	0.15
710.277	0.04
710.458	0.17
710.639	0.2
710.819	0.08
711	0.13
711.181	0.17
711.362	0.18
711.542	0.12
711.723	0.17
711.904	0.2
712.085	0.17
712.265	0.15
712.446	0.07
712.627	0.18
712.807	0.11
712.988	0.14
713.168	0.03
713.349	0.19
713.53	0.01
713.71	0.04
713.891	0.08
714.071	0.11
714.252	0.11
714.432	0.04
714.613	0
714.793	0.15
714.974	0.19
715.154	0.15
715.334	0.14
715.515	0.2
715.695	0.06
715.876	0.16
716.056	0.08
716.236	0.12
716.417	0.06
716.597	0.11
716.777	0.24
716.957	0.16
717.138	0.18
717.318	0.15
717.498	-0.02
717.678	0.15
717.859	0.18
718.039	0.07
718.219	0.13
718.399	0.14
718.579	0.02
718.759	0.1
718.939	0.15
719.12	0.12
719.3	0.11
719.48	0.04
719.66	0.05
719.84	0.23
720.02	0.1
720.2	0.12
720.38	0.13
720.56	0.2
720.74	0.1
720.92	0.16
721.1	0.3
721.279	0.28
721.459	0.15
721.639	0.02
721.819	0.12
721.999	0.14
722.179	0.2
722.359	0.05
722.538	0.13
722.718	0.19
722.898	0.09
723.078	0.07
723.257	0.11
723.437	0.15
723.617	0.16
723.797	0.14
723.976	0.18
724.156	0.16
724.336	0.2
724.515	0.3
724.695	0.02
724.874	0.08
725.054	0.15
725.234	0.11
725.413	0.14
725.593	0.11
725.772	0.18
725.952	0.09
726.131	0.12
726.311	0.1
726.49	0.09
726.67	0.02
726.849	0.08
727.028	0.06
727.208	0.13
727.387	0.13
727.567	-0.03
727.746	0.2
727.925	0.1
728.105	0.09
728.284	0.08
728.463	0.1
728.643	0.12
728.822	0.05
729.001	0.13
729.18	0.19
729.359	0.15
729.539	0.14
729.718	0.08
729.897	0.19
730.076	0.16
730.255	-0.01
730.434	0.13
730.614	0.21
730.793	0.15
730.972	0.07
731.151	0.16
731.33	0.23
731.509	0.16
731.688	0.13
731.867	0.15
732.046	0
732.225	0.3
732.404	0.09
732.583	0.14
732.762	0.14
732.941	0.18
733.12	0.18
733.298	0.16
733.477	0.25
733.656	0.11
733.835	-0.07
734.014	0.25
734.193	0.13
734.371	0.2
734.55	0.19
734.729	0.12
734.908	0.16
735.086	0.14
735.265	0.34
735.444	0.06
735.623	0.11
735.801	-0.02
735.98	0.1
736.159	0.09
736.337	0.17
736.516	0.24
736.694	0.17
736.873	0.13
737.052	0.23
737.23	0.37
737.409	0.04
737.587	0.4
737.766	-0.07
737.944	0.17
738.123	0.25
738.301	0.22
738.479	0.07
738.658	0.16
738.836	-0.01
739.015	0.17
739.193	0.29
739.371	0.08
739.55	0.09
739.728	0.02
739.906	0.31
740.085	0.27
740.263	0.15
740.441	0.07
740.62	0.33
740.798	0.22
740.976	0.01
741.154	-0
741.332	0.33
741.511	0.13
741.689	0.2
741.867	0.21
742.045	0.16
742.223	0.19
742.401	0.09
742.579	0.04
742.757	0.2
742.935	0.02
743.114	0.1
743.292	0.08
743.47	0.23
743.648	0.13
743.826	0.13
744.004	0.3
744.181	0.16
744.359	0.12
744.537	0.22
744.715	0.14
744.893	0.14
745.071	0.18
745.249	0.02
745.427	0.14
745.605	0.21
745.782	0.18
745.96	0.18
746.138	0.17
746.316	0.18
746.493	0.18
746.671	0.16
746.849	0.11
747.027	0.31
747.204	0.06
747.382	0.13
747.56	0.04
747.737	0.12
747.915	0.07
748.093	0.19
748.27	0.08
748.448	0.13
748.625	0.06
748.803	0.04
748.98	-0.02
749.158	0.2
749.335	0.23
749.513	0.17
749.69	0.07
749.868	0.17
750.045	0.15
750.223	0.03
750.4	-0.03
750.578	0.25
750.755	0.21
750.932	-0.01
751.11	0.28
751.287	0.03
751.464	0.25
751.642	-0.1
751.819	0.18
751.996	0.22
752.173	0.14
752.351	0.14
752.528	0.18
752.705	0.15
752.882	0.11
753.06	0.08
753.237	0.15
753.414	0.34
753.591	0.37
753.768	0.21
753.945	0.15
754.122	0
754.299	0.24
754.476	0.03
754.654	0.17
754.831	0.16
755.008	0.19
755.185	0.1
755.362	0.06
755.539	0.3
755.716	0.12
755.892	0.11
756.069	0.09
756.246	0.11
756.423	0.07
756.6	0.29
756.777	0.02
756.954	0.15
757.131	-0
757.307	0.03
757.484	0.15
757.661	0.22
757.838	0.28
758.015	0.02
758.191	0.2
758.368	0.13
758.545	0.27
758.721	0.22
758.898	0.06
759.075	0.22
759.251	0.34
759.428	0.26
759.605	-0.09
759.781	0.3
759.958	0.11
760.134	0.18
760.311	0.06
760.488	0.27
760.664	0.19
760.841	0.2
761.017	0.1
761.194	0.15
761.37	0.2
761.547	0.1
761.723	0.27
761.899	0.32
762.076	-0.01
762.252	0.04
762.429	0.12
762.605	0.09
762.781	0.04
762.958	0.31
763.134	0.07
763.31	0.08
763.486	0.17
763.663	-0.04
763.839	0.15
764.015	0.01
764.191	0.02
764.368	0.07
764.544	0.09
764.72	0.11
764.896	0.27
765.072	0.21
765.248	0.07
765.425	0.19
765.601	0.24
765.777	0.18
765.953	-0.04
766.129	0.04
766.305	-0.1
766.481	0.17
766.657	0.16
766.833	0.27
767.009	-0.06
767.185	0.21
767.361	0.05
767.537	0.07
767.713	0.27
767.889	0.05
768.065	0.13
768.24	-0.01
768.416	0.25
768.592	0.04
768.768	0.08
768.944	0.1
769.12	-0.07
769.295	0.08
769.471	0.12
769.647	0.16
769.823	0.4
769.998	-0.07
770.174	0.06
770.35	0.47
770.525	0.42
770.701	0.04
770.877	0.2
771.052	0.09
771.228	0.29
771.403	0.22
771.579	0.25
771.755	0.38
771.93	-0.03
772.106	0.11
772.281	-0.06
772.457	0.17
772.632	0.13
772.808	-0.04
772.983	0.15
773.159	-0.11
773.334	0.22
773.509	0.24
773.685	0.08
773.86	0.59
774.036	0.33
774.211	0.15
774.386	0.02
774.562	0.05
774.737	0.32
774.912	-0.05
775.087	0.22
775.263	0.19
775.438	0.14
775.613	0.15
775.788	0.11
775.964	0.35
776.139	0.48
776.314	-0.01
776.489	0.31
776.664	0.17
776.839	0.1
777.014	0.36
777.19	0.28
777.365	0.46
777.54	0.4
777.715	0
777.89	0.18
778.065	0.13
778.24	0.18
778.415	0.2
778.59	-0.14
778.765	0.11
778.94	0.24
779.115	0.21
779.289	0.17
779.464	0.31
779.639	0.13
779.814	0.02
779.989	0.01
780.164	0.37
780.339	0.2
780.513	0.13
780.688	0.17
780.863	0.06
781.038	0.17
781.212	0.1
781.387	0.19
781.562	0.43
781.737	0.1
781.911	0.24
782.086	0.1
782.261	0.18
782.435	0.45
782.61	0.08
782.784	0.16
782.959	0.37
783.134	0.08
783.308	-0.05
783.483	0.03
783.657	0.44
783.832	0.44
784.006	0.09
784.181	0.2
784.355	0.32
784.53	0.01
784.704	0.04
784.878	0.22
785.053	0.13
785.227	0.5
785.402	0.57
785.576	0.06
785.75	0.25
785.925	0.15
786.099	0.37
786.273	0.15
786.448	0.25
786.622	0.47
786.796	0.09
786.97	0.12
787.145	0.82
787.319	-0.42
787.493	0.29
787.667	-0.26
787.841	0.27
788.015	0.39
788.19	0.15
788.364	0.13
788.538	0.32
788.712	0.29
788.886	0.07
789.06	0.32
789.234	0.22
789.408	-0.12
789.582	0.11
789.756	0.15
789.93	-0.14
790.104	0.18
790.278	0.09
790.452	0.19
790.626	0.54
790.8	0.04
790.973	0.21
791.147	0.68
791.321	0.48
791.495	0.28
791.669	0.08
791.843	0.35
792.016	-0.03
792.19	0.66
792.364	-0.22
792.538	0.59
792.711	0.47
792.885	-0.03
793.059	-0.18
793.233	-0.19
793.406	0.54
793.58	0.33
793.754	0.12
793.927	0.23
794.101	0.61
794.274	0.11
794.448	0.27
794.622	0.29
794.795	0.46
794.969	0.17
795.142	0.44
795.316	-0.12
795.489	0.03
795.663	0.59
795.836	0.12
796.009	0.07
796.183	0.35
796.356	0.07
796.53	0.21
796.703	0.07
796.876	0.72
797.05	0.14
797.223	0.07
797.396	0.08
797.57	0.31
797.743	0.63
797.916	0.56
798.09	0.25
798.263	0.41
798.436	0.64
798.609	-0.05
798.782	0.04
798.956	0.25
799.129	0.08
799.302	0.31
799.475	0.16
799.648	-0
799.821	-0.11
799.994	0.44
800.167	-0.2
800.34	0.21
800.514	0.26
800.687	0.27
800.86	-0.04
801.033	0.31
801.206	0.19
801.379	-0
801.551	0.46
801.724	0.46
801.897	0.42
802.07	0.17
802.243	-0.24
802.416	0.02
802.589	0.02
802.762	0.31
802.935	0.32
803.107	0.39
803.28	0.43
803.453	0.47
803.626	-0.08
803.798	0.43
803.971	0.37
804.144	0.2
804.317	0.49
804.489	0.46
804.662	0.06
804.835	0.3
805.007	-0.13
805.18	0.79
805.353	0.16
805.525	-0.02
805.698	0.35
805.87	0.44
806.043	0.41
806.215	0.09
806.388	-0.08
806.56	0.47
806.733	0.33
806.905	0.46
807.078	0.06
807.25	-0.01
807.423	0.44
807.595	-0.06
807.768	0.28
807.94	0.63
808.112	0.38
808.285	0.17
808.457	0.21
808.629	0.23
808.802	0.6
808.974	0.05
809.146	0.03
809.318	-0.3
809.491	0.53
809.663	0.7
809.835	0.35
810.007	0.22
810.18	0.4
810.352	-0.18
810.524	0.29
810.696	0.45
810.868	0.7
811.04	0.25
811.212	-0.04
811.384	0.47
811.556	0.36
811.728	0.18
811.901	0.82
812.073	0.43
812.245	0.82
812.417	0.53
812.589	-0.23
812.76	0.65
812.932	0.45
813.104	0.48
813.276	0.22
813.448	0.67
813.62	0.16
813.792	0.24
813.964	0.22
814.136	0.55
814.307	0.49
814.479	-0.13
814.651	0.37
814.823	1.16
814.995	0.1
815.166	0.49
815.338	0.15
815.51	0.13
815.681	1.04
815.853	0.39
816.025	0.34
816.196	0.49
816.368	0.67
816.54	0.15
816.711	0.4
816.883	0.57
817.054	1.43
817.226	-0.17
817.398	0.58
817.569	0.32
817.741	0.26
817.912	0.2
818.084	0
818.255	0.9
818.426	0.35
818.598	0.17
818.769	-0.03
818.941	0.45
819.112	0.82
819.283	0.72
819.455	-0.12
819.626	0.32
819.798	0.65
819.969	0.37
820.14	-0
820.311	0.14
820.483	0.32
820.654	0.67
820.825	0.09
820.996	0.43
821.168	-0.37
821.339	0.55
821.51	0.09
821.681	0.24
821.852	0.47
822.023	-0.3
822.195	-0.65
822.366	0.64
822.537	0.12
822.708	0.43
822.879	-0.03
823.05	0.98
823.221	0.59
823.392	0.82
823.563	0.21
823.734	0.42
823.905	0.29
824.076	0.38
824.247	-0.38
824.418	-0.01
824.589	1.28
824.759	0.38
824.93	0.16
825.101	-0.41
825.272	0.73
825.443	0.72
825.614	0.86
825.784	0.51
825.955	1.47
826.126	0.72
826.297	0.25
826.467	1.13
826.638	0.95
826.809	-0.77
826.98	0.71
827.15	0.63
827.321	0.73
827.492	1.16
827.662	0.24
827.833	1.43
828.003	1.08
828.174	0.08
828.345	-0.4
828.515	1.13
828.686	0.33
828.856	0.13
829.027	0.33
829.197	0.62
829.368	0.64
829.538	-0.05
829.709	0.54
829.879	0.54
830.049	0.19
830.22	0.69
830.39	0.84
830.56	1.07
830.731	0.01
830.901	-0.16
831.072	0.23
831.242	0.49
831.412	0.61
831.582	0.16
831.753	-0.33
831.923	1.18
832.093	0.59
832.263	0.08
832.434	-0.52
832.604	0.52
832.774	0.59
832.944	0.55
833.114	-0.05
833.284	0.58
833.454	-0.23
833.624	0.42
833.795	-0.33
833.965	0.96
834.135	0.84
834.305	-0.84
834.475	-0.16
834.645	0.49
834.815	-0.02
834.985	-0.48
835.155	0.07
835.325	0.89
835.494	1.12
835.664	0.77
835.834	-0.17
836.004	0.79
836.174	1.2
836.344	0.31
836.514	-0.28
836.684	0.16
836.853	0.08
837.023	0.19
837.193	0.41
837.363	1.14
837.532	1.06
837.702	0.48
837.872	-0.13
838.041	1.51
838.211	1.71
838.381	0.09
838.55	0.75
838.72	2.23
838.89	1.44
839.059	-0.2
839.229	-0.22
839.398	1.23
839.568	0.83
839.738	0.28
839.907	0.67
840.077	0.41
840.246	-0.17
840.416	-0.63
840.585	-0.25
840.755	1.3
840.924	1.16
841.093	-0.18
841.263	0.41
841.432	1.35
841.602	0.32
841.771	0.2
841.94	0.98
842.11	2.22
842.279	1.55
842.448	-0.48
842.617	-0.31
842.787	1.48
842.956	-0.27
843.125	0.16
843.294	1.23
843.464	1.19
843.633	0.48
843.802	-0.54
843.971	0.22
844.14	0.72
844.309	1.1
844.479	0.46
844.648	0.51
844.817	0.67
844.986	0.12
845.155	0.16
845.324	0.09
845.493	-0.09
845.662	0.38
845.831	1.1
846	0.29
846.169	0.66
846.338	1.44
846.507	0.77
846.676	1.22
846.844	0.71
847.013	1.27
847.182	0.14
847.351	0.26
847.52	1.02
847.689	0.47
847.858	0.72
848.026	-0.1
848.195	0.61
848.364	-0.37
848.533	0.36
848.701	-0.33
848.87	0.9
849.039	1.51
849.207	1.64
849.376	2.24
849.545	1.33
849.713	0.54
849.882	0.87
850.051	0.42
850.219	1.2
850.388	0.93
850.556	-1.15
850.725	0.39
850.893	0.99
851.062	-1
851.23	0.63
851.399	-1.29
851.567	0.23
851.736	0.54
851.904	0.14
852.073	1.18
852.241	0.49
852.41	1.37
852.578	0.86
852.746	-0.06
852.915	1.79
853.083	-0.48
853.251	-0.62
853.42	-0.11
853.588	0.82
853.756	2.2
853.924	0.66
854.093	1
854.261	1.07
854.429	-1.54
854.597	1.73
854.765	0.29
854.934	1.09
855.102	1.51
855.27	0.97
855.438	2.13
855.606	1.47
855.774	2.88
855.942	-0.47
856.11	-0.5
856.278	0.02
856.446	1.45
856.614	0.53
856.782	-0.28
856.95	1.1
857.118	1.02
857.286	1.15
857.454	0.71
857.622	1.73
857.79	1.6
857.958	-0.36
858.126	0.42
858.294	-1.73
858.462	0.55
858.629	0.27
858.797	-0.18
858.965	0.32
859.133	0.65
859.301	-0.41
859.468	1.02
859.636	0.56
859.804	3.04
859.971	1.56
860.139	0.03
860.307	1.05
860.474	0.37
860.642	0.21
860.81	0.16
860.977	0.35
861.145	1.59
861.313	1.28
861.48	0.7
861.648	0.83
861.815	0.19
861.983	-1.19
862.15	1.01
862.318	1.14
862.485	2.04
862.653	-0.34
862.82	0.81
862.988	2.71
863.155	1.15
863.322	0.04
863.49	-0.01
863.657	1.28
863.824	3.3
863.992	1.52
864.159	1.8
864.326	2.05
864.494	-0.08
864.661	1.89
864.828	0.33
864.996	1.95
865.163	2.81
865.33	0.36
865.497	-1.64
865.664	0.5
865.832	-1.76
865.999	-0.54
866.166	-1.45
866.333	-0.18
866.5	-0.76
866.667	2.19
866.834	0.32
867.001	1.72
867.168	-0.74
867.335	0.88
867.502	-0.53
867.669	0.51
867.836	3.81
868.003	0.76
868.17	3.47
868.337	2.63
868.504	3
868.671	-1.54
868.838	-0.56
869.005	2.26
869.172	0.83
869.339	0.96
869.505	0.76
869.672	1.63
869.839	1.2
870.006	1.53
870.173	0.17
870.339	2.67
870.506	3.79
870.673	-1.12
870.84	2.38
871.006	0.21
871.173	1.98
871.34	0.21
871.506	0.27
871.673	0.2
871.839	-0.36
872.006	-0.06
872.173	1.04
872.339	0.56
872.506	2.05
872.672	-0.36
872.839	-1.5
873.005	1.58
873.172	4.19
873.338	1.75
873.505	1.51
873.671	1.08
873.838	1.51
874.004	-0.75
874.171	-1.16
874.337	3
874.503	1.43
874.67	2.03
874.836	0.48
875.002	3.48
875.169	2
875.335	1
875.501	-1.33
875.668	1.97
875.834	0.07
876	-0.16
876.166	1.66
876.332	1.87
876.499	3.41
876.665	0
876.831	0.22
876.997	4.03
877.163	2.21
877.329	0.4
877.495	1.12
877.662	2.62
877.828	0.46
877.994	0.43
878.16	-2.18
878.326	-0.76
878.492	2.48
878.658	0.13
878.824	2.68
878.99	1.41
879.156	1.27
879.322	1.94
879.487	-0.26
879.653	1.83
879.819	0.26
879.985	-1.06
880.151	0.73
880.317	-0.45
880.483	2.64
880.648	2.5
880.814	-1.55
880.98	1.07
881.146	-2.33
881.312	0.3
881.477	1.13
881.643	2.05
881.809	1.81
881.974	2.5
882.14	-1.5
882.306	0.83
882.471	5.8
882.637	-1.11
882.803	0.38
882.968	2.41
883.134	2.41
883.299	1.18
883.465	0.66
883.63	3.55
883.796	2.24
883.961	2.2
884.127	1.29
884.292	-3.71
884.458	-0.88
884.623	-0.88
