Data from Apollo_Calib_20240827__AbsoluteIrradiance__436__06-25-02-970.txt Node

Date: Wed Aug 28 06:25:02 BST 2024
User: biology
Spectrometer: FLMT08252
Trigger mode: 0
Integration Time (sec): 5.000000E-1
Scans to average: 5
Electric dark correction enabled: true
Nonlinearity correction enabled: false
Boxcar width: 0
XAxis mode: Wavelengths
Number of Pixels in Spectrum: 3648
>>>>>Begin Spectral Data<<<<<
179.588	-0
179.809	-0
180.03	-0
180.251	-0
180.473	-0
180.694	0
180.915	0
181.136	-0
181.357	0
181.578	-0
181.799	-0
182.02	-0
182.241	0
182.462	-0
182.683	0
182.904	-0
183.125	-0
183.346	0
183.567	0
183.788	0
184.009	0
184.23	0
184.451	0
184.672	0
184.892	0
185.113	0
185.334	0
185.555	0
185.776	0
185.996	0
186.217	0
186.438	0
186.659	0
186.879	0
187.1	0
187.321	0
187.541	0
187.762	0
187.983	0
188.203	0
188.424	0
188.644	0
188.865	0
189.086	0
189.306	0
189.527	0
189.747	0
189.968	0
190.188	0
190.409	0
190.629	0
190.849	0
191.07	0
191.29	0
191.511	0
191.731	0
191.951	0
192.172	0
192.392	0
192.612	0
192.833	0
193.053	0
193.273	0
193.493	0
193.714	0
193.934	0
194.154	0
194.374	0
194.594	0
194.815	0
195.035	0
195.255	0
195.475	0
195.695	0
195.915	0
196.135	0
196.355	0
196.575	0
196.795	0
197.015	-0
197.235	0
197.455	0
197.675	0
197.895	0
198.115	0
198.335	0
198.555	0
198.775	0
198.995	0
199.214	0
199.434	0
199.654	0
199.874	0
200.094	-0.32
200.313	1.08
200.533	1.32
200.753	0.03
200.973	1.95
201.192	1.52
201.412	0.34
201.632	1.2
201.851	1.86
202.071	0.47
202.291	0.78
202.51	0.05
202.73	1.58
202.95	0.38
203.169	0.14
203.389	0.91
203.608	0.98
203.828	0.4
204.047	0.74
204.267	1
204.486	0.95
204.706	0.74
204.925	0.91
205.145	0.58
205.364	1.14
205.583	1.35
205.803	0.26
206.022	0.45
206.242	0.6
206.461	0.67
206.68	0.39
206.9	0.88
207.119	1.08
207.338	1.23
207.557	0.48
207.777	0.76
207.996	0.47
208.215	1.23
208.434	0.2
208.654	0.3
208.873	0.9
209.092	1.1
209.311	0.37
209.53	0.51
209.749	0.3
209.968	0.22
210.187	0.3
210.407	-0.18
210.626	0.31
210.845	0.84
211.064	0.35
211.283	0.27
211.502	0.9
211.721	0.32
211.94	0.34
212.159	0.77
212.377	0.57
212.596	0.82
212.815	0.47
213.034	0.67
213.253	0.87
213.472	0.5
213.691	0.25
213.91	0.16
214.128	0.48
214.347	0.75
214.566	-0.11
214.785	-0.17
215.003	0.68
215.222	0.44
215.441	0.38
215.66	0.18
215.878	0.34
216.097	0.52
216.316	0.25
216.534	0.61
216.753	0.32
216.972	0.32
217.19	0.15
217.409	0.22
217.627	0.15
217.846	0.14
218.064	0.26
218.283	0.3
218.501	0.87
218.72	0.7
218.938	0.24
219.157	0.09
219.375	0.57
219.594	0.69
219.812	0.17
220.031	0.18
220.249	0.64
220.467	0.65
220.686	0.31
220.904	0.18
221.122	0.24
221.341	0.68
221.559	0.39
221.777	0.22
221.995	0.26
222.214	0.42
222.432	0.18
222.65	0.43
222.868	0.41
223.086	0.3
223.305	0.41
223.523	0.2
223.741	0.61
223.959	0.19
224.177	0.09
224.395	0.1
224.613	0.28
224.831	0.46
225.049	0.29
225.267	0.16
225.485	0.25
225.703	0.21
225.921	0.21
226.139	0.16
226.357	0.44
226.575	0.36
226.793	0.17
227.011	0.88
227.229	0.4
227.447	0.45
227.665	0.1
227.883	-0.01
228.1	0.3
228.318	0.28
228.536	0.04
228.754	0.15
228.972	0.36
229.189	0.46
229.407	0.19
229.625	0.21
229.843	0.48
230.06	0.25
230.278	0.1
230.496	0.28
230.713	0.32
230.931	0.34
231.149	0.23
231.366	0.04
231.584	0.15
231.801	0.63
232.019	0.1
232.236	0.01
232.454	0.08
232.671	0.23
232.889	0.17
233.106	0.19
233.324	0.12
233.541	0.2
233.759	0.25
233.976	0.18
234.194	0.19
234.411	0.25
234.628	0.2
234.846	0.21
235.063	0.29
235.28	0.26
235.498	0.22
235.715	0.02
235.932	0.34
236.149	0.22
236.367	0.1
236.584	0.32
236.801	0.22
237.018	0.39
237.236	0.22
237.453	0.01
237.67	0.36
237.887	0.11
238.104	0.18
238.321	0.09
238.538	0.16
238.755	0.4
238.973	0.13
239.19	0.22
239.407	0.31
239.624	0.21
239.841	0.09
240.058	0.09
240.275	0.3
240.492	0.21
240.709	0.26
240.925	0.11
241.142	0.19
241.359	0.08
241.576	0.13
241.793	0.17
242.01	0.2
242.227	0.3
242.444	0.21
242.66	0.26
242.877	0.24
243.094	0.11
243.311	0.25
243.527	0.22
243.744	0.22
243.961	0.28
244.178	0.11
244.394	0.13
244.611	0.31
244.828	0.34
245.044	0.16
245.261	0.15
245.477	0.26
245.694	0.25
245.911	0.1
246.127	0.22
246.344	0.41
246.56	0.24
246.777	0.18
246.993	0.24
247.21	0.19
247.426	0.31
247.643	0.09
247.859	0.12
248.076	0.19
248.292	0.4
248.508	0.16
248.725	0.26
248.941	0.24
249.157	0.3
249.374	0.14
249.59	0.14
249.806	0.15
250.023	0.32
250.239	0.18
250.455	0.12
250.671	0.11
250.888	0.24
251.104	0.22
251.32	0.16
251.536	0.18
251.752	0.15
251.969	0.23
252.185	0.13
252.401	0.34
252.617	0.24
252.833	0.09
253.049	0.17
253.265	0.18
253.481	0.15
253.697	0.11
253.913	0.11
254.129	0.16
254.345	0.22
254.561	0.08
254.777	0.18
254.993	0.26
255.209	0.18
255.425	0.18
255.641	0.15
255.857	0.25
256.073	0.23
256.288	0.05
256.504	0.08
256.72	0.11
256.936	0.29
257.152	0.17
257.367	0.13
257.583	0.22
257.799	0.24
258.015	0.11
258.23	0.1
258.446	0.32
258.662	0.18
258.877	0.05
259.093	0.08
259.309	0.18
259.524	0.2
259.74	0.15
259.955	0.04
260.171	0.19
260.387	0.21
260.602	0.21
260.818	0.23
261.033	0.1
261.249	0.15
261.464	0.11
261.68	0.08
261.895	0.19
262.11	0.26
262.326	0.12
262.541	0.03
262.757	0.29
262.972	0.19
263.187	0.15
263.403	0.13
263.618	0.18
263.833	0.12
264.049	0.06
264.264	0.18
264.479	0.2
264.694	0.25
264.91	0.03
265.125	0.1
265.34	0.23
265.555	0.35
265.77	0.21
265.986	0.11
266.201	0.19
266.416	0.28
266.631	0.11
266.846	0.14
267.061	0.19
267.276	0.18
267.491	0.03
267.706	0.19
267.921	0.16
268.136	0.19
268.351	0.13
268.566	0.03
268.781	0.26
268.996	0.24
269.211	0.16
269.426	0.09
269.641	0.05
269.856	0.21
270.071	0.05
270.285	0.07
270.5	0.19
270.715	0.17
270.93	0.09
271.145	0.16
271.359	0.16
271.574	0.1
271.789	0.17
272.004	0.02
272.218	0.18
272.433	0.12
272.648	0.07
272.862	0.24
273.077	0.11
273.292	0.2
273.506	0.08
273.721	0.09
273.936	0.18
274.15	0.21
274.365	0.12
274.579	0.1
274.794	0.19
275.008	0.18
275.223	0.03
275.437	0.1
275.652	0.18
275.866	0.16
276.081	0.1
276.295	0.2
276.509	0.12
276.724	0.12
276.938	0.16
277.153	0.17
277.367	0.15
277.581	0.1
277.796	0.12
278.01	0.02
278.224	0.16
278.438	0.22
278.653	0.11
278.867	0.11
279.081	-0.02
279.295	0.1
279.51	0.13
279.724	0.05
279.938	0.18
280.152	0.18
280.366	0.09
280.58	0.14
280.794	0.2
281.008	0.17
281.222	0.2
281.437	0.24
281.651	0.15
281.865	0.16
282.079	0.12
282.293	0.06
282.507	0.11
282.721	0.13
282.935	0.1
283.148	0.04
283.362	0.12
283.576	0.03
283.79	0.16
284.004	0.1
284.218	0.2
284.432	0.12
284.646	0.12
284.859	0.11
285.073	0.1
285.287	0.13
285.501	0.11
285.714	0.09
285.928	0.14
286.142	0.1
286.356	0.05
286.569	0.1
286.783	0.24
286.997	0.13
287.21	0.14
287.424	0.07
287.637	0.09
287.851	0.13
288.065	0.14
288.278	0.09
288.492	0.13
288.705	0.12
288.919	0.11
289.132	0.04
289.346	0.21
289.559	0.07
289.773	0.02
289.986	0.1
290.2	0.1
290.413	0.15
290.626	0.08
290.84	0.12
291.053	0.1
291.267	0.19
291.48	0.09
291.693	0.11
291.906	0.07
292.12	0.11
292.333	0.08
292.546	0.09
292.76	0.16
292.973	0.14
293.186	0.14
293.399	0.07
293.612	0.08
293.826	0.13
294.039	0.14
294.252	0.13
294.465	0.22
294.678	0.15
294.891	0.11
295.104	0.07
295.317	0.09
295.53	0.14
295.743	0.15
295.956	0.1
296.169	0.17
296.382	0.19
296.595	0.09
296.808	0.04
297.021	0.17
297.234	0.12
297.447	0.13
297.66	0.12
297.873	0.15
298.086	0.12
298.299	0.1
298.511	0.04
298.724	0.08
298.937	0.08
299.15	0.04
299.363	0.13
299.575	0.17
299.788	0.15
300.001	0.1
300.213	0.04
300.426	0.11
300.639	0.09
300.852	0.07
301.064	0.13
301.277	0.16
301.489	0.12
301.702	0.17
301.915	0.1
302.127	0.13
302.34	0.12
302.552	0.11
302.765	0.08
302.977	0.14
303.19	0.1
303.402	0.07
303.615	0.12
303.827	0.07
304.04	0.12
304.252	0.18
304.464	0.1
304.677	0.19
304.889	0.17
305.102	0.09
305.314	0.04
305.526	0.13
305.739	0.12
305.951	0.06
306.163	0.13
306.375	0.2
306.588	0.05
306.8	0.06
307.012	0.08
307.224	0.12
307.436	0.16
307.649	0.05
307.861	0.09
308.073	0.11
308.285	0.1
308.497	0.07
308.709	0.13
308.921	0.1
309.133	0.18
309.346	0.08
309.558	0.1
309.77	0.21
309.982	0.19
310.194	0.13
310.406	0.08
310.617	0.18
310.829	0.13
311.041	0.12
311.253	0.08
311.465	0.07
311.677	0.09
311.889	0.1
312.101	0.1
312.313	0.11
312.524	0.14
312.736	0.02
312.948	0.11
313.16	0.19
313.372	0.09
313.583	0.11
313.795	0.1
314.007	0.07
314.218	0.15
314.43	0.11
314.642	0.07
314.853	0.03
315.065	0.16
315.277	0.08
315.488	0.13
315.7	0.16
315.912	0.15
316.123	0.07
316.335	0.09
316.546	0.21
316.758	0.11
316.969	0.09
317.181	0.13
317.392	0.14
317.604	0.15
317.815	0.07
318.026	0.09
318.238	0.08
318.449	0.09
318.661	0.01
318.872	0.06
319.083	0.01
319.295	0.14
319.506	0.09
319.717	0.12
319.929	0.15
320.14	0.14
320.351	0.11
320.562	0.1
320.774	0.13
320.985	0.08
321.196	0.08
321.407	0.09
321.618	0.12
321.829	0.13
322.041	0.16
322.252	0.08
322.463	0.11
322.674	0.15
322.885	0.04
323.096	0.09
323.307	0.09
323.518	0.12
323.729	0.08
323.94	0.08
324.151	0.12
324.362	0.12
324.573	0.1
324.784	0.06
324.995	0.17
325.206	0.12
325.417	0.08
325.628	0.08
325.838	0.07
326.049	0.11
326.26	0.16
326.471	0.09
326.682	0.14
326.892	0.13
327.103	0.03
327.314	0.02
327.525	0.16
327.735	0.13
327.946	0.09
328.157	0.07
328.368	0.14
328.578	0.06
328.789	0.11
328.999	0.11
329.21	0.12
329.421	0.16
329.631	0.04
329.842	0.08
330.052	0.12
330.263	0.13
330.473	0.13
330.684	0.09
330.894	0.1
331.105	0.11
331.315	0.08
331.526	0.07
331.736	0.18
331.947	0.17
332.157	0.12
332.367	0.06
332.578	0.14
332.788	0.19
332.999	0.13
333.209	0.11
333.419	0.1
333.629	0.11
333.84	0.13
334.05	0.09
334.26	0.18
334.47	0.12
334.681	0.16
334.891	0.13
335.101	0.13
335.311	0.21
335.521	0.1
335.732	0.07
335.942	0.2
336.152	0.12
336.362	0.11
336.572	0.13
336.782	0.13
336.992	0.08
337.202	0.1
337.412	0.07
337.622	0.07
337.832	0.1
338.042	0.14
338.252	0.05
338.462	0.09
338.672	0.07
338.882	0.1
339.092	0.08
339.302	0.21
339.511	0.12
339.721	0.05
339.931	0.05
340.141	0.1
340.351	0.17
340.561	0.1
340.77	0.14
340.98	0.14
341.19	0.16
341.4	0.06
341.609	0.05
341.819	0.07
342.029	0.07
342.238	0.11
342.448	0.07
342.658	0.13
342.867	0.08
343.077	0.11
343.286	0.13
343.496	0.12
343.706	0.15
343.915	0.04
344.125	0.15
344.334	0.11
344.544	0.02
344.753	0.06
344.963	0.08
345.172	0.1
345.381	0.09
345.591	0.04
345.8	0.09
346.01	0.16
346.219	0.14
346.428	0
346.638	0.09
346.847	0.14
347.056	0.17
347.266	0.06
347.475	0.1
347.684	0.12
347.893	0.1
348.103	0.12
348.312	0.08
348.521	0.08
348.73	0.11
348.94	0.1
349.149	0.08
349.358	0.1
349.567	0.12
349.776	0.04
349.985	0.09
350.194	0.11
350.403	0.1
350.612	0.04
350.821	0.08
351.03	0.09
351.239	0.03
351.448	0.1
351.657	0.06
351.866	0.14
352.075	0.11
352.284	0.18
352.493	0.05
352.702	0.16
352.911	0.1
353.12	0.1
353.329	0.12
353.538	0.12
353.746	0.11
353.955	0.06
354.164	0.08
354.373	0.11
354.582	0.14
354.79	0.1
354.999	0.12
355.208	0.08
355.416	0.2
355.625	0.05
355.834	0.09
356.042	0.1
356.251	0.11
356.46	0.06
356.668	0.14
356.877	0.18
357.085	0.14
357.294	0.03
357.503	0.13
357.711	0.06
357.92	0.23
358.128	0.08
358.337	0.07
358.545	0.14
358.754	0.06
358.962	0.16
359.17	0.1
359.379	0.1
359.587	0.11
359.796	0.12
360.004	0.12
360.212	0.16
360.421	0.14
360.629	0.1
360.837	0.11
361.046	0.16
361.254	0.24
361.462	0.12
361.67	0.06
361.879	0.12
362.087	0.16
362.295	0.1
362.503	0.07
362.711	0.06
362.92	0.07
363.128	0.06
363.336	0.07
363.544	0.05
363.752	0.09
363.96	0.08
364.168	0.07
364.376	0.08
364.584	0.13
364.792	0.14
365	0.13
365.208	0.1
365.416	0.08
365.624	0.11
365.832	0.09
366.04	0.13
366.248	0.12
366.456	0.13
366.664	0.11
366.872	0.14
367.079	0.1
367.287	0.1
367.495	0.09
367.703	0.12
367.911	0.1
368.118	0.13
368.326	0.07
368.534	0.07
368.742	0.14
368.949	0.02
369.157	0.12
369.365	0.15
369.572	0.11
369.78	0.1
369.988	0.16
370.195	0.15
370.403	0.11
370.61	0.09
370.818	0.07
371.026	0.18
371.233	0.1
371.441	0.08
371.648	0.07
371.856	0.07
372.063	0.1
372.271	0.09
372.478	0.09
372.685	0.1
372.893	0.15
373.1	0.1
373.308	0.09
373.515	0.17
373.722	0.18
373.93	0.1
374.137	0.17
374.344	0.17
374.552	0.16
374.759	0.15
374.966	0.15
375.173	0.09
375.381	0.18
375.588	0.13
375.795	0.05
376.002	0.1
376.209	0.08
376.417	0.1
376.624	0.1
376.831	0.15
377.038	0.1
377.245	0.02
377.452	0.09
377.659	0.11
377.866	0.12
378.073	0.11
378.28	0.13
378.487	0.09
378.694	0.16
378.901	0.11
379.108	0.07
379.315	0.16
379.522	0.22
379.729	0.13
379.936	0.11
380.143	0.12
380.35	0.09
380.557	0.1
380.763	0.11
380.97	0.09
381.177	0.13
381.384	0.16
381.591	0.06
381.797	0.11
382.004	0.12
382.211	0.1
382.418	0.15
382.624	0.15
382.831	0.14
383.038	0.14
383.244	0.13
383.451	0.13
383.658	0.1
383.864	0.1
384.071	0.12
384.277	0.2
384.484	0.05
384.69	0.16
384.897	0.12
385.103	0.09
385.31	0.09
385.516	0.1
385.723	0.08
385.929	0.11
386.136	0.09
386.342	0.09
386.549	0.08
386.755	0.19
386.961	0.15
387.168	0.12
387.374	0.1
387.58	0.13
387.787	0.1
387.993	0.12
388.199	0.11
388.406	0.08
388.612	0.11
388.818	0.1
389.024	0.09
389.231	0.13
389.437	0.19
389.643	0.15
389.849	0.12
390.055	0.11
390.261	0.13
390.467	0.16
390.674	0.08
390.88	0.14
391.086	0.15
391.292	0.08
391.498	0.14
391.704	0.16
391.91	0.11
392.116	0.09
392.322	0.02
392.528	0.13
392.734	0.11
392.94	0.1
393.146	0.1
393.352	0.14
393.557	0.09
393.763	0.13
393.969	0.17
394.175	0.09
394.381	0.15
394.587	0.07
394.792	0.11
394.998	0.14
395.204	0.14
395.41	0.09
395.615	0.1
395.821	0.12
396.027	0.15
396.233	0.09
396.438	0.11
396.644	0.22
396.85	0.18
397.055	0.12
397.261	0.15
397.466	0.23
397.672	0.14
397.878	0.16
398.083	0.17
398.289	0.09
398.494	0.2
398.7	0.16
398.905	0.03
399.111	0.18
399.316	0.09
399.522	0.13
399.727	0.16
399.932	0.1
400.138	0.1
400.343	0.18
400.549	0.08
400.754	0.16
400.959	0.18
401.165	0.16
401.37	0.12
401.575	0.22
401.78	0.11
401.986	0.11
402.191	0.12
402.396	0.14
402.601	0.16
402.807	0.1
403.012	0.13
403.217	0.16
403.422	0.14
403.627	0.09
403.832	0.1
404.037	0.16
404.243	0.15
404.448	0.1
404.653	0.11
404.858	0.15
405.063	0.22
405.268	0.13
405.473	0.11
405.678	0.1
405.883	0.3
406.088	0.19
406.293	0.11
406.498	0.13
406.703	0.16
406.907	0.1
407.112	0.09
407.317	0.16
407.522	0.2
407.727	0.09
407.932	0.19
408.136	0.23
408.341	0.12
408.546	0.11
408.751	0.17
408.956	0.15
409.16	0.18
409.365	0.11
409.57	0.16
409.774	0.14
409.979	0.15
410.184	0.16
410.388	0.12
410.593	0.16
410.798	0.16
411.002	0.13
411.207	0.17
411.411	0.12
411.616	0.12
411.82	0.13
412.025	0.18
412.229	0.13
412.434	0.25
412.638	0.14
412.843	0.13
413.047	0.14
413.252	0.14
413.456	0.12
413.66	0.22
413.865	0.11
414.069	0.24
414.273	0.15
414.478	0.14
414.682	0.16
414.886	0.15
415.091	0.12
415.295	0.12
415.499	0.17
415.703	0.17
415.908	0.2
416.112	0.04
416.316	0.15
416.52	0.17
416.724	0.13
416.929	0.14
417.133	0.23
417.337	0.12
417.541	0.11
417.745	0.14
417.949	0.19
418.153	0.23
418.357	0.07
418.561	0.24
418.765	0.23
418.969	0.31
419.173	0.21
419.377	0.14
419.581	0.23
419.785	0.14
419.989	0.11
420.193	0.13
420.397	0.21
420.601	0.25
420.804	0.24
421.008	0.17
421.212	0.16
421.416	0.21
421.62	0.12
421.823	0.1
422.027	0.26
422.231	0.14
422.435	0.14
422.638	0.16
422.842	0.15
423.046	0.18
423.249	0.2
423.453	0.18
423.657	0.18
423.86	0.15
424.064	0.16
424.268	0.23
424.471	0.19
424.675	0.24
424.878	0.23
425.082	0.15
425.285	0.23
425.489	0.17
425.692	0.21
425.896	0.13
426.099	0.19
426.303	0.11
426.506	0.02
426.71	0.23
426.913	0.26
427.116	0.31
427.32	0.21
427.523	0.18
427.726	0.28
427.93	0.11
428.133	0.19
428.336	0.14
428.54	0.15
428.743	0.23
428.946	0.25
429.149	0.18
429.353	0.19
429.556	0.12
429.759	0.18
429.962	0.14
430.165	0.19
430.368	0.21
430.571	0.16
430.775	0.19
430.978	0.16
431.181	0.17
431.384	0.18
431.587	0.15
431.79	0.2
431.993	0.1
432.196	0.15
432.399	0.17
432.602	0.21
432.805	0.14
433.008	0.21
433.211	0.15
433.414	0.17
433.616	0.19
433.819	0.17
434.022	0.09
434.225	0.25
434.428	0.24
434.631	0.31
434.833	0.18
435.036	0.17
435.239	0.25
435.442	0.2
435.645	0.22
435.847	0.24
436.05	0.25
436.253	0.2
436.455	0.13
436.658	0.16
436.861	0.33
437.063	0.15
437.266	0.2
437.468	0.19
437.671	0.32
437.874	0.12
438.076	0.13
438.279	0.14
438.481	0.18
438.684	0.15
438.886	0.17
439.089	0.07
439.291	0.21
439.494	0.24
439.696	0.16
439.899	0.18
440.101	0.23
440.303	0.18
440.506	0.24
440.708	0.14
440.91	0.29
441.113	0.15
441.315	0.21
441.517	0.15
441.72	0.25
441.922	0.14
442.124	0.13
442.326	0.2
442.529	0.32
442.731	0.17
442.933	0.31
443.135	0.21
443.337	0.19
443.539	0.19
443.742	0.19
443.944	0.21
444.146	0.16
444.348	0.18
444.55	0.2
444.752	0.22
444.954	0.15
445.156	0.24
445.358	0.14
445.56	0.28
445.762	0.23
445.964	0.22
446.166	0.16
446.368	0.14
446.57	0.24
446.772	0.22
446.974	0.2
447.175	0.21
447.377	0.15
447.579	0.17
447.781	0.13
447.983	0.31
448.184	0.21
448.386	0.27
448.588	0.16
448.79	0.23
448.991	0.22
449.193	0.27
449.395	0.22
449.597	0.27
449.798	0.27
450	0.26
450.202	0.22
450.403	0.23
450.605	0.27
450.806	0.21
451.008	0.19
451.21	0.23
451.411	0.21
451.613	0.2
451.814	0.21
452.016	0.31
452.217	0.26
452.419	0.26
452.62	0.24
452.821	0.28
453.023	0.34
453.224	0.28
453.426	0.25
453.627	0.24
453.828	0.26
454.03	0.26
454.231	0.25
454.432	0.28
454.634	0.33
454.835	0.26
455.036	0.19
455.238	0.27
455.439	0.32
455.64	0.2
455.841	0.26
456.042	0.36
456.244	0.32
456.445	0.27
456.646	0.16
456.847	0.21
457.048	0.31
457.249	0.36
457.45	0.48
457.651	0.21
457.852	0.3
458.054	0.27
458.255	0.28
458.456	0.27
458.657	0.26
458.858	0.26
459.058	0.28
459.259	0.33
459.46	0.29
459.661	0.3
459.862	0.41
460.063	0.23
460.264	0.34
460.465	0.25
460.666	0.39
460.866	0.28
461.067	0.31
461.268	0.31
461.469	0.27
461.67	0.3
461.87	0.27
462.071	0.27
462.272	0.27
462.473	0.3
462.673	0.34
462.874	0.28
463.075	0.3
463.275	0.29
463.476	0.37
463.676	0.31
463.877	0.34
464.078	0.37
464.278	0.38
464.479	0.39
464.679	0.35
464.88	0.39
465.08	0.38
465.281	0.33
465.481	0.34
465.682	0.29
465.882	0.36
466.083	0.37
466.283	0.39
466.483	0.38
466.684	0.29
466.884	0.33
467.085	0.38
467.285	0.4
467.485	0.36
467.686	0.38
467.886	0.36
468.086	0.41
468.286	0.42
468.487	0.46
468.687	0.34
468.887	0.35
469.087	0.45
469.287	0.43
469.488	0.35
469.688	0.46
469.888	0.48
470.088	0.47
470.288	0.48
470.488	0.5
470.688	0.41
470.888	0.4
471.088	0.44
471.288	0.52
471.488	0.47
471.688	0.49
471.888	0.48
472.088	0.56
472.288	0.57
472.488	0.49
472.688	0.46
472.888	0.52
473.088	0.52
473.288	0.53
473.488	0.55
473.688	0.62
473.887	0.61
474.087	0.53
474.287	0.64
474.487	0.55
474.687	0.65
474.886	0.59
475.086	0.64
475.286	0.61
475.486	0.61
475.685	0.62
475.885	0.65
476.085	0.7
476.284	0.7
476.484	0.67
476.684	0.75
476.883	0.8
477.083	0.73
477.282	0.72
477.482	0.85
477.681	0.79
477.881	0.75
478.08	0.75
478.28	0.76
478.479	0.88
478.679	0.85
478.878	0.82
479.078	0.83
479.277	0.88
479.477	0.87
479.676	0.9
479.875	0.89
480.075	0.91
480.274	0.94
480.473	1.05
480.673	0.98
480.872	1
481.071	1.01
481.271	1.05
481.47	0.99
481.669	1.08
481.868	1.06
482.067	1.1
482.267	1.07
482.466	1.1
482.665	1.09
482.864	1.14
483.063	1.19
483.262	1.24
483.461	1.32
483.661	1.35
483.86	1.28
484.059	1.37
484.258	1.35
484.457	1.39
484.656	1.4
484.855	1.47
485.054	1.39
485.253	1.48
485.452	1.48
485.651	1.52
485.849	1.59
486.048	1.57
486.247	1.64
486.446	1.69
486.645	1.67
486.844	1.7
487.043	1.72
487.241	1.79
487.44	1.8
487.639	1.89
487.838	1.92
488.037	1.91
488.235	1.99
488.434	2.02
488.633	1.9
488.831	2.11
489.03	2.12
489.229	2.18
489.427	2.19
489.626	2.21
489.825	2.27
490.023	2.36
490.222	2.34
490.42	2.37
490.619	2.45
490.817	2.49
491.016	2.51
491.214	2.58
491.413	2.59
491.611	2.6
491.81	2.63
492.008	2.72
492.207	2.83
492.405	2.85
492.604	2.81
492.802	2.95
493	3.01
493.199	3.06
493.397	3.12
493.595	3.2
493.794	3.19
493.992	3.35
494.19	3.37
494.388	3.48
494.587	3.42
494.785	3.5
494.983	3.49
495.181	3.64
495.379	3.67
495.578	3.88
495.776	3.83
495.974	3.82
496.172	3.94
496.37	4.12
496.568	4.22
496.766	4.19
496.964	4.36
497.162	4.36
497.36	4.46
497.558	4.53
497.756	4.61
497.954	4.65
498.152	4.79
498.35	4.94
498.548	4.88
498.746	4.96
498.944	5.08
499.142	5.14
499.34	5.29
499.538	5.48
499.736	5.35
499.933	5.53
500.131	5.55
500.329	5.86
500.527	5.87
500.725	6.11
500.922	6.18
501.12	6.19
501.318	6.36
501.516	6.36
501.713	6.57
501.911	6.6
502.109	6.63
502.306	6.86
502.504	6.8
502.701	6.94
502.899	7.19
503.097	7.49
503.294	7.37
503.492	7.61
503.689	7.74
503.887	7.72
504.084	7.88
504.282	7.95
504.479	8.04
504.677	8.41
504.874	8.38
505.072	8.28
505.269	8.8
505.466	8.85
505.664	8.94
505.861	8.91
506.059	9.28
506.256	9.26
506.453	9.44
506.651	9.7
506.848	9.84
507.045	9.86
507.242	9.98
507.44	10.18
507.637	10.37
507.834	10.3
508.031	10.71
508.229	10.65
508.426	10.61
508.623	11
508.82	11.28
509.017	11.22
509.214	11.25
509.411	11.61
509.608	11.56
509.805	11.87
510.003	11.94
510.2	12.1
510.397	12.4
510.594	12.3
510.791	12.57
510.988	12.59
511.184	12.61
511.381	12.53
511.578	12.89
511.775	13.23
511.972	13.1
512.169	13.37
512.366	13.42
512.563	13.79
512.76	13.84
512.956	13.93
513.153	13.95
513.35	13.87
513.547	13.9
513.744	14.31
513.94	14.33
514.137	14.55
514.334	14.53
514.53	14.69
514.727	15.2
514.924	14.91
515.12	15.02
515.317	15.06
515.514	14.9
515.71	14.8
515.907	15.46
516.103	15.42
516.3	15.16
516.497	15.54
516.693	15.52
516.89	15.54
517.086	15.68
517.283	15.68
517.479	15.39
517.676	15.87
517.872	15.95
518.068	15.87
518.265	15.87
518.461	15.76
518.658	16.06
518.854	16.03
519.05	16.22
519.247	16.24
519.443	16
519.639	16.21
519.836	16.01
520.032	15.82
520.228	16.08
520.424	15.91
520.621	16.08
520.817	16.13
521.013	15.79
521.209	16.25
521.405	16.09
521.601	15.96
521.798	15.79
521.994	15.76
522.19	15.58
522.386	15.61
522.582	15.81
522.778	15.96
522.974	15.63
523.17	15.51
523.366	15.39
523.562	15.4
523.758	15.42
523.954	14.95
524.15	15.2
524.346	15.15
524.542	15.16
524.738	14.92
524.934	14.99
525.129	14.97
525.325	14.68
525.521	14.55
525.717	14.79
525.913	14.39
526.109	14.29
526.304	14.5
526.5	14.13
526.696	14.21
526.892	13.87
527.087	14.26
527.283	13.93
527.479	13.75
527.674	13.38
527.87	13.5
528.066	13.28
528.261	13.32
528.457	13.01
528.653	13.17
528.848	13.05
529.044	12.94
529.239	12.6
529.435	12.58
529.63	12.35
529.826	12.23
530.021	12.16
530.217	12.12
530.412	11.9
530.608	11.86
530.803	11.81
530.999	11.54
531.194	11.52
531.389	11.48
531.585	11.32
531.78	11.43
531.975	11.14
532.171	11.1
532.366	10.96
532.561	10.85
532.757	10.68
532.952	10.84
533.147	10.32
533.342	10.39
533.538	10.18
533.733	10.34
533.928	9.79
534.123	9.96
534.318	9.92
534.513	9.65
534.709	9.79
534.904	9.62
535.099	9.53
535.294	9.48
535.489	9.3
535.684	9.17
535.879	9.08
536.074	9.04
536.269	8.95
536.464	8.89
536.659	8.65
536.854	8.54
537.049	8.65
537.244	8.44
537.439	8.3
537.634	8.26
537.828	8.25
538.023	8.09
538.218	7.98
538.413	7.78
538.608	7.83
538.803	7.77
538.997	7.62
539.192	7.61
539.387	7.48
539.582	7.43
539.776	7.32
539.971	7.29
540.166	7.25
540.36	7.07
540.555	7.14
540.75	7
540.944	6.9
541.139	6.85
541.334	6.71
541.528	6.7
541.723	6.64
541.917	6.55
542.112	6.42
542.306	6.31
542.501	6.27
542.695	6.21
542.89	6.1
543.084	6.1
543.279	6.09
543.473	6.02
543.668	5.94
543.862	5.76
544.056	5.71
544.251	5.72
544.445	5.73
544.64	5.63
544.834	5.36
545.028	5.2
545.222	5.39
545.417	5.39
545.611	5.28
545.805	5.13
546	5.03
546.194	5.09
546.388	5.01
546.582	4.92
546.776	4.88
546.97	4.84
547.165	4.72
547.359	4.72
547.553	4.6
547.747	4.57
547.941	4.63
548.135	4.48
548.329	4.5
548.523	4.39
548.717	4.33
548.911	4.2
549.105	4.17
549.299	4.2
549.493	4.12
549.687	4.06
549.881	4.09
550.075	4
550.269	3.86
550.463	3.95
550.657	3.82
550.85	3.74
551.044	3.73
551.238	3.67
551.432	3.61
551.626	3.6
551.82	3.58
552.013	3.46
552.207	3.49
552.401	3.44
552.594	3.35
552.788	3.29
552.982	3.27
553.176	3.2
553.369	3.24
553.563	3.16
553.756	3.07
553.95	3.09
554.144	3.04
554.337	3.03
554.531	2.93
554.724	2.89
554.918	2.91
555.111	2.85
555.305	2.8
555.498	2.81
555.692	2.81
555.885	2.72
556.079	2.67
556.272	2.62
556.466	2.6
556.659	2.57
556.852	2.56
557.046	2.47
557.239	2.43
557.432	2.42
557.626	2.41
557.819	2.39
558.012	2.39
558.206	2.35
558.399	2.25
558.592	2.23
558.785	2.18
558.979	2.19
559.172	2.17
559.365	2.13
559.558	2.08
559.751	2.05
559.944	2.06
560.138	2.03
560.331	2.02
560.524	1.97
560.717	1.94
560.91	1.92
561.103	1.92
561.296	1.85
561.489	1.89
561.682	1.91
561.875	1.85
562.068	1.86
562.261	1.76
562.454	1.8
562.647	1.71
562.84	1.71
563.032	1.66
563.225	1.64
563.418	1.65
563.611	1.63
563.804	1.6
563.997	1.55
564.19	1.48
564.382	1.55
564.575	1.49
564.768	1.52
564.961	1.47
565.153	1.47
565.346	1.43
565.539	1.43
565.731	1.42
565.924	1.44
566.117	1.45
566.309	1.36
566.502	1.32
566.695	1.32
566.887	1.34
567.08	1.27
567.272	1.31
567.465	1.24
567.657	1.25
567.85	1.23
568.042	1.24
568.235	1.25
568.427	1.17
568.62	1.16
568.812	1.17
569.005	1.14
569.197	1.06
569.389	1.12
569.582	1.09
569.774	1.11
569.966	1.05
570.159	1.02
570.351	1.05
570.543	0.99
570.736	1.05
570.928	0.99
571.12	0.98
571.312	0.96
571.505	0.93
571.697	0.95
571.889	0.92
572.081	0.94
572.273	0.89
572.465	0.94
572.658	0.93
572.85	0.91
573.042	0.91
573.234	0.88
573.426	0.87
573.618	0.82
573.81	0.83
574.002	0.85
574.194	0.84
574.386	0.78
574.578	0.71
574.77	0.78
574.962	0.76
575.154	0.69
575.346	0.75
575.538	0.75
575.729	0.7
575.921	0.71
576.113	0.7
576.305	0.76
576.497	0.68
576.689	0.68
576.88	0.67
577.072	0.7
577.264	0.65
577.456	0.68
577.647	0.61
577.839	0.65
578.031	0.65
578.223	0.59
578.414	0.57
578.606	0.61
578.798	0.58
578.989	0.57
579.181	0.59
579.372	0.59
579.564	0.55
579.755	0.58
579.947	0.59
580.139	0.56
580.33	0.49
580.522	0.53
580.713	0.46
580.905	0.52
581.096	0.56
581.287	0.51
581.479	0.51
581.67	0.51
581.862	0.51
582.053	0.47
582.244	0.45
582.436	0.49
582.627	0.46
582.818	0.47
583.01	0.45
583.201	0.5
583.392	0.47
583.583	0.47
583.775	0.46
583.966	0.45
584.157	0.43
584.348	0.43
584.54	0.37
584.731	0.44
584.922	0.39
585.113	0.35
585.304	0.42
585.495	0.42
585.686	0.43
585.877	0.45
586.068	0.39
586.259	0.39
586.45	0.4
586.641	0.37
586.832	0.36
587.023	0.38
587.214	0.37
587.405	0.37
587.596	0.37
587.787	0.44
587.978	0.36
588.169	0.33
588.36	0.31
588.551	0.36
588.742	0.31
588.932	0.36
589.123	0.33
589.314	0.37
589.505	0.33
589.696	0.33
589.886	0.31
590.077	0.31
590.268	0.31
590.458	0.31
590.649	0.27
590.84	0.33
591.03	0.24
591.221	0.27
591.412	0.23
591.602	0.32
591.793	0.32
591.984	0.25
592.174	0.29
592.365	0.34
592.555	0.25
592.746	0.29
592.936	0.32
593.127	0.31
593.317	0.32
593.508	0.25
593.698	0.26
593.889	0.27
594.079	0.29
594.269	0.26
594.46	0.23
594.65	0.26
594.84	0.23
595.031	0.21
595.221	0.25
595.411	0.2
595.602	0.28
595.792	0.24
595.982	0.21
596.172	0.32
596.363	0.26
596.553	0.24
596.743	0.22
596.933	0.23
597.123	0.26
597.314	0.21
597.504	0.21
597.694	0.27
597.884	0.24
598.074	0.2
598.264	0.19
598.454	0.25
598.644	0.23
598.834	0.21
599.024	0.14
599.214	0.2
599.404	0.22
599.594	0.17
599.784	0.2
599.974	0.25
600.164	0.21
600.354	0.17
600.544	0.15
600.734	0.21
600.924	0.23
601.114	0.14
601.303	0.2
601.493	0.2
601.683	0.18
601.873	0.21
602.063	0.13
602.252	0.21
602.442	0.16
602.632	0.17
602.821	0.16
603.011	0.21
603.201	0.2
603.39	0.15
603.58	0.16
603.77	0.22
603.959	0.22
604.149	0.18
604.339	0.16
604.528	0.2
604.718	0.23
604.907	0.15
605.097	0.17
605.286	0.14
605.476	0.18
605.665	0.18
605.855	0.15
606.044	0.19
606.234	0.17
606.423	0.16
606.612	0.14
606.802	0.16
606.991	0.17
607.181	0.19
607.37	0.13
607.559	0.12
607.749	0.11
607.938	0.15
608.127	0.14
608.316	0.15
608.506	0.14
608.695	0.14
608.884	0.11
609.073	0.15
609.263	0.18
609.452	0.18
609.641	0.17
609.83	0.11
610.019	0.15
610.208	0.13
610.397	0.13
610.586	0.18
610.775	0.1
610.965	0.14
611.154	0.11
611.343	0.18
611.532	0.15
611.721	0.09
611.91	0.11
612.099	0.16
612.287	0.14
612.476	0.12
612.665	0.12
612.854	0.14
613.043	0.19
613.232	0.13
613.421	0.12
613.61	0.12
613.798	0.09
613.987	0.16
614.176	0.14
614.365	0.15
614.554	0.14
614.742	0.14
614.931	0.11
615.12	0.15
615.309	0.15
615.497	0.14
615.686	0.11
615.875	0.14
616.063	0.16
616.252	0.11
616.44	0.11
616.629	0.11
616.818	0.14
617.006	0.1
617.195	0.14
617.383	0.14
617.572	0.12
617.76	0.1
617.949	0.11
618.137	0.15
618.326	0.14
618.514	0.1
618.703	0.1
618.891	0.16
619.079	0.11
619.268	0.14
619.456	0.11
619.644	0.14
619.833	0.09
620.021	0.09
620.209	0.08
620.398	0.13
620.586	0.1
620.774	0.12
620.962	0.14
621.151	0.16
621.339	0.13
621.527	0.08
621.715	0.09
621.903	0.09
622.092	0.04
622.28	0.14
622.468	0.13
622.656	0.11
622.844	0.17
623.032	0.1
623.22	0.1
623.408	0.15
623.596	0.11
623.784	0.14
623.972	0.1
624.16	0.06
624.348	0.13
624.536	0.09
624.724	0.09
624.912	0.17
625.1	0.14
625.288	0.11
625.476	0.09
625.664	0.14
625.851	0.11
626.039	0.11
626.227	0.1
626.415	0.13
626.603	0.05
626.79	0.1
626.978	0.09
627.166	0.11
627.354	0.08
627.541	0.11
627.729	0.05
627.917	0.15
628.104	0.15
628.292	0.11
628.48	0.12
628.667	0.14
628.855	0.14
629.042	0.13
629.23	0.11
629.418	0.12
629.605	0.1
629.793	0.08
629.98	0.08
630.168	0.11
630.355	0.13
630.543	0.13
630.73	0.08
630.917	0.12
631.105	0.14
631.292	0.07
631.48	0.11
631.667	0.18
631.854	0.11
632.042	0.12
632.229	0.06
632.416	0.11
632.604	0.09
632.791	0.06
632.978	0.13
633.165	0.14
633.353	0.15
633.54	0.13
633.727	0.05
633.914	0.08
634.101	0.03
634.289	0.15
634.476	0.08
634.663	0.06
634.85	0.11
635.037	0.04
635.224	0.04
635.411	0.11
635.598	0.12
635.785	0.09
635.972	0.08
636.159	0.15
636.346	0.08
636.533	0.09
636.72	0.11
636.907	0.07
637.094	0.11
637.281	0.04
637.468	0.11
637.655	0.12
637.842	0.1
638.029	0.07
638.215	0.13
638.402	0.08
638.589	0.05
638.776	0.11
638.963	0.05
639.149	0.15
639.336	0.16
639.523	0.09
639.709	0.09
639.896	0.05
640.083	0.15
640.27	0.11
640.456	0.11
640.643	0.16
640.829	0.07
641.016	0.08
641.203	0.05
641.389	0.13
641.576	0.1
641.762	0.09
641.949	0.06
642.135	0.1
642.322	0.09
642.508	0.05
642.695	0.09
642.881	0.09
643.068	0.09
643.254	0.1
643.441	0.14
643.627	0.09
643.813	0.06
644	0.13
644.186	0.07
644.372	0.05
644.559	0.14
644.745	0.06
644.931	0.05
645.118	0.08
645.304	0.07
645.49	0.07
645.676	0.09
645.862	0.1
646.049	0.16
646.235	0.07
646.421	0.14
646.607	0.16
646.793	0.08
646.979	0.05
647.165	0.1
647.352	0.08
647.538	0.16
647.724	0.09
647.91	0.1
648.096	0.16
648.282	0.13
648.468	0.1
648.654	0.1
648.84	0.1
649.026	0.09
649.212	0.09
649.397	0.06
649.583	0.05
649.769	0.1
649.955	0.08
650.141	0.12
650.327	0.12
650.513	0.07
650.698	0.15
650.884	0.05
651.07	0.09
651.256	0.1
651.442	0.12
651.627	0.09
651.813	0.11
651.999	0.1
652.184	0.12
652.37	0.08
652.556	0.07
652.741	0.13
652.927	0.01
653.113	0.08
653.298	0.08
653.484	0.08
653.669	0.02
653.855	0.09
654.04	0.12
654.226	0.09
654.412	0.08
654.597	0.01
654.782	0.08
654.968	0.12
655.153	0.13
655.339	0.06
655.524	0.06
655.71	0.12
655.895	0.05
656.08	0.08
656.266	0.12
656.451	0.08
656.636	0.01
656.822	0.07
657.007	0.06
657.192	0.11
657.378	0.04
657.563	0.07
657.748	0.1
657.933	0.12
658.118	0.06
658.304	0.09
658.489	0.14
658.674	0.09
658.859	0.04
659.044	0.11
659.229	0.09
659.414	0.1
659.599	0.09
659.785	0.03
659.97	0.09
660.155	0.09
660.34	0.08
660.525	0.1
660.71	0.07
660.895	0.12
661.08	0.08
661.264	0.05
661.449	0.13
661.634	0.12
661.819	0.11
662.004	0.12
662.189	0
662.374	0.09
662.559	0.07
662.743	0.08
662.928	0.09
663.113	0.05
663.298	0.04
663.483	0.08
663.667	0.08
663.852	0.06
664.037	0.14
664.221	0.06
664.406	0.12
664.591	0.11
664.775	0.1
664.96	0.13
665.145	0.12
665.329	0.09
665.514	0.09
665.698	0.08
665.883	0
666.068	0.16
666.252	0.07
666.437	0.05
666.621	0.1
666.806	0.13
666.99	0.11
667.174	0.08
667.359	0.18
667.543	0.09
667.728	0.1
667.912	0.04
668.096	0.14
668.281	0.1
668.465	0.11
668.649	0.12
668.834	0.06
669.018	0.07
669.202	0.12
669.387	0.09
669.571	0.16
669.755	0.04
669.939	0.12
670.124	0.15
670.308	0.14
670.492	0.14
670.676	0.14
670.86	0.14
671.044	0.05
671.228	0.16
671.413	0.09
671.597	0.11
671.781	0.1
671.965	0.12
672.149	0.1
672.333	0.12
672.517	0.1
672.701	0.18
672.885	0.08
673.069	0.02
673.253	0.17
673.437	0.07
673.621	0.09
673.804	0.11
673.988	0.13
674.172	0.12
674.356	0.04
674.54	0.14
674.724	0.2
674.908	0.1
675.091	0.17
675.275	0.13
675.459	0.17
675.643	0.1
675.826	0.15
676.01	0.14
676.194	0.09
676.377	0.15
676.561	0.17
676.745	0.12
676.928	0.1
677.112	0.2
677.296	0.12
677.479	0.12
677.663	0.07
677.846	0.13
678.03	0.13
678.213	0.1
678.397	0.14
678.58	0.09
678.764	0.09
678.947	0.04
679.131	0.09
679.314	0.17
679.498	0.11
679.681	0.14
679.865	0.17
680.048	0.11
680.231	0.06
680.415	0.12
680.598	0.15
680.781	0.08
680.965	0.06
681.148	0.13
681.331	0.1
681.514	0.15
681.698	0.12
681.881	0.13
682.064	0.17
682.247	0.11
682.43	0.05
682.614	0.17
682.797	0.14
682.98	0.17
683.163	0.08
683.346	0.16
683.529	0.13
683.712	0.05
683.895	0.12
684.078	0.09
684.261	0.1
684.444	0.14
684.627	0.11
684.81	0.1
684.993	0.13
685.176	0.14
685.359	0.08
685.542	0.1
685.725	0.18
685.908	0.1
686.091	0.11
686.274	0.1
686.457	0.15
686.639	0.09
686.822	0.16
687.005	0.12
687.188	0.12
687.371	0.19
687.553	0.15
687.736	0.12
687.919	0.17
688.102	0.18
688.284	0.1
688.467	0.1
688.65	0.05
688.832	0.07
689.015	0.12
689.197	0.07
689.38	0.23
689.563	0.17
689.745	0.06
689.928	0.08
690.11	0.11
690.293	0.09
690.475	0.06
690.658	0.18
690.84	0.11
691.023	0.13
691.205	0.1
691.388	0.09
691.57	0.16
691.752	0.15
691.935	0.06
692.117	0.04
692.3	0.1
692.482	0.12
692.664	0.08
692.847	0.14
693.029	0.14
693.211	0.12
693.393	0.08
693.576	0.06
693.758	0.12
693.94	0.12
694.122	0.06
694.304	0.08
694.487	0.06
694.669	0.18
694.851	0.04
695.033	0.14
695.215	0.1
695.397	0.07
695.579	0.12
695.761	0.08
695.943	0.07
696.125	0.19
696.308	0.12
696.49	0.03
696.671	0.23
696.853	0.14
697.035	0.23
697.217	0.1
697.399	0.22
697.581	0.06
697.763	0.08
697.945	0.07
698.127	0.09
698.309	0.19
698.491	0.09
698.672	0.12
698.854	0.15
699.036	0.19
699.218	0.12
699.399	0.12
699.581	0.16
699.763	0.1
699.945	0.09
700.126	0.08
700.308	0.13
700.49	0.07
700.671	0.05
700.853	0.06
701.035	0.13
701.216	0.12
701.398	0.07
701.579	0.1
701.761	0.22
701.943	0.1
702.124	0.1
702.306	0.11
702.487	0.21
702.669	0.13
702.85	0.07
703.031	0.02
703.213	0.18
703.394	0.19
703.576	0.14
703.757	0.22
703.938	0.18
704.12	0.24
704.301	0.11
704.483	0.09
704.664	0.13
704.845	0.2
705.026	0.15
705.208	0.08
705.389	0.11
705.57	0.13
705.751	0.09
705.933	0.11
706.114	0.19
706.295	0.15
706.476	0.04
706.657	0.24
706.838	0.17
707.02	0.19
707.201	0.09
707.382	0.1
707.563	0.14
707.744	0.06
707.925	0.01
708.106	0.07
708.287	0.17
708.468	0.23
708.649	0.11
708.83	0.16
709.011	0.09
709.192	0.16
709.373	0.08
709.554	0.07
709.734	0.23
709.915	0.15
710.096	0.11
710.277	0
710.458	0.16
710.639	0.19
710.819	-0
711	0.13
711.181	0.16
711.362	0.16
711.542	0.1
711.723	0.1
711.904	0.2
712.085	0.15
712.265	0.09
712.446	0.05
712.627	0.1
712.807	0.12
712.988	0.17
713.168	0.02
713.349	0.13
713.53	0.04
713.71	0.09
713.891	0.03
714.071	0.14
714.252	0.02
714.432	0.08
714.613	-0
714.793	0.16
714.974	0.24
715.154	0.13
715.334	0.13
715.515	0.14
715.695	0
715.876	0.08
716.056	0.08
716.236	0.1
716.417	0.11
716.597	0.04
716.777	0.32
716.957	0.08
717.138	0.02
717.318	0.15
717.498	0.05
717.678	0.1
717.859	0.12
718.039	0.04
718.219	0.13
718.399	0.14
718.579	0.05
718.759	0.02
718.939	0.14
719.12	0.11
719.3	0.09
719.48	0
719.66	-0.05
719.84	0.22
720.02	0.13
720.2	0.04
720.38	0.1
720.56	0.28
720.74	0.1
720.92	0.13
721.1	0.24
721.279	0.22
721.459	0.04
721.639	0.08
721.819	0.1
721.999	0.11
722.179	0.19
722.359	0.06
722.538	0.08
722.718	0.13
722.898	0.09
723.078	0.06
723.257	0.08
723.437	0.12
723.617	0.12
723.797	0.13
723.976	0.13
724.156	0.13
724.336	0.19
724.515	0.27
724.695	-0.04
724.874	0.07
725.054	0.22
725.234	0.12
725.413	0.14
725.593	0.19
725.772	0.19
725.952	0.15
726.131	0.15
726.311	0.12
726.49	0.06
726.67	0.05
726.849	0.15
727.028	0.1
727.208	0.09
727.387	0.16
727.567	0.1
727.746	0.19
727.925	0.06
728.105	0.07
728.284	0.07
728.463	0.16
728.643	0.14
728.822	0.12
729.001	0.17
729.18	0.1
729.359	0.18
729.539	0.2
729.718	0.25
729.897	0.22
730.076	0.08
730.255	0.02
730.434	0.13
730.614	0.19
730.793	0.21
730.972	0.03
731.151	0.11
731.33	0.22
731.509	0.11
731.688	0.18
731.867	0.13
732.046	-0.08
732.225	0.34
732.404	0.05
732.583	-0.02
732.762	0.24
732.941	0.05
733.12	0.15
733.298	0.06
733.477	0.25
733.656	0.08
733.835	-0
734.014	0.19
734.193	0.16
734.371	0.26
734.55	0.17
734.729	0.03
734.908	0.18
735.086	0.15
735.265	0.24
735.444	-0.03
735.623	-0.03
735.801	0.1
735.98	0.19
736.159	0.16
736.337	0.17
736.516	0.15
736.694	0.14
736.873	0.1
737.052	0.18
737.23	0.3
737.409	0.08
737.587	0.35
737.766	-0.01
737.944	0.17
738.123	0.17
738.301	0.24
738.479	0.11
738.658	0.24
738.836	-0.1
739.015	0.23
739.193	0.26
739.371	0.01
739.55	0.03
739.728	0.03
739.906	0.24
740.085	0.34
740.263	0.23
740.441	-0.08
740.62	0.4
740.798	0.25
740.976	0.09
741.154	0.11
741.332	0.34
741.511	0.15
741.689	0.18
741.867	0.15
742.045	0.2
742.223	0.12
742.401	0.1
742.579	0.08
742.757	0.18
742.935	0.12
743.114	-0.01
743.292	0.16
743.47	0.14
743.648	0.2
743.826	0.19
744.004	0.16
744.181	0.12
744.359	0.06
744.537	0.21
744.715	0.13
744.893	0.1
745.071	0.04
745.249	0.07
745.427	0.12
745.605	0.09
745.782	0.07
745.96	0.28
746.138	0.16
746.316	0.25
746.493	0.11
746.671	0.15
746.849	0.09
747.027	0.26
747.204	0.07
747.382	0.27
747.56	0.05
747.737	0.07
747.915	0.04
748.093	0.22
748.27	0.01
748.448	0.03
748.625	0.02
748.803	0.05
748.98	0.07
749.158	0.22
749.335	0.21
749.513	0.09
749.69	0.11
749.868	0.11
750.045	0.14
750.223	0.07
750.4	-0.04
750.578	0.34
750.755	0.14
750.932	0.06
751.11	0.25
751.287	-0.01
751.464	0.34
751.642	-0
751.819	0.27
751.996	0.17
752.173	0.07
752.351	0.05
752.528	0.08
752.705	0.12
752.882	0.02
753.06	0.2
753.237	0.21
753.414	0.26
753.591	0.19
753.768	0.1
753.945	0.06
754.122	0.04
754.299	0.14
754.476	0.02
754.654	0.25
754.831	0.24
755.008	0.15
755.185	0.08
755.362	-0
755.539	0.04
755.716	0.06
755.892	0.07
756.069	0.05
756.246	0.1
756.423	0.13
756.6	0.35
756.777	0.16
756.954	0.22
757.131	0.13
757.307	-0.03
757.484	-0.01
757.661	0.15
757.838	0.2
758.015	-0.04
758.191	0.15
758.368	0.2
758.545	0.37
758.721	0.08
758.898	-0.04
759.075	0.2
759.251	0.23
759.428	0.25
759.605	0.02
759.781	0.13
759.958	0.16
760.134	0.09
760.311	0.07
760.488	0.2
760.664	0.16
760.841	0.17
761.017	0.09
761.194	0.23
761.37	0.13
761.547	0.11
761.723	0.14
761.899	0.09
762.076	0.02
762.252	0.12
762.429	0.08
762.605	0.27
762.781	0.15
762.958	0.18
763.134	0.1
763.31	0.08
763.486	0.21
763.663	0.07
763.839	0.16
764.015	-0.03
764.191	-0.05
764.368	0.05
764.544	0.09
764.72	0.17
764.896	0.29
765.072	0.16
765.248	0.15
765.425	0.04
765.601	0.12
765.777	0.16
765.953	-0.01
766.129	-0.02
766.305	0.05
766.481	0.11
766.657	0.23
766.833	0.38
767.009	0.13
767.185	0.06
767.361	0.04
767.537	0.05
767.713	0.3
767.889	0.09
768.065	0.15
768.24	-0.09
768.416	0.27
768.592	0.17
768.768	0.07
768.944	0.14
769.12	0.04
769.295	0.14
769.471	0.02
769.647	0.06
769.823	0.27
769.998	0.04
770.174	-0.14
770.35	0.51
770.525	0.31
770.701	0.18
770.877	0.18
771.052	0.03
771.228	0.32
771.403	0.25
771.579	0.15
771.755	0.49
771.93	0.1
772.106	0.02
772.281	-0.14
772.457	0.21
772.632	0.08
772.808	-0.08
772.983	0.11
773.159	-0.07
773.334	0.29
773.509	0.05
773.685	0.03
773.86	0.47
774.036	0.3
774.211	0.12
774.386	0.15
774.562	0.16
774.737	0.51
774.912	0.09
775.087	0.23
775.263	0.24
775.438	0.01
775.613	-0.03
775.788	0.06
775.964	0.28
776.139	0.52
776.314	0.01
776.489	0.21
776.664	0.06
776.839	0.11
777.014	0.3
777.19	0.34
777.365	0.32
777.54	0.38
777.715	0
777.89	0.15
778.065	0.16
778.24	0.07
778.415	0.14
778.59	-0.09
778.765	0.02
778.94	0.22
779.115	0.05
779.289	0.09
779.464	0.07
779.639	0.18
779.814	0.04
779.989	-0.02
780.164	0.45
780.339	0.14
780.513	0.09
780.688	0.06
780.863	0.1
781.038	0.26
781.212	0.07
781.387	0.22
781.562	0.52
781.737	0.05
781.911	0.38
782.086	0.01
782.261	0.15
782.435	0.42
782.61	0.11
782.784	-0.08
782.959	0.32
783.134	0.33
783.308	-0.05
783.483	-0.01
783.657	0.47
783.832	0.44
784.006	-0.17
784.181	0.36
784.355	0.43
784.53	0.01
784.704	-0.17
784.878	0.37
785.053	0.25
785.227	0.31
785.402	0.44
785.576	-0.16
785.75	0.09
785.925	0.07
786.099	0.32
786.273	0.18
786.448	0.36
786.622	0.47
786.796	0.08
786.97	-0.12
787.145	0.66
787.319	0.01
787.493	0.15
787.667	-0.15
787.841	0.16
788.015	0.56
788.19	-0.13
788.364	0.07
788.538	0.26
788.712	0.35
788.886	0.06
789.06	0.33
789.234	0.26
789.408	-0.02
789.582	0.07
789.756	0.12
789.93	-0.15
790.104	0.21
790.278	0.07
790.452	0.08
790.626	0.17
790.8	0.1
790.973	0.39
791.147	0.15
791.321	0.41
791.495	0.42
791.669	0.3
791.843	0.41
792.016	0.16
792.19	0.58
792.364	-0.11
792.538	0.46
792.711	0.46
792.885	-0.09
793.059	0.03
793.233	-0.31
793.406	0.27
793.58	0.22
793.754	0.15
793.927	-0.01
794.101	0.35
794.274	0.03
794.448	0.33
794.622	-0.1
794.795	0.62
794.969	0.16
795.142	0.47
795.316	0.17
795.489	0.03
795.663	0.6
795.836	0.23
796.009	0.17
796.183	0.38
796.356	0.23
796.53	0.39
796.703	0.24
796.876	0.68
797.05	0.26
797.223	0.09
797.396	0.17
797.57	0.3
797.743	0.55
797.916	0.18
798.09	0
798.263	0.42
798.436	0.24
798.609	0.07
798.782	0.2
798.956	0.18
799.129	0.09
799.302	0.35
799.475	-0.14
799.648	-0.07
799.821	-0.05
799.994	0.04
800.167	-0.05
800.34	0.36
800.514	0.16
800.687	0.33
800.86	-0.21
801.033	0.13
801.206	0.22
801.379	0
801.551	0.61
801.724	0.37
801.897	0.67
802.07	0.17
802.243	-0.37
802.416	-0
802.589	0.06
802.762	0.15
802.935	0.14
803.107	0.34
803.28	0.68
803.453	0.47
803.626	0.04
803.798	0.24
803.971	0.07
804.144	0.44
804.317	0.47
804.489	0.33
804.662	0.46
804.835	0.27
805.007	0.03
805.18	0.6
805.353	0.27
805.525	0.11
805.698	0.2
805.87	0.55
806.043	0.59
806.215	-0.19
806.388	-0.05
806.56	0.44
806.733	0.56
806.905	0.23
807.078	-0
807.25	-0.27
807.423	0.33
807.595	0.21
807.768	0.26
807.94	0.4
808.112	0.46
808.285	0.37
808.457	-0.06
808.629	0.22
808.802	0.36
808.974	0.56
809.146	-0.11
809.318	-0.44
809.491	0.3
809.663	0.61
809.835	-0.07
810.007	0.4
810.18	0.24
810.352	-0.1
810.524	0.32
810.696	0.63
810.868	0.52
811.04	0.21
811.212	-0.05
811.384	0.58
811.556	0.21
811.728	0.31
811.901	0.87
812.073	-0.02
812.245	0.65
812.417	0.22
812.589	-0.39
812.76	0.44
812.932	0.68
813.104	0.47
813.276	0.48
813.448	0.71
813.62	0.17
813.792	0.53
813.964	-0.07
814.136	0.31
814.307	0.12
814.479	-0.01
814.651	0.09
814.823	1.2
814.995	0.2
815.166	0.37
815.338	0.11
815.51	-0.5
815.681	1.07
815.853	0.26
816.025	0.09
816.196	1.01
816.368	0.62
816.54	0.01
816.711	0.21
816.883	0.23
817.054	0.83
817.226	-0.46
817.398	0.51
817.569	-0.03
817.741	0.36
817.912	0.3
818.084	-0.12
818.255	0.45
818.426	0.23
818.598	-0.05
818.769	-0.14
818.941	0.4
819.112	1.19
819.283	0.4
819.455	0.2
819.626	0.34
819.798	0.67
819.969	0.38
820.14	0.31
820.311	0.45
820.483	0.58
820.654	0.45
820.825	0.18
820.996	0.06
821.168	-0.24
821.339	0.24
821.51	0.06
821.681	-0
821.852	0.05
822.023	-0.12
822.195	-0.45
822.366	1.16
822.537	0.55
822.708	0.34
822.879	0.1
823.05	0.89
823.221	-0.14
823.392	0.71
823.563	0.29
823.734	0.39
823.905	0.31
824.076	0.15
824.247	-0.1
824.418	0.29
824.589	1.36
824.759	0.37
824.93	-0.06
825.101	0.24
825.272	0.98
825.443	0.94
825.614	1.23
825.784	-1.07
825.955	1.23
826.126	0.76
826.297	0.48
826.467	1.07
826.638	0.92
826.809	-0.51
826.98	0.42
827.15	0.09
827.321	0.51
827.492	1.14
827.662	0.15
827.833	0.79
828.003	0.54
828.174	-0.69
828.345	-0.75
828.515	1.29
828.686	0.38
828.856	0.07
829.027	0.54
829.197	0.36
829.368	0.77
829.538	-0.05
829.709	-0.16
829.879	0.56
830.049	0.16
830.22	0.08
830.39	0.34
830.56	0.65
830.731	0.85
830.901	-0.01
831.072	0.41
831.242	0.82
831.412	0.55
831.582	-0.04
831.753	-0.27
831.923	0.94
832.093	0.84
832.263	0.36
832.434	-0.49
832.604	-0.54
832.774	0.51
832.944	0.04
833.114	0.31
833.284	0.5
833.454	-0.45
833.624	0.09
833.795	0.06
833.965	1.17
834.135	1.02
834.305	-0.17
834.475	-0
834.645	0.75
834.815	-0.15
834.985	-0.34
835.155	0.39
835.325	1.02
835.494	0.98
835.664	0.18
835.834	-0.33
836.004	0.98
836.174	0.94
836.344	0.27
836.514	0.35
836.684	-0.33
836.853	0.1
837.023	0.38
837.193	-0.26
837.363	0.39
837.532	0.96
837.702	0.63
837.872	-0.78
838.041	1.17
838.211	1.53
838.381	-0.35
838.55	0.73
838.72	1.96
838.89	1.46
839.059	-0.09
839.229	0
839.398	2.24
839.568	0.04
839.738	0.2
839.907	1.34
840.077	0.3
840.246	0.48
840.416	-0.08
840.585	-0.44
840.755	0.9
840.924	1.19
841.093	-0.19
841.263	0.3
841.432	0.5
841.602	-0.87
841.771	0
841.94	-0.04
842.11	1.97
842.279	1.58
842.448	0.05
842.617	0.41
842.787	1.04
842.956	-0.17
843.125	0.22
843.294	0.44
843.464	1.48
843.633	-0.7
843.802	-0.41
843.971	0.07
844.14	1.49
844.309	1.11
844.479	-0.25
844.648	-0.27
844.817	0.05
844.986	0.87
845.155	0.51
845.324	-0.12
845.493	0.12
845.662	0.18
845.831	1.2
846	0.41
846.169	0.63
846.338	1.9
846.507	0.68
846.676	0.42
846.844	0.13
847.013	0.61
847.182	1.55
847.351	-0.05
847.52	0.5
847.689	0.53
847.858	-0.51
848.026	-0.35
848.195	0.01
848.364	0.62
848.533	-0.23
848.701	-0.79
848.87	0.17
849.039	1.23
849.207	1.2
849.376	2.32
849.545	1.22
849.713	-0.43
849.882	0.63
850.051	0.48
850.219	0.17
850.388	1.87
850.556	-0.31
850.725	0.05
850.893	0.51
851.062	0.28
851.23	0.62
851.399	-0.5
851.567	-1.02
851.736	0.83
851.904	-0.27
852.073	-0.34
852.241	0.02
852.41	0.35
852.578	0.59
852.746	-0.52
852.915	1.12
853.083	0.12
853.251	-0.76
853.42	-0.11
853.588	1.27
853.756	1.34
853.924	1.72
854.093	0.17
854.261	-0.32
854.429	-0.92
854.597	0.77
854.765	0.27
854.934	1.49
855.102	2.19
855.27	0.27
855.438	0.94
855.606	1.45
855.774	1.5
855.942	-0.79
856.11	-0.99
856.278	1.33
856.446	0.49
856.614	0.54
856.782	-0.16
856.95	1.86
857.118	2.23
857.286	0.54
857.454	-0.17
857.622	0.61
857.79	1.67
857.958	-0.97
858.126	0.39
858.294	-2.61
858.462	0.41
858.629	-0.87
858.797	-1.04
858.965	0.75
859.133	-0.3
859.301	1.08
859.468	2.03
859.636	-0.34
859.804	2.09
859.971	1.57
860.139	-0.01
860.307	1.7
860.474	0.69
860.642	0.52
860.81	0.22
860.977	0.44
861.145	1.26
861.313	0.63
861.48	0.32
861.648	1.58
861.815	0.38
861.983	-0.83
862.15	0.35
862.318	1.01
862.485	2.54
862.653	-0.95
862.82	-0.65
862.988	3.23
863.155	1.13
863.322	-0.14
863.49	-1.28
863.657	-0.31
863.824	3.22
863.992	1.7
864.159	0.49
864.326	2.15
864.494	0.83
864.661	3.09
864.828	-0.09
864.996	2.71
865.163	2.49
865.33	-1
865.497	-1.97
865.664	1.34
865.832	-1.43
865.999	1.26
866.166	-0.86
866.333	-0.8
866.5	-1.67
866.667	2.08
866.834	-0.31
867.001	1.51
867.168	0.25
867.335	1.62
867.502	-0.81
867.669	0.24
867.836	2.38
868.003	-1.04
868.17	1.72
868.337	0.19
868.504	3.83
868.671	-0.4
868.838	1.25
869.005	0.38
869.172	3.51
869.339	0.81
869.505	0.13
869.672	0.48
869.839	2.93
870.006	0.4
870.173	-0.81
870.339	3.02
870.506	3.09
870.673	0.88
870.84	0.67
871.006	0.39
871.173	1.95
871.34	1.29
871.506	1.05
871.673	2.15
871.839	-1.15
872.006	1.09
872.173	1.04
872.339	-0.12
872.506	3.2
872.672	0.31
872.839	-0.36
873.005	0.54
873.172	4.51
873.338	1.56
873.505	0.83
873.671	0.16
873.838	2.18
874.004	-0.65
874.171	-0.54
874.337	1.74
874.503	1.88
874.67	0.82
874.836	-0.63
875.002	2.91
875.169	0.86
875.335	0.85
875.501	-0.18
875.668	2.67
875.834	0.81
876	0.31
876.166	1.85
876.332	3.01
876.499	4.59
876.665	-1.21
876.831	0.85
876.997	4.42
877.163	1.97
877.329	-0.16
877.495	0.72
877.662	2.06
877.828	0.87
877.994	0.62
878.16	-0.21
878.326	-0.19
878.492	2.27
878.658	0.73
878.824	-0.18
878.99	1.85
879.156	1.26
879.322	4.49
879.487	0.36
879.653	1.99
879.819	1.76
879.985	-2.11
880.151	-0.42
880.317	2.44
880.483	1.34
880.648	1.6
880.814	-0.29
880.98	3.37
881.146	-2.66
881.312	-0.05
881.477	1.29
881.643	-0.74
881.809	2.08
881.974	3.77
882.14	-2.15
882.306	0.25
882.471	3.42
882.637	-1.4
882.803	2.37
882.968	0.83
883.134	4.68
883.299	-0.12
883.465	0.72
883.63	2.23
883.796	0.18
883.961	2.64
884.127	2.3
884.292	-2.4
884.458	0.08
884.623	0.08
