Data from Apollo_Calib_20240827__AbsoluteIrradiance__717__11-06-03-127.txt Node

Date: Wed Aug 28 11:06:03 BST 2024
User: biology
Spectrometer: FLMT08252
Trigger mode: 0
Integration Time (sec): 5.000000E-1
Scans to average: 5
Electric dark correction enabled: true
Nonlinearity correction enabled: false
Boxcar width: 0
XAxis mode: Wavelengths
Number of Pixels in Spectrum: 3648
>>>>>Begin Spectral Data<<<<<
179.588	-0
179.809	-0
180.03	-0
180.251	-0
180.473	-0
180.694	0
180.915	0
181.136	-0
181.357	0
181.578	-0
181.799	-0
182.02	0
182.241	0
182.462	-0
182.683	0
182.904	-0
183.125	0
183.346	0
183.567	0
183.788	-0
184.009	-0
184.23	-0
184.451	0
184.672	-0
184.892	-0
185.113	0
185.334	0
185.555	-0
185.776	-0
185.996	0
186.217	0
186.438	0
186.659	-0
186.879	0
187.1	-0
187.321	-0
187.541	-0
187.762	0
187.983	0
188.203	0
188.424	-0
188.644	-0
188.865	0
189.086	0
189.306	-0
189.527	-0
189.747	0
189.968	-0
190.188	0
190.409	0
190.629	0
190.849	-0
191.07	-0
191.29	0
191.511	0
191.731	-0
191.951	-0
192.172	0
192.392	-0
192.612	-0
192.833	0
193.053	0
193.273	0
193.493	0
193.714	0
193.934	0
194.154	0
194.374	0
194.594	0
194.815	0
195.035	0
195.255	0
195.475	-0
195.695	0
195.915	0
196.135	0
196.355	0
196.575	0
196.795	0
197.015	-0
197.235	-0
197.455	-0
197.675	0
197.895	-0
198.115	-0
198.335	0
198.555	0
198.775	0
198.995	0
199.214	0
199.434	0
199.654	-0
199.874	-0
200.094	0.8
200.313	0.11
200.533	-0.53
200.753	-0.99
200.973	1.02
201.192	0.5
201.412	-0.31
201.632	0.11
201.851	0.64
202.071	-0.5
202.291	-0.19
202.51	-0.97
202.73	0.18
202.95	0.15
203.169	-0.06
203.389	-0.01
203.608	0.33
203.828	-0.32
204.047	-0.09
204.267	0.39
204.486	0.28
204.706	-0.13
204.925	0.15
205.145	-0.31
205.364	0.5
205.583	0.91
205.803	-0.28
206.022	-0.18
206.242	0.19
206.461	-0.06
206.68	0.04
206.9	0.06
207.119	0.75
207.338	0.42
207.557	-0.28
207.777	0.12
207.996	0.09
208.215	0.49
208.434	-0.16
208.654	-0.4
208.873	-0.06
209.092	0.65
209.311	0.15
209.53	0.16
209.749	0.12
209.968	-0.09
210.187	-0.08
210.407	-0.48
210.626	0.02
210.845	0.13
211.064	0.02
211.283	-0.27
211.502	0.41
211.721	0.16
211.94	0.04
212.159	0.16
212.377	0.34
212.596	0.4
212.815	0.11
213.034	0.1
213.253	0.34
213.472	0.35
213.691	-0.01
213.91	-0.2
214.128	-0.21
214.347	0.18
214.566	-0.4
214.785	-0.56
215.003	0.04
215.222	0.02
215.441	0.02
215.66	-0.27
215.878	0.18
216.097	0.32
216.316	-0.18
216.534	-0.08
216.753	0.09
216.972	0.15
217.19	-0.12
217.409	-0.13
217.627	-0.2
217.846	0.04
218.064	-0.05
218.283	-0.14
218.501	0.59
218.72	0.26
218.938	-0.22
219.157	-0.04
219.375	0.3
219.594	0.1
219.812	-0.22
220.031	-0.2
220.249	0.19
220.467	0.49
220.686	-0.04
220.904	-0.13
221.122	-0.13
221.341	0.41
221.559	-0.1
221.777	-0.11
221.995	-0.12
222.214	0.12
222.432	0.03
222.65	0.11
222.868	0.03
223.086	0.25
223.305	0.28
223.523	-0.08
223.741	0.31
223.959	-0.03
224.177	-0.21
224.395	-0.08
224.613	0.18
224.831	0.27
225.049	-0.17
225.267	-0.07
225.485	0.01
225.703	0.01
225.921	-0.06
226.139	0.04
226.357	0.17
226.575	0.35
226.793	0.12
227.011	0.64
227.229	0.06
227.447	0.19
227.665	0.01
227.883	-0.2
228.1	0.11
228.318	0.04
228.536	-0.08
228.754	-0.1
228.972	0.05
229.189	0.17
229.407	0.08
229.625	-0.04
229.843	0.31
230.06	0.07
230.278	0.03
230.496	0.06
230.713	0.03
230.931	0.24
231.149	-0.05
231.366	-0.22
231.584	0.02
231.801	0.36
232.019	0
232.236	-0.12
232.454	-0.01
232.671	0.07
232.889	0.01
233.106	-0.15
233.324	0.07
233.541	-0.01
233.759	0.03
233.976	-0.06
234.194	-0.03
234.411	0.07
234.628	0.01
234.846	-0.04
235.063	-0
235.28	0.09
235.498	0.01
235.715	-0.1
235.932	0.11
236.149	0.06
236.367	-0.05
236.584	0.03
236.801	0.01
237.018	0.12
237.236	0.06
237.453	-0.09
237.67	0.15
237.887	-0.01
238.104	0.08
238.321	-0.1
238.538	-0.02
238.755	0.09
238.973	-0.16
239.19	-0.01
239.407	0.15
239.624	0.12
239.841	-0.02
240.058	-0.03
240.275	0.02
240.492	-0.01
240.709	0.11
240.925	-0.01
241.142	-0
241.359	-0.05
241.576	-0.08
241.793	-0.13
242.01	-0
242.227	0.1
242.444	0.1
242.66	0.04
242.877	-0.01
243.094	-0
243.311	0.12
243.527	-0.05
243.744	0.04
243.961	0.11
244.178	-0.01
244.394	-0.09
244.611	0.14
244.828	0.22
245.044	-0.09
245.261	0
245.477	0.09
245.694	0.03
245.911	-0.04
246.127	0.01
246.344	0.18
246.56	0.11
246.777	-0.02
246.993	0.09
247.21	0.07
247.426	-0.07
247.643	0.05
247.859	-0.09
248.076	0.01
248.292	0.16
248.508	-0.08
248.725	0.08
248.941	0.01
249.157	0.14
249.374	-0.04
249.59	0.02
249.806	-0.02
250.023	0.26
250.239	-0.08
250.455	-0.02
250.671	0.03
250.888	0.07
251.104	0.05
251.32	0.05
251.536	-0.02
251.752	-0.07
251.969	0.06
252.185	0.03
252.401	0.21
252.617	-0.04
252.833	-0.08
253.049	0.06
253.265	-0.01
253.481	0.02
253.697	-0
253.913	-0.05
254.129	0.03
254.345	0.02
254.561	-0.06
254.777	-0.04
254.993	0.1
255.209	0.12
255.425	-0.01
255.641	-0.01
255.857	0.12
256.073	0.02
256.288	-0.04
256.504	-0.02
256.72	0.02
256.936	0.14
257.152	0
257.367	-0.09
257.583	0
257.799	0.11
258.015	-0.03
258.23	-0.02
258.446	0.14
258.662	0.04
258.877	-0.05
259.093	-0.05
259.309	0.02
259.524	0.07
259.74	-0.01
259.955	-0.12
260.171	0.05
260.387	-0.07
260.602	0.06
260.818	0.06
261.033	-0.02
261.249	-0.05
261.464	-0.05
261.68	-0.07
261.895	0.08
262.11	0.1
262.326	-0
262.541	-0.03
262.757	0.07
262.972	0.01
263.187	0.03
263.403	-0.01
263.618	0.09
263.833	0.01
264.049	-0.01
264.264	0.03
264.479	-0.02
264.694	0.11
264.91	-0.04
265.125	-0.05
265.34	0.13
265.555	0.11
265.77	-0
265.986	0.03
266.201	0.1
266.416	0.1
266.631	0.01
266.846	0.01
267.061	0.07
267.276	0.02
267.491	-0.13
267.706	0.11
267.921	0.04
268.136	0.07
268.351	0.01
268.566	-0.04
268.781	0.11
268.996	0.04
269.211	0.03
269.426	-0.05
269.641	-0.01
269.856	0.1
270.071	-0.07
270.285	-0.08
270.5	0.1
270.715	0.14
270.93	-0.02
271.145	0.06
271.359	0.09
271.574	-0
271.789	0.01
272.004	-0.09
272.218	-0.04
272.433	0.07
272.648	-0.05
272.862	0.06
273.077	-0.03
273.292	0.06
273.506	-0.03
273.721	-0.04
273.936	0.05
274.15	0.04
274.365	0.03
274.579	0.06
274.794	0.06
275.008	0.07
275.223	-0.04
275.437	0.01
275.652	0.11
275.866	0.08
276.081	0.04
276.295	0.09
276.509	0.02
276.724	0.04
276.938	-0
277.153	0.04
277.367	0.07
277.581	0.02
277.796	-0.02
278.01	-0.03
278.224	0.06
278.438	0.18
278.653	-0.03
278.867	0.01
279.081	-0.14
279.295	-0.04
279.51	0.04
279.724	-0.07
279.938	0.06
280.152	0.04
280.366	0.03
280.58	0.06
280.794	0.19
281.008	0.05
281.222	0.04
281.437	0.09
281.651	0.01
281.865	0.12
282.079	0.01
282.293	-0.1
282.507	-0.03
282.721	0.01
282.935	0.01
283.148	-0.07
283.362	-0.04
283.576	-0.05
283.79	0
284.004	-0.03
284.218	0.08
284.432	-0.04
284.646	0.03
284.859	0.02
285.073	-0
285.287	0.01
285.501	-0.04
285.714	0.03
285.928	0.03
286.142	0.05
286.356	0.04
286.569	-0.02
286.783	0.11
286.997	0.12
287.21	-0.02
287.424	0.03
287.637	0.03
287.851	0.01
288.065	0.08
288.278	0.01
288.492	0.05
288.705	-0.01
288.919	0.02
289.132	-0.06
289.346	0.08
289.559	-0.01
289.773	-0.07
289.986	0.04
290.2	0.01
290.413	0.07
290.626	0.03
290.84	-0
291.053	0.02
291.267	0.11
291.48	-0.01
291.693	0.04
291.906	-0
292.12	0.02
292.333	-0.04
292.546	0.01
292.76	0.09
292.973	0.01
293.186	0.04
293.399	0.02
293.612	0.06
293.826	-0.03
294.039	0.03
294.252	0.01
294.465	0.1
294.678	0.07
294.891	0.03
295.104	0.01
295.317	0.04
295.53	0.05
295.743	0.01
295.956	0.03
296.169	0.11
296.382	0.08
296.595	0.02
296.808	-0.04
297.021	0.1
297.234	0.06
297.447	0.02
297.66	0.03
297.873	0.07
298.086	0.07
298.299	-0.05
298.511	-0
298.724	0.04
298.937	-0
299.15	-0.03
299.363	0.02
299.575	0.03
299.788	0.05
300.001	0.02
300.213	-0.01
300.426	0.04
300.639	-0
300.852	-0
301.064	0.06
301.277	0.09
301.489	0.09
301.702	0.1
301.915	-0.01
302.127	0.03
302.34	0.04
302.552	0.05
302.765	0.03
302.977	0.06
303.19	-0.02
303.402	-0
303.615	0.01
303.827	-0.01
304.04	0.03
304.252	0.04
304.464	-0
304.677	0.14
304.889	0.08
305.102	0.01
305.314	0
305.526	0.06
305.739	0.04
305.951	-0.03
306.163	0.02
306.375	0.1
306.588	0.04
306.8	-0.05
307.012	-0.02
307.224	0.04
307.436	0.08
307.649	-0.03
307.861	0.04
308.073	0.09
308.285	0.02
308.497	0.02
308.709	-0.01
308.921	0.04
309.133	0.08
309.346	0
309.558	0.02
309.77	0.03
309.982	0.06
310.194	0.04
310.406	-0.01
310.617	0.1
310.829	0.03
311.041	0.04
311.253	-0.03
311.465	0
311.677	0.01
311.889	-0.01
312.101	-0.01
312.313	0.05
312.524	0.09
312.736	-0.03
312.948	-0.01
313.16	0.11
313.372	0.07
313.583	-0.01
313.795	0.02
314.007	0.02
314.218	0.07
314.43	0.01
314.642	0.01
314.853	-0.05
315.065	0.06
315.277	0.01
315.488	0.04
315.7	0.08
315.912	0.06
316.123	0.02
316.335	0.03
316.546	0.1
316.758	0.06
316.969	-0.01
317.181	0.05
317.392	0.03
317.604	0.04
317.815	-0
318.026	-0
318.238	-0.04
318.449	0.04
318.661	-0.04
318.872	-0.03
319.083	-0.03
319.295	0.07
319.506	-0
319.717	0.01
319.929	0.08
320.14	0.02
320.351	0.04
320.562	-0.03
320.774	0.04
320.985	0.05
321.196	-0.01
321.407	-0.03
321.618	0.07
321.829	0.03
322.041	0.06
322.252	0.03
322.463	0.03
322.674	0.03
322.885	-0
323.096	0.02
323.307	0.01
323.518	0.03
323.729	-0.02
323.94	-0.06
324.151	-0.01
324.362	0.06
324.573	0.03
324.784	0.01
324.995	0.09
325.206	0.03
325.417	-0.05
325.628	0.02
325.838	0.03
326.049	0.01
326.26	0.03
326.471	0
326.682	0.04
326.892	0.03
327.103	-0.01
327.314	-0.02
327.525	0.07
327.735	0.02
327.946	0.04
328.157	0.03
328.368	0.08
328.578	-0.04
328.789	0.07
328.999	0.04
329.21	0.03
329.421	0.03
329.631	-0.04
329.842	-0.04
330.052	0.01
330.263	0.03
330.473	0.04
330.684	0.01
330.894	-0.01
331.105	0.02
331.315	0.03
331.526	-0.04
331.736	0.08
331.947	0.02
332.157	0.03
332.367	-0.02
332.578	-0.01
332.788	0.12
332.999	0.04
333.209	0.01
333.419	0.03
333.629	0.06
333.84	0.06
334.05	-0.02
334.26	0.09
334.47	0
334.681	0.04
334.891	0.02
335.101	0.08
335.311	0.11
335.521	0.04
335.732	-0.06
335.942	0.1
336.152	0.03
336.362	0.08
336.572	0.02
336.782	0.07
336.992	-0.03
337.202	0
337.412	-0.04
337.622	0.06
337.832	0.04
338.042	0.02
338.252	0.03
338.462	-0.01
338.672	0.05
338.882	-0.03
339.092	0.03
339.302	0.08
339.511	0.04
339.721	0.04
339.931	-0.05
340.141	0.06
340.351	0.04
340.561	0.06
340.77	0.04
340.98	0.06
341.19	0.04
341.4	0.02
341.609	-0.03
341.819	0.04
342.029	-0.03
342.238	0.03
342.448	-0.02
342.658	0.05
342.867	0.03
343.077	0.02
343.286	0.04
343.496	0.06
343.706	0.09
343.915	-0.02
344.125	0.07
344.334	0.04
344.544	-0.06
344.753	0.01
344.963	-0.02
345.172	-0.03
345.381	0.02
345.591	-0.04
345.8	0.03
346.01	0.06
346.219	0.02
346.428	-0.13
346.638	0.02
346.847	-0
347.056	0.08
347.266	0.01
347.475	0.02
347.684	0.05
347.893	0.07
348.103	0.04
348.312	0.03
348.521	-0.01
348.73	0.04
348.94	0.06
349.149	-0.01
349.358	0.01
349.567	0.01
349.776	-0.03
349.985	0.02
350.194	0.02
350.403	0.09
350.612	-0.02
350.821	-0.01
351.03	0.02
351.239	-0.03
351.448	0.04
351.657	-0.01
351.866	0.11
352.075	0.05
352.284	0.09
352.493	-0.02
352.702	0.08
352.911	0.05
353.12	0.04
353.329	-0.02
353.538	0.04
353.746	0.04
353.955	-0.05
354.164	0.09
354.373	0.01
354.582	0.08
354.79	0.06
354.999	0.05
355.208	0.01
355.416	0.05
355.625	-0.02
355.834	0
356.042	0.02
356.251	0.02
356.46	-0.01
356.668	0.02
356.877	0.14
357.085	0.04
357.294	-0.03
357.503	0.02
357.711	-0.03
357.92	0.18
358.128	0.06
358.337	-0.01
358.545	0
358.754	-0.03
358.962	0.05
359.17	0.02
359.379	0.01
359.587	0.04
359.796	0.03
360.004	0.08
360.212	0.05
360.421	0.06
360.629	0.03
360.837	0.03
361.046	0.04
361.254	0.1
361.462	0.01
361.67	-0.01
361.879	0.04
362.087	0.09
362.295	0.03
362.503	0.01
362.711	-0.02
362.92	-0.01
363.128	0.01
363.336	0.01
363.544	-0.01
363.752	0.04
363.96	-0.02
364.168	-0.03
364.376	0.05
364.584	0.04
364.792	0.11
365	0.02
365.208	0.03
365.416	0.04
365.624	0.07
365.832	0.01
366.04	0.06
366.248	0.03
366.456	0.06
366.664	0.03
366.872	0.02
367.079	0.02
367.287	0.02
367.495	0.02
367.703	0.05
367.911	-0
368.118	0.01
368.326	-0.01
368.534	-0
368.742	0.05
368.949	-0.04
369.157	-0.03
369.365	0.06
369.572	0.04
369.78	-0.02
369.988	0.04
370.195	0.03
370.403	0.03
370.61	0.02
370.818	0.03
371.026	0.06
371.233	-0.02
371.441	0.01
371.648	-0.03
371.856	0.04
372.063	-0.02
372.271	0.04
372.478	-0.03
372.685	0.02
372.893	0.07
373.1	0.02
373.308	-0.01
373.515	0.07
373.722	-0.01
373.93	-0.02
374.137	0.04
374.344	0.12
374.552	0.03
374.759	0.04
374.966	0.02
375.173	0.01
375.381	0.07
375.588	0.02
375.795	-0.05
376.002	-0
376.209	-0.02
376.417	0.02
376.624	0.06
376.831	0.05
377.038	-0.04
377.245	-0.06
377.452	-0.02
377.659	0.02
377.866	-0
378.073	0.02
378.28	0.04
378.487	0.09
378.694	0.03
378.901	0.02
379.108	0.03
379.315	0.07
379.522	0.1
379.729	0.06
379.936	0.02
380.143	0.04
380.35	0.01
380.557	0.01
380.763	0.03
380.97	0.03
381.177	0.04
381.384	0.05
381.591	0.02
381.797	0.02
382.004	0.07
382.211	0.05
382.418	-0.05
382.624	0.05
382.831	0.06
383.038	0.02
383.244	0.09
383.451	0.02
383.658	0.05
383.864	0.02
384.071	0
384.277	0.04
384.484	-0
384.69	0.04
384.897	0.03
385.103	0.04
385.31	-0.01
385.516	0.01
385.723	-0.02
385.929	0.01
386.136	-0
386.342	0.01
386.549	0.03
386.755	0.07
386.961	0.08
387.168	0.03
387.374	0.04
387.58	0.04
387.787	0.03
387.993	0.05
388.199	-0
388.406	0
388.612	0.01
388.818	-0.01
389.024	-0.01
389.231	0.03
389.437	0.1
389.643	0.05
389.849	0.01
390.055	0.02
390.261	0.04
390.467	0.05
390.674	-0
390.88	0.03
391.086	0.07
391.292	-0.01
391.498	0.06
391.704	0.03
391.91	0.02
392.116	0.01
392.322	-0.07
392.528	0.06
392.734	-0.01
392.94	0.06
393.146	0.02
393.352	0.02
393.557	0.01
393.763	0.02
393.969	0.05
394.175	0.06
394.381	0.03
394.587	-0.01
394.792	-0.01
394.998	0.06
395.204	0.1
395.41	-0.01
395.615	0.05
395.821	0.04
396.027	0.03
396.233	-0
396.438	0.03
396.644	0.05
396.85	0.01
397.055	0.03
397.261	0.05
397.466	0.1
397.672	0.01
397.878	0.04
398.083	0.01
398.289	0.03
398.494	0.1
398.7	0.04
398.905	-0.04
399.111	0.14
399.316	-0.01
399.522	0.03
399.727	0.02
399.932	0.02
400.138	0
400.343	0.09
400.549	0.05
400.754	0.04
400.959	0.04
401.165	0.02
401.37	0.03
401.575	0.01
401.78	0.06
401.986	0.06
402.191	0.04
402.396	0.02
402.601	0.03
402.807	0.07
403.012	-0.01
403.217	0.08
403.422	0.07
403.627	0.05
403.832	0.05
404.037	0.05
404.243	0.1
404.448	0.03
404.653	0.03
404.858	0.07
405.063	0.08
405.268	0
405.473	-0.03
405.678	0.02
405.883	0.17
406.088	0.09
406.293	0
406.498	0.04
406.703	0.12
406.907	0.03
407.112	0.04
407.317	0.06
407.522	0.07
407.727	0.04
407.932	0.06
408.136	0.12
408.341	0.09
408.546	0.02
408.751	0.08
408.956	0.05
409.16	0.09
409.365	0.05
409.57	0.08
409.774	0.09
409.979	0.11
410.184	0.06
410.388	0.05
410.593	0.12
410.798	0.09
411.002	0.05
411.207	0.13
411.411	0.1
411.616	0.04
411.82	0.1
412.025	0.11
412.229	0.06
412.434	0.19
412.638	0.1
412.843	0.08
413.047	0.16
413.252	0.07
413.456	0.08
413.66	0.16
413.865	0.11
414.069	0.2
414.273	0.1
414.478	0.13
414.682	0.11
414.886	0.12
415.091	0.08
415.295	0.07
415.499	0.15
415.703	0.11
415.908	0.15
416.112	0.08
416.316	0.23
416.52	0.17
416.724	0.13
416.929	0.17
417.133	0.23
417.337	0.14
417.541	0.18
417.745	0.18
417.949	0.24
418.153	0.26
418.357	0.17
418.561	0.33
418.765	0.22
418.969	0.38
419.173	0.27
419.377	0.23
419.581	0.39
419.785	0.29
419.989	0.29
420.193	0.35
420.397	0.37
420.601	0.42
420.804	0.44
421.008	0.31
421.212	0.41
421.416	0.43
421.62	0.38
421.823	0.47
422.027	0.51
422.231	0.45
422.435	0.48
422.638	0.43
422.842	0.45
423.046	0.48
423.249	0.53
423.453	0.53
423.657	0.54
423.86	0.52
424.064	0.51
424.268	0.61
424.471	0.55
424.675	0.74
424.878	0.63
425.082	0.59
425.285	0.69
425.489	0.65
425.692	0.69
425.896	0.63
426.099	0.66
426.303	0.67
426.506	0.68
426.71	0.74
426.913	0.82
427.116	0.82
427.32	0.76
427.523	0.78
427.726	0.92
427.93	0.82
428.133	0.89
428.336	0.87
428.54	0.92
428.743	1.03
428.946	1
429.149	0.99
429.353	1.02
429.556	1.04
429.759	0.97
429.962	1
430.165	1.07
430.368	0.98
430.571	0.96
430.775	1.01
430.978	1
431.181	1.02
431.384	1.04
431.587	1
431.79	1.15
431.993	0.91
432.196	1.11
432.399	1.13
432.602	1.23
432.805	1.14
433.008	1.2
433.211	1.19
433.414	1.31
433.616	1.32
433.819	1.26
434.022	1.19
434.225	1.37
434.428	1.37
434.631	1.53
434.833	1.39
435.036	1.35
435.239	1.41
435.442	1.44
435.645	1.39
435.847	1.52
436.05	1.59
436.253	1.53
436.455	1.49
436.658	1.56
436.861	1.59
437.063	1.58
437.266	1.57
437.468	1.64
437.671	1.85
437.874	1.71
438.076	1.62
438.279	1.65
438.481	1.76
438.684	1.81
438.886	1.85
439.089	1.86
439.291	1.92
439.494	1.96
439.696	1.92
439.899	2.06
440.101	2.17
440.303	2.15
440.506	2.28
440.708	2.19
440.91	2.29
441.113	2.28
441.315	2.34
441.517	2.32
441.72	2.48
441.922	2.3
442.124	2.33
442.326	2.48
442.529	2.57
442.731	2.39
442.933	2.68
443.135	2.49
443.337	2.5
443.539	2.62
443.742	2.55
443.944	2.66
444.146	2.65
444.348	2.76
444.55	2.66
444.752	2.79
444.954	2.68
445.156	2.71
445.358	2.74
445.56	2.9
445.762	2.82
445.964	2.84
446.166	2.85
446.368	2.89
446.57	2.87
446.772	2.82
446.974	2.78
447.175	2.81
447.377	2.76
447.579	2.86
447.781	2.75
447.983	2.88
448.184	2.72
448.386	2.82
448.588	2.63
448.79	2.74
448.991	2.73
449.193	2.78
449.395	2.67
449.597	2.68
449.798	2.7
450	2.57
450.202	2.55
450.403	2.58
450.605	2.54
450.806	2.46
451.008	2.35
451.21	2.36
451.411	2.32
451.613	2.14
451.814	2.24
452.016	2.28
452.217	2.12
452.419	2.18
452.62	2.06
452.821	2
453.023	2.02
453.224	1.93
453.426	1.83
453.627	1.7
453.828	1.7
454.03	1.73
454.231	1.78
454.432	1.68
454.634	1.68
454.835	1.52
455.036	1.59
455.238	1.61
455.439	1.55
455.64	1.35
455.841	1.36
456.042	1.55
456.244	1.39
456.445	1.31
456.646	1.22
456.847	1.23
457.048	1.25
457.249	1.28
457.45	1.36
457.651	1.09
457.852	1.1
458.054	1.03
458.255	1.05
458.456	1.05
458.657	1.04
458.858	0.91
459.058	0.98
459.259	0.96
459.46	0.91
459.661	0.86
459.862	1.05
460.063	0.9
460.264	0.9
460.465	0.79
460.666	0.94
460.866	0.76
461.067	0.72
461.268	0.77
461.469	0.72
461.67	0.73
461.87	0.71
462.071	0.74
462.272	0.73
462.473	0.68
462.673	0.76
462.874	0.68
463.075	0.71
463.275	0.62
463.476	0.73
463.676	0.68
463.877	0.72
464.078	0.66
464.278	0.69
464.479	0.65
464.679	0.67
464.88	0.62
465.08	0.69
465.281	0.56
465.481	0.58
465.682	0.52
465.882	0.58
466.083	0.61
466.283	0.54
466.483	0.53
466.684	0.49
466.884	0.44
467.085	0.49
467.285	0.53
467.485	0.42
467.686	0.49
467.886	0.41
468.086	0.47
468.286	0.44
468.487	0.48
468.687	0.42
468.887	0.42
469.087	0.47
469.287	0.43
469.488	0.34
469.688	0.44
469.888	0.45
470.088	0.47
470.288	0.44
470.488	0.45
470.688	0.32
470.888	0.35
471.088	0.29
471.288	0.41
471.488	0.35
471.688	0.39
471.888	0.33
472.088	0.42
472.288	0.37
472.488	0.32
472.688	0.31
472.888	0.37
473.088	0.3
473.288	0.32
473.488	0.33
473.688	0.39
473.887	0.34
474.087	0.28
474.287	0.29
474.487	0.28
474.687	0.33
474.886	0.3
475.086	0.31
475.286	0.3
475.486	0.33
475.685	0.29
475.885	0.23
476.085	0.25
476.284	0.31
476.484	0.29
476.684	0.34
476.883	0.33
477.083	0.31
477.282	0.24
477.482	0.34
477.681	0.32
477.881	0.29
478.08	0.24
478.28	0.24
478.479	0.3
478.679	0.34
478.878	0.21
479.078	0.27
479.277	0.24
479.477	0.27
479.676	0.3
479.875	0.27
480.075	0.22
480.274	0.27
480.473	0.26
480.673	0.25
480.872	0.3
481.071	0.26
481.271	0.26
481.47	0.25
481.669	0.25
481.868	0.25
482.067	0.23
482.267	0.24
482.466	0.24
482.665	0.23
482.864	0.19
483.063	0.23
483.262	0.26
483.461	0.3
483.661	0.31
483.86	0.26
484.059	0.28
484.258	0.25
484.457	0.27
484.656	0.25
484.855	0.29
485.054	0.24
485.253	0.26
485.452	0.22
485.651	0.27
485.849	0.29
486.048	0.23
486.247	0.21
486.446	0.3
486.645	0.24
486.844	0.23
487.043	0.24
487.241	0.24
487.44	0.26
487.639	0.26
487.838	0.27
488.037	0.29
488.235	0.33
488.434	0.3
488.633	0.25
488.831	0.3
489.03	0.31
489.229	0.32
489.427	0.31
489.626	0.31
489.825	0.33
490.023	0.32
490.222	0.28
490.42	0.34
490.619	0.36
490.817	0.34
491.016	0.3
491.214	0.39
491.413	0.33
491.611	0.33
491.81	0.31
492.008	0.34
492.207	0.37
492.405	0.37
492.604	0.28
492.802	0.34
493	0.37
493.199	0.35
493.397	0.37
493.595	0.37
493.794	0.34
493.992	0.46
494.19	0.39
494.388	0.42
494.587	0.33
494.785	0.41
494.983	0.35
495.181	0.41
495.379	0.41
495.578	0.43
495.776	0.43
495.974	0.42
496.172	0.41
496.37	0.41
496.568	0.43
496.766	0.43
496.964	0.49
497.162	0.46
497.36	0.44
497.558	0.5
497.756	0.49
497.954	0.49
498.152	0.44
498.35	0.49
498.548	0.47
498.746	0.51
498.944	0.44
499.142	0.5
499.34	0.47
499.538	0.54
499.736	0.48
499.933	0.57
500.131	0.54
500.329	0.57
500.527	0.57
500.725	0.59
500.922	0.59
501.12	0.59
501.318	0.58
501.516	0.57
501.713	0.57
501.911	0.57
502.109	0.58
502.306	0.61
502.504	0.56
502.701	0.56
502.899	0.63
503.097	0.69
503.294	0.61
503.492	0.65
503.689	0.68
503.887	0.67
504.084	0.72
504.282	0.67
504.479	0.64
504.677	0.69
504.874	0.66
505.072	0.67
505.269	0.71
505.466	0.71
505.664	0.73
505.861	0.69
506.059	0.69
506.256	0.75
506.453	0.7
506.651	0.82
506.848	0.77
507.045	0.74
507.242	0.77
507.44	0.76
507.637	0.76
507.834	0.78
508.031	0.81
508.229	0.74
508.426	0.79
508.623	0.85
508.82	0.77
509.017	0.77
509.214	0.81
509.411	0.82
509.608	0.79
509.805	0.83
510.003	0.86
510.2	0.84
510.397	0.87
510.594	0.83
510.791	0.87
510.988	0.86
511.184	0.9
511.381	0.85
511.578	0.86
511.775	0.9
511.972	0.88
512.169	0.87
512.366	0.9
512.563	0.92
512.76	0.9
512.956	0.93
513.153	0.9
513.35	0.91
513.547	0.89
513.744	0.92
513.94	0.91
514.137	0.98
514.334	0.95
514.53	0.94
514.727	1.01
514.924	1.02
515.12	0.97
515.317	0.95
515.514	0.95
515.71	0.96
515.907	0.99
516.103	1.01
516.3	1
516.497	1.03
516.693	1.05
516.89	0.98
517.086	1
517.283	1.03
517.479	1
517.676	1.01
517.872	1.02
518.068	1.01
518.265	1.05
518.461	1.03
518.658	1.03
518.854	1.04
519.05	1.06
519.247	1.09
519.443	1.09
519.639	1.1
519.836	1.07
520.032	1.04
520.228	1.08
520.424	1.1
520.621	1.09
520.817	1.07
521.013	1.09
521.209	1.12
521.405	1.16
521.601	1.09
521.798	1.1
521.994	1.16
522.19	1.09
522.386	1.07
522.582	1.1
522.778	1.12
522.974	1.09
523.17	1.13
523.366	1.08
523.562	1.15
523.758	1.15
523.954	1.06
524.15	1.13
524.346	1.18
524.542	1.15
524.738	1.14
524.934	1.15
525.129	1.15
525.325	1.16
525.521	1.14
525.717	1.22
525.913	1.15
526.109	1.14
526.304	1.15
526.5	1.17
526.696	1.2
526.892	1.16
527.087	1.18
527.283	1.16
527.479	1.17
527.674	1.12
527.87	1.2
528.066	1.16
528.261	1.19
528.457	1.18
528.653	1.19
528.848	1.18
529.044	1.22
529.239	1.17
529.435	1.2
529.63	1.18
529.826	1.24
530.021	1.18
530.217	1.22
530.412	1.18
530.608	1.18
530.803	1.19
530.999	1.16
531.194	1.16
531.389	1.22
531.585	1.18
531.78	1.22
531.975	1.2
532.171	1.23
532.366	1.18
532.561	1.21
532.757	1.2
532.952	1.25
533.147	1.19
533.342	1.2
533.538	1.18
533.733	1.27
533.928	1.17
534.123	1.22
534.318	1.22
534.513	1.17
534.709	1.23
534.904	1.22
535.099	1.23
535.294	1.23
535.489	1.2
535.684	1.24
535.879	1.17
536.074	1.25
536.269	1.2
536.464	1.23
536.659	1.23
536.854	1.21
537.049	1.25
537.244	1.23
537.439	1.21
537.634	1.27
537.828	1.24
538.023	1.25
538.218	1.21
538.413	1.19
538.608	1.25
538.803	1.27
538.997	1.19
539.192	1.24
539.387	1.23
539.582	1.25
539.776	1.2
539.971	1.25
540.166	1.22
540.36	1.21
540.555	1.25
540.75	1.23
540.944	1.24
541.139	1.22
541.334	1.22
541.528	1.25
541.723	1.28
541.917	1.24
542.112	1.19
542.306	1.19
542.501	1.24
542.695	1.25
542.89	1.22
543.084	1.26
543.279	1.22
543.473	1.26
543.668	1.23
543.862	1.23
544.056	1.26
544.251	1.23
544.445	1.27
544.64	1.28
544.834	1.2
545.028	1.2
545.222	1.27
545.417	1.29
545.611	1.26
545.805	1.24
546	1.25
546.194	1.26
546.388	1.25
546.582	1.26
546.776	1.25
546.97	1.27
547.165	1.25
547.359	1.26
547.553	1.21
547.747	1.25
547.941	1.29
548.135	1.24
548.329	1.28
548.523	1.24
548.717	1.26
548.911	1.22
549.105	1.23
549.299	1.3
549.493	1.27
549.687	1.26
549.881	1.26
550.075	1.28
550.269	1.19
550.463	1.29
550.657	1.24
550.85	1.27
551.044	1.22
551.238	1.27
551.432	1.23
551.626	1.27
551.82	1.24
552.013	1.21
552.207	1.25
552.401	1.28
552.594	1.24
552.788	1.28
552.982	1.26
553.176	1.23
553.369	1.29
553.563	1.27
553.756	1.26
553.95	1.24
554.144	1.25
554.337	1.27
554.531	1.24
554.724	1.25
554.918	1.25
555.111	1.29
555.305	1.28
555.498	1.29
555.692	1.29
555.885	1.24
556.079	1.26
556.272	1.25
556.466	1.28
556.659	1.24
556.852	1.26
557.046	1.24
557.239	1.24
557.432	1.23
557.626	1.26
557.819	1.3
558.012	1.29
558.206	1.29
558.399	1.25
558.592	1.28
558.785	1.23
558.979	1.27
559.172	1.23
559.365	1.29
559.558	1.24
559.751	1.25
559.944	1.29
560.138	1.24
560.331	1.27
560.524	1.24
560.717	1.23
560.91	1.28
561.103	1.25
561.296	1.22
561.489	1.27
561.682	1.27
561.875	1.29
562.068	1.27
562.261	1.24
562.454	1.32
562.647	1.23
562.84	1.3
563.032	1.25
563.225	1.29
563.418	1.26
563.611	1.25
563.804	1.29
563.997	1.19
564.19	1.15
564.382	1.26
564.575	1.24
564.768	1.26
564.961	1.26
565.153	1.23
565.346	1.22
565.539	1.25
565.731	1.27
565.924	1.27
566.117	1.3
566.309	1.26
566.502	1.26
566.695	1.22
566.887	1.26
567.08	1.21
567.272	1.27
567.465	1.23
567.657	1.25
567.85	1.23
568.042	1.27
568.235	1.3
568.427	1.21
568.62	1.24
568.812	1.24
569.005	1.27
569.197	1.2
569.389	1.24
569.582	1.24
569.774	1.21
569.966	1.21
570.159	1.2
570.351	1.24
570.543	1.24
570.736	1.25
570.928	1.19
571.12	1.24
571.312	1.22
571.505	1.15
571.697	1.28
571.889	1.24
572.081	1.26
572.273	1.21
572.465	1.27
572.658	1.24
572.85	1.28
573.042	1.24
573.234	1.23
573.426	1.25
573.618	1.2
573.81	1.24
574.002	1.25
574.194	1.26
574.386	1.18
574.578	1.14
574.77	1.2
574.962	1.22
575.154	1.15
575.346	1.21
575.538	1.2
575.729	1.18
575.921	1.24
576.113	1.24
576.305	1.23
576.497	1.23
576.689	1.21
576.88	1.2
577.072	1.27
577.264	1.23
577.456	1.23
577.647	1.14
577.839	1.25
578.031	1.26
578.223	1.17
578.414	1.17
578.606	1.25
578.798	1.21
578.989	1.19
579.181	1.22
579.372	1.25
579.564	1.19
579.755	1.24
579.947	1.19
580.139	1.24
580.33	1.12
580.522	1.2
580.713	1.1
580.905	1.21
581.096	1.23
581.287	1.24
581.479	1.18
581.67	1.23
581.862	1.23
582.053	1.18
582.244	1.11
582.436	1.22
582.627	1.19
582.818	1.19
583.01	1.15
583.201	1.2
583.392	1.18
583.583	1.18
583.775	1.12
583.966	1.14
584.157	1.19
584.348	1.18
584.54	1.12
584.731	1.16
584.922	1.15
585.113	1.13
585.304	1.16
585.495	1.19
585.686	1.17
585.877	1.2
586.068	1.17
586.259	1.16
586.45	1.16
586.641	1.17
586.832	1.12
587.023	1.17
587.214	1.13
587.405	1.18
587.596	1.1
587.787	1.23
587.978	1.17
588.169	1.1
588.36	1.09
588.551	1.15
588.742	1.15
588.932	1.19
589.123	1.13
589.314	1.18
589.505	1.14
589.696	1.16
589.886	1.13
590.077	1.1
590.268	1.11
590.458	1.08
590.649	1.07
590.84	1.18
591.03	1.09
591.221	1.1
591.412	1.12
591.602	1.16
591.793	1.12
591.984	1.12
592.174	1.13
592.365	1.2
592.555	1.08
592.746	1.1
592.936	1.13
593.127	1.13
593.317	1.13
593.508	1.12
593.698	1.1
593.889	1.13
594.079	1.1
594.269	1.09
594.46	1.07
594.65	1.06
594.84	1.08
595.031	1.05
595.221	1.1
595.411	1.01
595.602	1.09
595.792	1.06
595.982	1.04
596.172	1.14
596.363	1.07
596.553	1.05
596.743	1.09
596.933	1.07
597.123	1.07
597.314	1.01
597.504	1.01
597.694	1.09
597.884	1.03
598.074	1.03
598.264	1.03
598.454	1.05
598.644	1.03
598.834	1.02
599.024	0.95
599.214	1.03
599.404	1.08
599.594	1.03
599.784	0.98
599.974	1.11
600.164	1
600.354	0.96
600.544	0.97
600.734	1.02
600.924	1.02
601.114	0.99
601.303	0.97
601.493	0.99
601.683	0.98
601.873	0.99
602.063	0.93
602.252	1.02
602.442	0.96
602.632	0.95
602.821	0.96
603.011	0.99
603.201	0.97
603.39	0.96
603.58	0.94
603.77	1
603.959	0.99
604.149	0.97
604.339	0.96
604.528	1
604.718	1.02
604.907	0.96
605.097	0.94
605.286	0.94
605.476	0.98
605.665	0.98
605.855	0.93
606.044	1
606.234	0.94
606.423	0.95
606.612	0.93
606.802	0.93
606.991	0.95
607.181	0.94
607.37	0.9
607.559	0.9
607.749	0.9
607.938	0.91
608.127	0.94
608.316	0.91
608.506	0.94
608.695	0.91
608.884	0.9
609.073	0.89
609.263	0.93
609.452	0.94
609.641	0.9
609.83	0.87
610.019	0.88
610.208	0.84
610.397	0.88
610.586	0.92
610.775	0.89
610.965	0.86
611.154	0.83
611.343	0.85
611.532	0.86
611.721	0.83
611.91	0.83
612.099	0.87
612.287	0.8
612.476	0.8
612.665	0.86
612.854	0.84
613.043	0.92
613.232	0.86
613.421	0.81
613.61	0.86
613.798	0.83
613.987	0.87
614.176	0.85
614.365	0.87
614.554	0.83
614.742	0.86
614.931	0.75
615.12	0.82
615.309	0.8
615.497	0.81
615.686	0.77
615.875	0.82
616.063	0.8
616.252	0.82
616.44	0.8
616.629	0.79
616.818	0.84
617.006	0.8
617.195	0.76
617.383	0.77
617.572	0.77
617.76	0.77
617.949	0.79
618.137	0.78
618.326	0.82
618.514	0.74
618.703	0.72
618.891	0.8
619.079	0.7
619.268	0.81
619.456	0.68
619.644	0.78
619.833	0.75
620.021	0.72
620.209	0.7
620.398	0.76
620.586	0.72
620.774	0.75
620.962	0.71
621.151	0.79
621.339	0.72
621.527	0.68
621.715	0.66
621.903	0.69
622.092	0.66
622.28	0.75
622.468	0.69
622.656	0.72
622.844	0.73
623.032	0.73
623.22	0.67
623.408	0.75
623.596	0.74
623.784	0.72
623.972	0.63
624.16	0.66
624.348	0.68
624.536	0.69
624.724	0.64
624.912	0.73
625.1	0.69
625.288	0.69
625.476	0.64
625.664	0.71
625.851	0.62
626.039	0.67
626.227	0.67
626.415	0.67
626.603	0.61
626.79	0.66
626.978	0.62
627.166	0.68
627.354	0.65
627.541	0.6
627.729	0.54
627.917	0.71
628.104	0.67
628.292	0.62
628.48	0.66
628.667	0.61
628.855	0.63
629.042	0.64
629.23	0.57
629.418	0.64
629.605	0.6
629.793	0.61
629.98	0.56
630.168	0.61
630.355	0.57
630.543	0.63
630.73	0.57
630.917	0.61
631.105	0.67
631.292	0.6
631.48	0.58
631.667	0.68
631.854	0.58
632.042	0.6
632.229	0.56
632.416	0.59
632.604	0.61
632.791	0.52
632.978	0.64
633.165	0.59
633.353	0.59
633.54	0.6
633.727	0.49
633.914	0.56
634.101	0.58
634.289	0.61
634.476	0.5
634.663	0.56
634.85	0.56
635.037	0.53
635.224	0.48
635.411	0.56
635.598	0.56
635.785	0.51
635.972	0.54
636.159	0.54
636.346	0.49
636.533	0.51
636.72	0.52
636.907	0.5
637.094	0.52
637.281	0.5
637.468	0.52
637.655	0.5
637.842	0.52
638.029	0.47
638.215	0.51
638.402	0.5
638.589	0.45
638.776	0.51
638.963	0.45
639.149	0.56
639.336	0.57
639.523	0.52
639.709	0.51
639.896	0.49
640.083	0.54
640.27	0.52
640.456	0.45
640.643	0.52
640.829	0.44
641.016	0.45
641.203	0.45
641.389	0.5
641.576	0.47
641.762	0.48
641.949	0.41
642.135	0.48
642.322	0.45
642.508	0.41
642.695	0.46
642.881	0.44
643.068	0.41
643.254	0.45
643.441	0.51
643.627	0.45
643.813	0.4
644	0.46
644.186	0.42
644.372	0.38
644.559	0.48
644.745	0.46
644.931	0.41
645.118	0.39
645.304	0.43
645.49	0.37
645.676	0.37
645.862	0.38
646.049	0.46
646.235	0.45
646.421	0.54
646.607	0.47
646.793	0.39
646.979	0.35
647.165	0.41
647.352	0.42
647.538	0.43
647.724	0.41
647.91	0.41
648.096	0.41
648.282	0.44
648.468	0.37
648.654	0.42
648.84	0.43
649.026	0.37
649.212	0.38
649.397	0.37
649.583	0.35
649.769	0.4
649.955	0.38
650.141	0.38
650.327	0.44
650.513	0.34
650.698	0.39
650.884	0.3
651.07	0.4
651.256	0.36
651.442	0.37
651.627	0.34
651.813	0.37
651.999	0.34
652.184	0.39
652.37	0.33
652.556	0.33
652.741	0.39
652.927	0.29
653.113	0.33
653.298	0.34
653.484	0.33
653.669	0.29
653.855	0.32
654.04	0.36
654.226	0.32
654.412	0.28
654.597	0.29
654.782	0.34
654.968	0.34
655.153	0.34
655.339	0.29
655.524	0.28
655.71	0.31
655.895	0.32
656.08	0.29
656.266	0.34
656.451	0.34
656.636	0.28
656.822	0.3
657.007	0.27
657.192	0.29
657.378	0.24
657.563	0.3
657.748	0.34
657.933	0.3
658.118	0.29
658.304	0.29
658.489	0.31
658.674	0.3
658.859	0.26
659.044	0.3
659.229	0.32
659.414	0.26
659.599	0.23
659.785	0.24
659.97	0.28
660.155	0.28
660.34	0.32
660.525	0.27
660.71	0.27
660.895	0.3
661.08	0.27
661.264	0.25
661.449	0.33
661.634	0.27
661.819	0.27
662.004	0.31
662.189	0.19
662.374	0.24
662.559	0.2
662.743	0.21
662.928	0.27
663.113	0.26
663.298	0.17
663.483	0.22
663.667	0.31
663.852	0.23
664.037	0.29
664.221	0.25
664.406	0.26
664.591	0.28
664.775	0.28
664.96	0.25
665.145	0.24
665.329	0.26
665.514	0.23
665.698	0.23
665.883	0.2
666.068	0.29
666.252	0.25
666.437	0.2
666.621	0.24
666.806	0.23
666.99	0.21
667.174	0.21
667.359	0.32
667.543	0.28
667.728	0.21
667.912	0.17
668.096	0.23
668.281	0.22
668.465	0.22
668.649	0.24
668.834	0.18
669.018	0.18
669.202	0.24
669.387	0.21
669.571	0.28
669.755	0.19
669.939	0.2
670.124	0.23
670.308	0.26
670.492	0.25
670.676	0.24
670.86	0.2
671.044	0.18
671.228	0.22
671.413	0.18
671.597	0.2
671.781	0.17
671.965	0.22
672.149	0.2
672.333	0.18
672.517	0.16
672.701	0.23
672.885	0.19
673.069	0.14
673.253	0.23
673.437	0.15
673.621	0.14
673.804	0.23
673.988	0.18
674.172	0.21
674.356	0.22
674.54	0.14
674.724	0.24
674.908	0.18
675.091	0.23
675.275	0.18
675.459	0.24
675.643	0.15
675.826	0.18
676.01	0.19
676.194	0.18
676.377	0.27
676.561	0.21
676.745	0.21
676.928	0.19
677.112	0.2
677.296	0.13
677.479	0.18
677.663	0.16
677.846	0.16
678.03	0.16
678.213	0.13
678.397	0.15
678.58	0.15
678.764	0.18
678.947	0.14
679.131	0.12
679.314	0.23
679.498	0.19
679.681	0.15
679.865	0.22
680.048	0.15
680.231	0.16
680.415	0.16
680.598	0.22
680.781	0.16
680.965	0.15
681.148	0.2
681.331	0.15
681.514	0.22
681.698	0.19
681.881	0.13
682.064	0.12
682.247	0.17
682.43	0.05
682.614	0.16
682.797	0.21
682.98	0.16
683.163	0.09
683.346	0.15
683.529	0.12
683.712	0.1
683.895	0.17
684.078	0.12
684.261	0.15
684.444	0.17
684.627	0.15
684.81	0.1
684.993	0.12
685.176	0.12
685.359	0.13
685.542	0.14
685.725	0.19
685.908	0.12
686.091	0.14
686.274	0.2
686.457	0.21
686.639	0.2
686.822	0.16
687.005	0.18
687.188	0.16
687.371	0.21
687.553	0.13
687.736	0.18
687.919	0.21
688.102	0.14
688.284	0.07
688.467	0.14
688.65	0.14
688.832	0.14
689.015	0.1
689.197	0.08
689.38	0.19
689.563	0.23
689.745	0.12
689.928	0.12
690.11	0.08
690.293	0.17
690.475	0.02
690.658	0.14
690.84	0.16
691.023	0.08
691.205	0.11
691.388	0.12
691.57	0.16
691.752	0.17
691.935	-0.01
692.117	0.11
692.3	0.1
692.482	0.12
692.664	0.11
692.847	0.12
693.029	0.19
693.211	0.24
693.393	0.07
693.576	0.07
693.758	0.08
693.94	0.09
694.122	0.08
694.304	0.09
694.487	0.09
694.669	0.21
694.851	0.07
695.033	0.09
695.215	0.11
695.397	0.05
695.579	0.12
695.761	0.04
695.943	0.01
696.125	0.14
696.308	0.12
696.49	0.07
696.671	0.28
696.853	0.05
697.035	0.25
697.217	0.1
697.399	0.14
697.581	0.03
697.763	0.12
697.945	0
698.127	0.11
698.309	0.18
698.491	0.12
698.672	0.14
698.854	0.16
699.036	0.19
699.218	0.1
699.399	0.09
699.581	0.09
699.763	0.13
699.945	0.09
700.126	0.05
700.308	0.09
700.49	0.05
700.671	-0.01
700.853	0.08
701.035	0.11
701.216	0.08
701.398	0.09
701.579	0.06
701.761	0.16
701.943	0.08
702.124	0.02
702.306	0.08
702.487	0.19
702.669	0.07
702.85	0.05
703.031	0.08
703.213	0.1
703.394	0.18
703.576	0.08
703.757	0.18
703.938	0.15
704.12	0.24
704.301	0.08
704.483	0.02
704.664	0.09
704.845	0.19
705.026	0.1
705.208	0.05
705.389	0.07
705.57	0.07
705.751	0.03
705.933	0.13
706.114	0.11
706.295	0.07
706.476	0.01
706.657	0.15
706.838	0.07
707.02	0.15
707.201	-0
707.382	0.02
707.563	0.11
707.744	0.06
707.925	0.05
708.106	-0.01
708.287	0.15
708.468	0.19
708.649	0.06
708.83	0.18
709.011	0.02
709.192	0.18
709.373	-0.06
709.554	0.09
709.734	0.11
709.915	0.14
710.096	0.01
710.277	-0.04
710.458	0.04
710.639	0.14
710.819	-0
711	0.06
711.181	0.14
711.362	0.11
711.542	0.07
711.723	0.07
711.904	0.06
712.085	0.09
712.265	0.09
712.446	0.08
712.627	-0.02
712.807	0.06
712.988	0.12
713.168	-0.01
713.349	0.12
713.53	-0.07
713.71	-0.03
713.891	-0
714.071	0.11
714.252	0.06
714.432	0
714.613	-0.07
714.793	0.02
714.974	0.16
715.154	0.17
715.334	0.04
715.515	0.17
715.695	-0.06
715.876	0.11
716.056	0.09
716.236	0.06
716.417	0.02
716.597	-0.01
716.777	0.15
716.957	0.06
717.138	0.05
717.318	0.07
717.498	-0
717.678	0.1
717.859	0.08
718.039	-0.01
718.219	0.09
718.399	0.12
718.579	-0.02
718.759	-0.03
718.939	0.09
719.12	0.08
719.3	0.03
719.48	-0.03
719.66	-0.08
719.84	0.1
720.02	0.02
720.2	-0.07
720.38	0.06
720.56	0.15
720.74	-0.02
720.92	0.12
721.1	0.12
721.279	0.13
721.459	0.05
721.639	-0.06
721.819	0.06
721.999	0
722.179	0.06
722.359	-0
722.538	0.06
722.718	0.06
722.898	0.02
723.078	0.01
723.257	-0.06
723.437	0.08
723.617	0.02
723.797	0.06
723.976	0.03
724.156	0.05
724.336	0.13
724.515	0.17
724.695	-0.06
724.874	-0.03
725.054	0.14
725.234	-0.04
725.413	0.04
725.593	0.08
725.772	-0.02
725.952	0.04
726.131	-0.01
726.311	0.04
726.49	0.07
726.67	-0.01
726.849	-0.03
727.028	0.04
727.208	-0.04
727.387	0.11
727.567	-0.04
727.746	-0.03
727.925	0.03
728.105	-0.03
728.284	-0
728.463	-0.04
728.643	0.08
728.822	-0.04
729.001	-0.09
729.18	0.03
729.359	0.11
729.539	0
729.718	0.05
729.897	0.15
730.076	-0.08
730.255	-0.07
730.434	0.07
730.614	0.07
730.793	0.11
730.972	0.09
731.151	-0.01
731.33	0.11
731.509	0.12
731.688	-0.02
731.867	0.05
732.046	-0.13
732.225	0.22
732.404	-0.04
732.583	-0.15
732.762	0.02
732.941	0.05
733.12	0.04
733.298	0
733.477	0.14
733.656	-0.06
733.835	0
734.014	0.16
734.193	0.09
734.371	0
734.55	0.04
734.729	-0.08
734.908	0.17
735.086	0.09
735.265	0.2
735.444	-0.1
735.623	-0.13
735.801	0
735.98	0.03
736.159	0.01
736.337	0.14
736.516	0.12
736.694	0.05
736.873	0.04
737.052	0.2
737.23	0.21
737.409	-0.06
737.587	0.1
737.766	-0.12
737.944	0.09
738.123	0.04
738.301	-0.01
738.479	0.08
738.658	0.06
738.836	-0.18
739.015	0.02
739.193	0.07
739.371	-0.04
739.55	-0.08
739.728	-0.06
739.906	0.15
740.085	0.16
740.263	0.14
740.441	-0.12
740.62	0.22
740.798	0.17
740.976	-0.07
741.154	-0.02
741.332	0.2
741.511	-0.02
741.689	0.03
741.867	0.11
742.045	0.11
742.223	0.11
742.401	-0.11
742.579	0.01
742.757	0.08
742.935	-0.16
743.114	-0
743.292	-0.06
743.47	0.04
743.648	0.04
743.826	-0.12
744.004	0
744.181	0.07
744.359	-0.01
744.537	0.01
744.715	0.09
744.893	0.04
745.071	0.05
745.249	0.01
745.427	0.08
745.605	0.06
745.782	0.12
745.96	0.02
746.138	0.06
746.316	0.15
746.493	0.01
746.671	-0.01
746.849	0.02
747.027	0.23
747.204	-0.08
747.382	0.05
747.56	-0.12
747.737	-0.08
747.915	-0.1
748.093	0.03
748.27	-0.07
748.448	-0.06
748.625	-0.11
748.803	-0.06
748.98	-0.05
749.158	-0.03
749.335	0.01
749.513	-0.03
749.69	0.03
749.868	0.02
750.045	0.13
750.223	-0.09
750.4	-0.2
750.578	0.16
750.755	0.08
750.932	-0.13
751.11	0.17
751.287	-0.11
751.464	0.09
751.642	-0.13
751.819	0.04
751.996	0.07
752.173	-0.1
752.351	-0.06
752.528	0.07
752.705	-0.03
752.882	0.02
753.06	0.03
753.237	0.02
753.414	0.13
753.591	0.19
753.768	0.09
753.945	-0.04
754.122	-0.03
754.299	0.06
754.476	-0.13
754.654	0.07
754.831	0.07
755.008	0.14
755.185	-0.07
755.362	-0.19
755.539	0.03
755.716	-0.06
755.892	-0.07
756.069	-0.01
756.246	0.04
756.423	-0.13
756.6	0.05
756.777	-0.08
756.954	0.08
757.131	-0.03
757.307	-0.01
757.484	-0.04
757.661	-0.05
757.838	-0.02
758.015	-0.15
758.191	0.1
758.368	0.18
758.545	0.12
758.721	0.13
758.898	-0.07
759.075	0.11
759.251	0.04
759.428	0.03
759.605	0
759.781	-0.07
759.958	0.22
760.134	0.02
760.311	-0.11
760.488	0.09
760.664	0.19
760.841	0.01
761.017	-0.02
761.194	0.21
761.37	0.05
761.547	0
761.723	0.04
761.899	0.15
762.076	-0.09
762.252	-0.08
762.429	-0.04
762.605	0.19
762.781	-0.13
762.958	0.08
763.134	0.08
763.31	-0.12
763.486	0.06
763.663	-0.25
763.839	0
764.015	-0.17
764.191	-0.08
764.368	0.03
764.544	-0.1
764.72	0.1
764.896	0.1
765.072	0.06
765.248	-0.04
765.425	-0.09
765.601	0.09
765.777	0.05
765.953	-0.27
766.129	-0.07
766.305	-0.08
766.481	0.04
766.657	-0
766.833	0.12
767.009	-0.07
767.185	0.02
767.361	-0.02
767.537	0.02
767.713	0.18
767.889	-0.07
768.065	-0.03
768.24	-0.19
768.416	0.06
768.592	-0.05
768.768	0.01
768.944	0.01
769.12	-0.19
769.295	-0.1
769.471	0.12
769.647	-0.05
769.823	0.25
769.998	-0.03
770.174	-0.1
770.35	0.33
770.525	0.26
770.701	0.07
770.877	-0.05
771.052	-0.13
771.228	0.06
771.403	0.07
771.579	0.13
771.755	0.27
771.93	-0.15
772.106	-0.06
772.281	-0.32
772.457	0.01
772.632	0.01
772.808	-0.24
772.983	-0.08
773.159	-0.24
773.334	0.14
773.509	-0.02
773.685	-0.16
773.86	0.25
774.036	0.26
774.211	0.05
774.386	0.05
774.562	0.01
774.737	0
774.912	-0.03
775.087	0.05
775.263	0.1
775.438	-0.08
775.613	-0.23
775.788	-0.04
775.964	0.04
776.139	0.31
776.314	-0.14
776.489	0.1
776.664	-0.07
776.839	-0.16
777.014	0.21
777.19	0.08
777.365	0.27
777.54	0.21
777.715	-0.05
777.89	-0.03
778.065	-0.12
778.24	-0.03
778.415	0.19
778.59	-0.08
778.765	-0.13
778.94	-0
779.115	-0.04
779.289	-0.08
779.464	-0
779.639	0.15
779.814	-0.23
779.989	-0.19
780.164	0.14
780.339	0.12
780.513	-0.25
780.688	-0.12
780.863	-0.08
781.038	0.17
781.212	-0.15
781.387	0.01
781.562	0.19
781.737	-0.18
781.911	0.17
782.086	-0.11
782.261	-0.06
782.435	0.28
782.61	-0.07
782.784	-0.03
782.959	0.3
783.134	-0.17
783.308	-0.18
783.483	-0.14
783.657	0.38
783.832	0.21
784.006	-0.32
784.181	-0.04
784.355	0.2
784.53	-0.16
784.704	0.01
784.878	0.25
785.053	-0.12
785.227	0.21
785.402	0.22
785.576	-0.24
785.75	-0.01
785.925	-0.1
786.099	0.01
786.273	-0.1
786.448	0.16
786.622	0.21
786.796	0.05
786.97	-0.21
787.145	0.37
787.319	-0.51
787.493	-0.24
787.667	-0.43
787.841	-0.19
788.015	0.14
788.19	-0.05
788.364	-0.03
788.538	0.13
788.712	0.19
788.886	-0.07
789.06	0.02
789.234	-0.01
789.408	-0.11
789.582	-0.14
789.756	-0.04
789.93	-0.05
790.104	-0.15
790.278	-0.05
790.452	-0.28
790.626	-0.12
790.8	-0.02
790.973	0.26
791.147	0.25
791.321	0.3
791.495	0.25
791.669	0.18
791.843	0.15
792.016	0.08
792.19	0.44
792.364	-0.22
792.538	0.64
792.711	0.09
792.885	-0.03
793.059	-0.46
793.233	-0.53
793.406	0.21
793.58	0.11
793.754	0.15
793.927	-0.02
794.101	0.26
794.274	-0.12
794.448	0.13
794.622	-0.38
794.795	0.15
794.969	-0.28
795.142	0.31
795.316	-0.2
795.489	-0.22
795.663	0.32
795.836	0.16
796.009	-0.24
796.183	0.29
796.356	0.08
796.53	0.05
796.703	-0.08
796.876	0.61
797.05	-0.16
797.223	-0.06
797.396	0.02
797.57	-0.11
797.743	0.5
797.916	-0.07
798.09	-0.05
798.263	0.18
798.436	0.16
798.609	-0.23
798.782	-0.34
798.956	-0.03
799.129	0.04
799.302	-0.02
799.475	-0.22
799.648	-0.1
799.821	-0.13
799.994	-0.04
800.167	-0.18
800.34	-0.16
800.514	0.17
800.687	-0.16
800.86	-0.03
801.033	0.05
801.206	0.19
801.379	-0.01
801.551	0.26
801.724	0.07
801.897	0.15
802.07	-0.12
802.243	-0.48
802.416	0.12
802.589	-0.14
802.762	0.13
802.935	-0.07
803.107	0.09
803.28	0.27
803.453	0.19
803.626	-0.44
803.798	-0.13
803.971	-0.41
804.144	-0.07
804.317	0.19
804.489	0.22
804.662	-0.04
804.835	0.21
805.007	-0.37
805.18	0.25
805.353	-0.14
805.525	-0.25
805.698	-0.42
805.87	0.48
806.043	0.32
806.215	-0.1
806.388	-0.51
806.56	0.24
806.733	0.45
806.905	-0.22
807.078	-0.07
807.25	-0
807.423	0.28
807.595	0.13
807.768	0.19
807.94	0.06
808.112	0.19
808.285	-0.04
808.457	-0.56
808.629	-0.06
808.802	0.14
808.974	-0.23
809.146	-0.39
809.318	-0.39
809.491	0.2
809.663	0.21
809.835	-0.29
810.007	-0.03
810.18	-0.22
810.352	-0.09
810.524	-0.4
810.696	0.06
810.868	0.36
811.04	-0.06
811.212	0.15
811.384	0.03
811.556	-0.27
811.728	-0.24
811.901	0.65
812.073	-0.35
812.245	0.14
812.417	-0.34
812.589	-0.92
812.76	-0.34
812.932	0.43
813.104	0.29
813.276	-0
813.448	0.39
813.62	-0.25
813.792	0.14
813.964	-0.11
814.136	0.34
814.307	-0.37
814.479	-0.23
814.651	0.05
814.823	0.81
814.995	-0.24
815.166	0.24
815.338	-0.45
815.51	-0.24
815.681	0.58
815.853	-0.31
816.025	-0.05
816.196	0.44
816.368	0.44
816.54	-0.65
816.711	-0.41
816.883	-0.12
817.054	1.19
817.226	-0.66
817.398	-0.23
817.569	-0.27
817.741	0.08
817.912	-0.33
818.084	-0.28
818.255	0.17
818.426	-0.13
818.598	-0.58
818.769	-0.17
818.941	0.07
819.112	0.42
819.283	0.12
819.455	-0.21
819.626	-0
819.798	0.12
819.969	0.08
820.14	-0.15
820.311	-0.21
820.483	-0.33
820.654	0.11
820.825	0.04
820.996	-0.22
821.168	-0.77
821.339	0.21
821.51	-0.4
821.681	-0.33
821.852	-0.11
822.023	-0.19
822.195	-0.76
822.366	0.71
822.537	-0.26
822.708	-0.39
822.879	-0.15
823.05	0.44
823.221	-0.46
823.392	0.11
823.563	-0.01
823.734	0.29
823.905	-0.14
824.076	-0.21
824.247	-0.17
824.418	-0.21
824.589	0.42
824.759	0.24
824.93	0.03
825.101	-0.85
825.272	0.41
825.443	0.33
825.614	0.84
825.784	-0.9
825.955	0.98
826.126	0.53
826.297	-0
826.467	0.6
826.638	0.55
826.809	-0.59
826.98	-0
827.15	0.26
827.321	-0
827.492	0.29
827.662	-0
827.833	1.11
828.003	0.19
828.174	-0.76
828.345	-0.81
828.515	0.81
828.686	-0.19
828.856	0
829.027	-0.02
829.197	0.06
829.368	0.54
829.538	-0.13
829.709	-0.42
829.879	0.44
830.049	0.13
830.22	-0.82
830.39	-0.02
830.56	0.57
830.731	0.08
830.901	-0.34
831.072	-0.61
831.242	0.18
831.412	-0.1
831.582	-0.21
831.753	-0.69
831.923	0.66
832.093	-0.41
832.263	-0.29
832.434	-0.04
832.604	-0.08
832.774	0.21
832.944	-0.08
833.114	-0.21
833.284	0.21
833.454	-0.72
833.624	-0.11
833.795	-0.38
833.965	0.73
834.135	0.45
834.305	-0.69
834.475	-0.79
834.645	0.05
834.815	-0.52
834.985	-0.17
835.155	-0.13
835.325	0.5
835.494	-0.05
835.664	-0.53
835.834	-0.71
836.004	-0.17
836.174	-0.68
836.344	0.23
836.514	-0.98
836.684	-0.27
836.853	-0.17
837.023	-0.41
837.193	-0.54
837.363	-0.03
837.532	0.21
837.702	0.07
837.872	-0.37
838.041	0.22
838.211	1.68
838.381	-0.94
838.55	-0.07
838.72	1.34
838.89	1.01
839.059	-0.18
839.229	-0.26
839.398	0.45
839.568	0.35
839.738	-0.65
839.907	0.35
840.077	0.39
840.246	-0.35
840.416	0.06
840.585	-1.07
840.755	0.88
840.924	0.66
841.093	-0.82
841.263	-0.78
841.432	-0.16
841.602	-1.26
841.771	-0.47
841.94	-0.67
842.11	1.43
842.279	1.42
842.448	-0.31
842.617	-0.58
842.787	0.08
842.956	-0.46
843.125	-0.37
843.294	0.16
843.464	1.12
843.633	-0.05
843.802	-0.84
843.971	-0.2
844.14	0.4
844.309	0.98
844.479	-1.91
844.648	-0.79
844.817	-0.43
844.986	-0.2
845.155	-0.51
845.324	0.39
845.493	-0.37
845.662	-0.9
845.831	0.53
846	0.92
846.169	-0.52
846.338	0.99
846.507	0.2
846.676	0.86
846.844	0.24
847.013	0.7
847.182	-0.39
847.351	-0.97
847.52	0.23
847.689	0.03
847.858	-0.35
848.026	0.08
848.195	-0.05
848.364	-0.78
848.533	-1.41
848.701	-0.51
848.87	0.28
849.039	0.95
849.207	0.32
849.376	1.8
849.545	0.25
849.713	-0.87
849.882	-0.87
850.051	-0.38
850.219	0.04
850.388	0.73
850.556	0.18
850.725	-0.08
850.893	-0.12
851.062	-0.07
851.23	1.18
851.399	-1.75
851.567	-0.67
851.736	-0.61
851.904	-1.87
852.073	-0.03
852.241	0.62
852.41	0.6
852.578	0.1
852.746	-0.15
852.915	-0.25
853.083	-0.09
853.251	-0.99
853.42	-0.27
853.588	0.38
853.756	0.52
853.924	0.26
854.093	-0.78
854.261	-0.57
854.429	-1.36
854.597	-0.25
854.765	-0.85
854.934	0.25
855.102	0.81
855.27	-0.82
855.438	0.93
855.606	0.23
855.774	1.08
855.942	-1.27
856.11	-2.29
856.278	0.15
856.446	0.62
856.614	-0.58
856.782	-0.67
856.95	1.23
857.118	0.52
857.286	-0.52
857.454	-1.16
857.622	1.14
857.79	0.25
857.958	-1.13
858.126	-0.35
858.294	-2.01
858.462	-0
858.629	-0.01
858.797	-1.05
858.965	-1.21
859.133	0.05
859.301	-1.38
859.468	0.55
859.636	0.42
859.804	2.5
859.971	0.07
860.139	-0.86
860.307	0.68
860.474	0.32
860.642	0.08
860.81	-0.26
860.977	-0.51
861.145	1.4
861.313	0.31
861.48	-0.83
861.648	1.29
861.815	-0.88
861.983	-1.02
862.15	-0.74
862.318	0.72
862.485	1.04
862.653	-1.01
862.82	-0.67
862.988	1.53
863.155	0.23
863.322	-0.28
863.49	-0.76
863.657	-1.66
863.824	2.14
863.992	0.54
864.159	-0.33
864.326	1.49
864.494	-0.76
864.661	1.42
864.828	-1.7
864.996	1.76
865.163	0.83
865.33	-0.34
865.497	-1.82
865.664	-0.06
865.832	-2.01
865.999	-2.96
866.166	-1.21
866.333	-1.69
866.5	0.25
866.667	-0.2
866.834	0.27
867.001	1.52
867.168	-2.46
867.335	-0.34
867.502	-2.24
867.669	-0.02
867.836	0.47
868.003	-0.45
868.17	1.13
868.337	3.03
868.504	2.11
868.671	-1.62
868.838	-2.84
869.005	0.31
869.172	0.76
869.339	-0.33
869.505	-0.3
869.672	-1.44
869.839	1.16
870.006	0.25
870.173	-1.56
870.339	0.39
870.506	3.77
870.673	-2.92
870.84	-0.16
871.006	0.08
871.173	-1.48
871.34	0.35
871.506	0.14
871.673	0.44
871.839	-1.85
872.006	0.74
872.173	-1.32
872.339	-0.71
872.506	0.78
872.672	-1.66
872.839	-2.7
873.005	1.21
873.172	2.35
873.338	0.47
873.505	0.22
873.671	-1.77
873.838	0.68
874.004	-1.99
874.171	-1.04
874.337	-0.52
874.503	0.6
874.67	-0.66
874.836	-0.79
875.002	1.69
875.169	0.9
875.335	-0.39
875.501	-1.98
875.668	1.48
875.834	0.02
876	-0.71
876.166	-0.18
876.332	1.18
876.499	2.94
876.665	-0.47
876.831	-0.2
876.997	2.09
877.163	-0.74
877.329	-0.77
877.495	1.65
877.662	1.24
877.828	0.44
877.994	-1.11
878.16	-3.59
878.326	-1.2
878.492	-1.33
878.658	-1.21
878.824	0.85
878.99	0.52
879.156	-1.03
879.322	1.83
879.487	-0.77
879.653	-0.43
879.819	0.33
879.985	-2.81
880.151	0.58
880.317	2.77
880.483	-0.39
880.648	2.22
880.814	-3.14
880.98	0.88
881.146	-2.22
881.312	0.22
881.477	-0.79
881.643	0.37
881.809	0.79
881.974	1.22
882.14	-1.05
882.306	2.43
882.471	1.19
882.637	-1.77
882.803	0.52
882.968	3.44
883.134	2.6
883.299	-1.46
883.465	0.22
883.63	0.71
883.796	0.78
883.961	1.28
884.127	-1.04
884.292	-3.82
884.458	-1.85
884.623	-1.85
