Data from Apollo_Calib_20240827__AbsoluteIrradiance__419__06-08-02-208.txt Node

Date: Wed Aug 28 06:08:02 BST 2024
User: biology
Spectrometer: FLMT08252
Trigger mode: 0
Integration Time (sec): 5.000000E-1
Scans to average: 5
Electric dark correction enabled: true
Nonlinearity correction enabled: false
Boxcar width: 0
XAxis mode: Wavelengths
Number of Pixels in Spectrum: 3648
>>>>>Begin Spectral Data<<<<<
179.588	-0
179.809	-0
180.03	-0
180.251	-0
180.473	-0
180.694	0
180.915	0
181.136	-0
181.357	0
181.578	-0
181.799	-0
182.02	-0
182.241	0
182.462	-0
182.683	0
182.904	-0
183.125	0
183.346	0
183.567	0
183.788	0
184.009	-0
184.23	0
184.451	0
184.672	-0
184.892	-0
185.113	0
185.334	0
185.555	0
185.776	0
185.996	0
186.217	0
186.438	0
186.659	0
186.879	0
187.1	0
187.321	0
187.541	0
187.762	0
187.983	0
188.203	0
188.424	0
188.644	0
188.865	0
189.086	-0
189.306	0
189.527	0
189.747	0
189.968	-0
190.188	0
190.409	0
190.629	0
190.849	-0
191.07	0
191.29	0
191.511	0
191.731	-0
191.951	0
192.172	0
192.392	0
192.612	0
192.833	0
193.053	0
193.273	0
193.493	0
193.714	0
193.934	0
194.154	0
194.374	0
194.594	0
194.815	0
195.035	0
195.255	0
195.475	0
195.695	0
195.915	0
196.135	0
196.355	0
196.575	0
196.795	0
197.015	-0
197.235	0
197.455	0
197.675	0
197.895	-0
198.115	-0
198.335	0
198.555	0
198.775	0
198.995	0
199.214	0
199.434	0
199.654	0
199.874	0
200.094	1.29
200.313	0.6
200.533	0.17
200.753	0.21
200.973	1.32
201.192	1.38
201.412	-0.51
201.632	0.51
201.851	1.19
202.071	0.29
202.291	0.13
202.51	0.2
202.73	1.4
202.95	0.56
203.169	-0.32
203.389	0.63
203.608	0.61
203.828	0.55
204.047	0.37
204.267	0.89
204.486	0.91
204.706	0.48
204.925	0.51
205.145	0.46
205.364	0.94
205.583	1.3
205.803	0.39
206.022	0.24
206.242	0.65
206.461	0.23
206.68	0.35
206.9	0.7
207.119	1.11
207.338	1.08
207.557	-0.01
207.777	0.02
207.996	0.17
208.215	0.75
208.434	0.02
208.654	0.02
208.873	0.35
209.092	0.76
209.311	0.52
209.53	0.32
209.749	0.17
209.968	0.28
210.187	0.26
210.407	-0.11
210.626	0.33
210.845	0.5
211.064	0.12
211.283	0
211.502	0.78
211.721	0.37
211.94	0.26
212.159	0.46
212.377	0.48
212.596	0.36
212.815	0.38
213.034	0.39
213.253	0.47
213.472	0.49
213.691	0.04
213.91	0.22
214.128	0.16
214.347	0.6
214.566	-0.16
214.785	0.11
215.003	0.39
215.222	0.35
215.441	0.31
215.66	0.03
215.878	0.23
216.097	0.64
216.316	-0.16
216.534	0.23
216.753	0.33
216.972	0.18
217.19	0.31
217.409	0.16
217.627	0.12
217.846	0.16
218.064	0.18
218.283	0.04
218.501	0.61
218.72	0.45
218.938	0.13
219.157	0.29
219.375	0.43
219.594	0.29
219.812	0.07
220.031	-0.11
220.249	0.5
220.467	0.49
220.686	0.2
220.904	0.05
221.122	0.09
221.341	0.47
221.559	0.3
221.777	0
221.995	0.31
222.214	0.38
222.432	0.03
222.65	0.36
222.868	0.31
223.086	0.22
223.305	0.26
223.523	0.18
223.741	0.42
223.959	0.22
224.177	-0.03
224.395	0.07
224.613	0.15
224.831	0.31
225.049	0.07
225.267	0.01
225.485	0.17
225.703	0.09
225.921	0.16
226.139	0.01
226.357	0.28
226.575	0.16
226.793	0.06
227.011	0.81
227.229	0.23
227.447	0.38
227.665	0.07
227.883	0.07
228.1	0.23
228.318	0.16
228.536	-0.07
228.754	-0.01
228.972	0.29
229.189	0.26
229.407	0.11
229.625	0.02
229.843	0.34
230.06	0.09
230.278	0.06
230.496	0.15
230.713	0.18
230.931	0.29
231.149	0.12
231.366	-0.09
231.584	0.15
231.801	0.46
232.019	0.03
232.236	0.01
232.454	0.06
232.671	0.12
232.889	0.19
233.106	0.09
233.324	0.15
233.541	0.21
233.759	0.17
233.976	0.02
234.194	0.11
234.411	0.06
234.628	0.06
234.846	0.08
235.063	0.14
235.28	0.22
235.498	0.11
235.715	0.08
235.932	0.27
236.149	0.07
236.367	0.05
236.584	0.19
236.801	0.13
237.018	0.2
237.236	0.08
237.453	0.07
237.67	0.29
237.887	0.12
238.104	0.13
238.321	0.08
238.538	0.04
238.755	0.23
238.973	-0.04
239.19	0.19
239.407	0.26
239.624	0.13
239.841	0.05
240.058	-0.07
240.275	0.24
240.492	0.15
240.709	0.2
240.925	0.04
241.142	0.06
241.359	0.08
241.576	0.11
241.793	0.03
242.01	0.13
242.227	0.28
242.444	0.23
242.66	0.21
242.877	0.2
243.094	0.1
243.311	0.1
243.527	0.12
243.744	0.11
243.961	0.22
244.178	0.07
244.394	0.08
244.611	0.23
244.828	0.3
245.044	0.07
245.261	0.11
245.477	0.12
245.694	0.07
245.911	0.04
246.127	0.15
246.344	0.25
246.56	0.21
246.777	0.04
246.993	0.13
247.21	0.19
247.426	0.21
247.643	-0.04
247.859	0.04
248.076	0.05
248.292	0.24
248.508	0.12
248.725	0.09
248.941	0.14
249.157	0.24
249.374	0.09
249.59	0.13
249.806	0.12
250.023	0.21
250.239	0.08
250.455	0.04
250.671	0.06
250.888	0.17
251.104	0.22
251.32	0.04
251.536	0.08
251.752	0.11
251.969	0.12
252.185	0.12
252.401	0.27
252.617	0.12
252.833	0.08
253.049	0.1
253.265	0.18
253.481	0.2
253.697	-0.02
253.913	0.05
254.129	0.15
254.345	0.11
254.561	0.12
254.777	0.02
254.993	0.19
255.209	0.13
255.425	0.13
255.641	0.11
255.857	0.2
256.073	0.14
256.288	-0.03
256.504	0.04
256.72	0.07
256.936	0.23
257.152	0.16
257.367	0.11
257.583	0.14
257.799	0.17
258.015	0.05
258.23	0.1
258.446	0.28
258.662	0.11
258.877	0.09
259.093	0.01
259.309	0.15
259.524	0.16
259.74	0.1
259.955	-0.02
260.171	0.11
260.387	0.1
260.602	0.22
260.818	0.13
261.033	0.03
261.249	0.07
261.464	0.04
261.68	-0.01
261.895	0.17
262.11	0.16
262.326	0.05
262.541	-0.02
262.757	0.17
262.972	0.1
263.187	0.15
263.403	0.12
263.618	0.17
263.833	0.05
264.049	-0
264.264	0.11
264.479	0.2
264.694	0.19
264.91	-0.02
265.125	0.07
265.34	0.17
265.555	0.2
265.77	0.13
265.986	0.08
266.201	0.11
266.416	0.19
266.631	0.07
266.846	0.08
267.061	0.07
267.276	0.13
267.491	-0.02
267.706	0.14
267.921	0.13
268.136	0.07
268.351	0.14
268.566	0.04
268.781	0.16
268.996	0.12
269.211	0.1
269.426	0.09
269.641	0.07
269.856	0.16
270.071	0.01
270.285	0.08
270.5	0.19
270.715	0.2
270.93	0.1
271.145	0.09
271.359	0.16
271.574	0.05
271.789	0.1
272.004	0.09
272.218	0.06
272.433	0.16
272.648	0.06
272.862	0.17
273.077	0.05
273.292	0.1
273.506	0.03
273.721	0.06
273.936	0.15
274.15	0.24
274.365	0.06
274.579	0.13
274.794	0.16
275.008	0.15
275.223	-0.02
275.437	0.03
275.652	0.14
275.866	0.1
276.081	0.07
276.295	0.11
276.509	0.05
276.724	0.1
276.938	0.1
277.153	0.08
277.367	0.13
277.581	0.06
277.796	0.06
278.01	0.06
278.224	0.13
278.438	0.26
278.653	0.03
278.867	0.03
279.081	0.16
279.295	0.07
279.51	0.07
279.724	0.02
279.938	0.1
280.152	0.09
280.366	0.03
280.58	0.06
280.794	0.19
281.008	0.14
281.222	0.15
281.437	0.12
281.651	0.02
281.865	0.19
282.079	0.01
282.293	-0.05
282.507	0.04
282.721	0.09
282.935	0.13
283.148	0.04
283.362	0.02
283.576	0.02
283.79	0.07
284.004	0
284.218	0.11
284.432	0.05
284.646	0.09
284.859	0.01
285.073	0.06
285.287	0.06
285.501	0.08
285.714	0.07
285.928	0.14
286.142	0.1
286.356	0.07
286.569	0.07
286.783	0.17
286.997	0.19
287.21	0.11
287.424	0.09
287.637	0.03
287.851	0
288.065	0.11
288.278	0.05
288.492	0.11
288.705	0.09
288.919	0.07
289.132	0.03
289.346	0.14
289.559	0.03
289.773	-0.01
289.986	0.07
290.2	0.06
290.413	0.1
290.626	0.05
290.84	0.05
291.053	0.08
291.267	0.12
291.48	0.09
291.693	0.09
291.906	0.06
292.12	0.11
292.333	0.02
292.546	0.05
292.76	0.18
292.973	0.1
293.186	0.13
293.399	0.06
293.612	0.11
293.826	0.07
294.039	0.04
294.252	0.08
294.465	0.12
294.678	0.14
294.891	0.07
295.104	0.01
295.317	0.14
295.53	0.08
295.743	0.1
295.956	0.04
296.169	0.12
296.382	0.12
296.595	0.06
296.808	0.04
297.021	0.19
297.234	0.14
297.447	0.08
297.66	0.11
297.873	0.11
298.086	0.08
298.299	0.06
298.511	0.03
298.724	0.06
298.937	0.04
299.15	0.05
299.363	0.08
299.575	0.11
299.788	0.14
300.001	0.03
300.213	-0
300.426	0.05
300.639	0.06
300.852	0.05
301.064	0.13
301.277	0.14
301.489	0.13
301.702	0.11
301.915	0.09
302.127	0.08
302.34	0.08
302.552	0.1
302.765	0.01
302.977	0.16
303.19	0.05
303.402	0.07
303.615	0.03
303.827	0.02
304.04	0.07
304.252	0.07
304.464	0.07
304.677	0.15
304.889	0.15
305.102	0.05
305.314	0.07
305.526	0.13
305.739	0.09
305.951	0.02
306.163	0.05
306.375	0.16
306.588	0.02
306.8	0.01
307.012	-0
307.224	0.13
307.436	0.12
307.649	-0.02
307.861	0.07
308.073	0.12
308.285	0.03
308.497	0.02
308.709	0.01
308.921	0.07
309.133	0.15
309.346	0.08
309.558	0.04
309.77	0.1
309.982	0.14
310.194	0.1
310.406	0.02
310.617	0.13
310.829	0.09
311.041	0.12
311.253	0.04
311.465	0.08
311.677	0.09
311.889	0.07
312.101	0.05
312.313	0.15
312.524	0.16
312.736	-0.02
312.948	0.06
313.16	0.14
313.372	0.12
313.583	0.09
313.795	0.07
314.007	0.04
314.218	0.11
314.43	0.06
314.642	0.01
314.853	0.02
315.065	0.12
315.277	0.05
315.488	0.11
315.7	0.13
315.912	0.08
316.123	0.04
316.335	0.06
316.546	0.15
316.758	0.08
316.969	0.02
317.181	0.06
317.392	0.07
317.604	0.11
317.815	0.02
318.026	0.09
318.238	0.07
318.449	0.14
318.661	-0.02
318.872	0
319.083	0
319.295	0.1
319.506	0.02
319.717	0.06
319.929	0.11
320.14	0.11
320.351	0.06
320.562	0.06
320.774	0.09
320.985	0.07
321.196	0.05
321.407	0
321.618	0.05
321.829	0.05
322.041	0.1
322.252	0.05
322.463	0.12
322.674	0.09
322.885	0.03
323.096	0.04
323.307	0.06
323.518	0.05
323.729	0.02
323.94	0.04
324.151	0.05
324.362	0.09
324.573	0.09
324.784	0.02
324.995	0.12
325.206	0.09
325.417	0.09
325.628	0.05
325.838	0.08
326.049	0.08
326.26	0.11
326.471	0.06
326.682	0.07
326.892	0.07
327.103	0.04
327.314	0.02
327.525	0.09
327.735	0.07
327.946	0.05
328.157	0.03
328.368	0.11
328.578	0.04
328.789	0.1
328.999	0.06
329.21	0.07
329.421	0.1
329.631	0.05
329.842	0.05
330.052	0.09
330.263	0.09
330.473	0.09
330.684	0.06
330.894	0.05
331.105	0.07
331.315	0.06
331.526	0.01
331.736	0.13
331.947	0.13
332.157	0.12
332.367	0.06
332.578	0.12
332.788	0.11
332.999	0.11
333.209	0.09
333.419	0.03
333.629	0.05
333.84	0.12
334.05	0.04
334.26	0.15
334.47	0.06
334.681	0.12
334.891	0.03
335.101	0.09
335.311	0.15
335.521	0.08
335.732	0.03
335.942	0.11
336.152	0.06
336.362	0.08
336.572	0.1
336.782	0.06
336.992	0.04
337.202	0.07
337.412	0.05
337.622	0.07
337.832	0.09
338.042	0.05
338.252	0.03
338.462	0.04
338.672	0.09
338.882	0.07
339.092	0.12
339.302	0.13
339.511	0.04
339.721	0.02
339.931	0.06
340.141	0.11
340.351	0.15
340.561	0.11
340.77	0.07
340.98	0.06
341.19	0.08
341.4	0.05
341.609	0.05
341.819	0.06
342.029	-0.02
342.238	0.07
342.448	-0
342.658	0.1
342.867	0.07
343.077	0.06
343.286	0.07
343.496	0.08
343.706	0.14
343.915	0.06
344.125	0.06
344.334	0.08
344.544	-0
344.753	0.07
344.963	0.05
345.172	0.02
345.381	0.04
345.591	0.04
345.8	0.06
346.01	0.12
346.219	0.12
346.428	-0.07
346.638	0.05
346.847	0.06
347.056	0.14
347.266	0.07
347.475	0.04
347.684	0.13
347.893	0.08
348.103	0.04
348.312	0.02
348.521	0.05
348.73	0.04
348.94	0.12
349.149	0.09
349.358	0.04
349.567	0.01
349.776	-0.01
349.985	0.05
350.194	0.11
350.403	0.12
350.612	-0.03
350.821	0.05
351.03	0.04
351.239	0.02
351.448	0.08
351.657	0.01
351.866	0.13
352.075	0.07
352.284	0.12
352.493	0.01
352.702	0.1
352.911	0.07
353.12	0.06
353.329	0.06
353.538	0.07
353.746	0.06
353.955	0.05
354.164	0.09
354.373	0.05
354.582	0.09
354.79	0.07
354.999	0.11
355.208	0.07
355.416	0.12
355.625	0.06
355.834	0.06
356.042	0.08
356.251	0.06
356.46	0.05
356.668	0.07
356.877	0.14
357.085	0.11
357.294	-0.04
357.503	0.09
357.711	0.07
357.92	0.18
358.128	0.09
358.337	0.04
358.545	0.09
358.754	0.07
358.962	0.11
359.17	0
359.379	0.07
359.587	0.1
359.796	0.05
360.004	0.1
360.212	0.08
360.421	0.14
360.629	0.04
360.837	0.06
361.046	0.11
361.254	0.2
361.462	0.09
361.67	0.06
361.879	0.07
362.087	0.15
362.295	0.07
362.503	0.04
362.711	0.01
362.92	0.07
363.128	0.05
363.336	0
363.544	-0.01
363.752	0.03
363.96	0.04
364.168	0.05
364.376	0.05
364.584	0.09
364.792	0.1
365	0.12
365.208	0.09
365.416	0.09
365.624	0.1
365.832	0.04
366.04	0.12
366.248	0.1
366.456	0.08
366.664	0.1
366.872	0.1
367.079	0.03
367.287	0.05
367.495	0.09
367.703	0.04
367.911	0.04
368.118	0.07
368.326	0.06
368.534	0.04
368.742	0.15
368.949	0.03
369.157	0.05
369.365	0.06
369.572	0.04
369.78	0.02
369.988	0.13
370.195	0.11
370.403	0.1
370.61	0.05
370.818	0.06
371.026	0.17
371.233	0.07
371.441	0.09
371.648	0.05
371.856	0.07
372.063	0.05
372.271	0.05
372.478	0.02
372.685	0.04
372.893	0.11
373.1	0.06
373.308	0.03
373.515	0.18
373.722	0.1
373.93	0.06
374.137	0.12
374.344	0.12
374.552	0.09
374.759	0.1
374.966	0.09
375.173	0.05
375.381	0.11
375.588	0.08
375.795	0.01
376.002	0.05
376.209	0.05
376.417	0.04
376.624	0.09
376.831	0.07
377.038	0.02
377.245	-0.03
377.452	0.09
377.659	0.09
377.866	0.05
378.073	0.07
378.28	0.07
378.487	0.12
378.694	0.11
378.901	0.04
379.108	0.05
379.315	0.1
379.522	0.17
379.729	0.08
379.936	0.06
380.143	0.08
380.35	0.06
380.557	0.02
380.763	0.09
380.97	0.05
381.177	0.04
381.384	0.13
381.591	0.02
381.797	0.08
382.004	0.12
382.211	0.09
382.418	0.08
382.624	0.12
382.831	0.1
383.038	0.07
383.244	0.09
383.451	0.08
383.658	0.09
383.864	0.07
384.071	0.07
384.277	0.18
384.484	0.09
384.69	0.12
384.897	0.05
385.103	0.11
385.31	0.02
385.516	0.06
385.723	0.07
385.929	0.09
386.136	0.06
386.342	0.1
386.549	0.07
386.755	0.13
386.961	0.1
387.168	0.09
387.374	0.06
387.58	0.11
387.787	0.05
387.993	0.1
388.199	0.1
388.406	0.07
388.612	0.08
388.818	0.03
389.024	0.06
389.231	0.08
389.437	0.1
389.643	0.14
389.849	0.07
390.055	0.09
390.261	0.08
390.467	0.13
390.674	0.07
390.88	0.05
391.086	0.09
391.292	0.01
391.498	0.14
391.704	0.09
391.91	0.04
392.116	0.08
392.322	-0.02
392.528	0.09
392.734	0.05
392.94	0.09
393.146	0.06
393.352	0.06
393.557	0.07
393.763	0.06
393.969	0.1
394.175	0.07
394.381	0.1
394.587	0.01
394.792	0.08
394.998	0.09
395.204	0.13
395.41	0.04
395.615	0.13
395.821	0.12
396.027	0.14
396.233	0.03
396.438	0.15
396.644	0.13
396.85	0.1
397.055	0.05
397.261	0.09
397.466	0.07
397.672	0.13
397.878	0.1
398.083	0.11
398.289	0.05
398.494	0.11
398.7	0.1
398.905	0.01
399.111	0.17
399.316	0.02
399.522	0.09
399.727	0.1
399.932	0.06
400.138	0.09
400.343	0.14
400.549	0.12
400.754	0.11
400.959	0.12
401.165	0.09
401.37	0.1
401.575	0.12
401.78	0.06
401.986	0.04
402.191	0.08
402.396	0.07
402.601	0.1
402.807	0.13
403.012	0.09
403.217	0.14
403.422	0.09
403.627	0.03
403.832	0.1
404.037	0.15
404.243	0.09
404.448	0.06
404.653	0.05
404.858	0.1
405.063	0.11
405.268	0.1
405.473	0.03
405.678	0.07
405.883	0.23
406.088	0.08
406.293	0.07
406.498	0.04
406.703	0.11
406.907	0.11
407.112	0.09
407.317	0.11
407.522	0.12
407.727	0.02
407.932	0.13
408.136	0.13
408.341	0.11
408.546	0.12
408.751	0.12
408.956	0.1
409.16	0.14
409.365	0.05
409.57	0.09
409.774	0.08
409.979	0.13
410.184	0.08
410.388	0.04
410.593	0.09
410.798	0.13
411.002	0.06
411.207	0.1
411.411	0.14
411.616	0.04
411.82	0.11
412.025	0.13
412.229	0.06
412.434	0.18
412.638	0.09
412.843	0.09
413.047	0.13
413.252	0.05
413.456	0.09
413.66	0.14
413.865	0.05
414.069	0.19
414.273	0.04
414.478	0.06
414.682	0.11
414.886	0.09
415.091	0.03
415.295	0.06
415.499	0.12
415.703	0.07
415.908	0.14
416.112	0.03
416.316	0.11
416.52	0.09
416.724	0.07
416.929	0.02
417.133	0.19
417.337	0.06
417.541	0.08
417.745	0.09
417.949	0.13
418.153	0.12
418.357	0.04
418.561	0.18
418.765	0.1
418.969	0.19
419.173	0.18
419.377	0.06
419.581	0.2
419.785	0.06
419.989	0.06
420.193	0.09
420.397	0.13
420.601	0.16
420.804	0.16
421.008	0.14
421.212	0.1
421.416	0.17
421.62	0.1
421.823	0.14
422.027	0.17
422.231	0.07
422.435	0.12
422.638	0.15
422.842	0.13
423.046	0.04
423.249	0.14
423.453	0.14
423.657	0.15
423.86	0.12
424.064	0.08
424.268	0.19
424.471	0.1
424.675	0.17
424.878	0.17
425.082	0.1
425.285	0.16
425.489	0.13
425.692	0.08
425.896	0.07
426.099	0.13
426.303	0.08
426.506	0.05
426.71	0.13
426.913	0.14
427.116	0.19
427.32	0.14
427.523	0.14
427.726	0.25
427.93	0.08
428.133	0.08
428.336	0.06
428.54	0.08
428.743	0.22
428.946	0.16
429.149	0.11
429.353	0.11
429.556	0.11
429.759	0.13
429.962	0.09
430.165	0.13
430.368	0.1
430.571	0.12
430.775	0.14
430.978	0.12
431.181	0.15
431.384	0.12
431.587	0.09
431.79	0.18
431.993	0.16
432.196	0.14
432.399	0.09
432.602	0.15
432.805	0.1
433.008	0.11
433.211	0.07
433.414	0.22
433.616	0.15
433.819	0.12
434.022	0.01
434.225	0.2
434.428	0.14
434.631	0.24
434.833	0.11
435.036	0.13
435.239	0.18
435.442	0.13
435.645	0.14
435.847	0.14
436.05	0.19
436.253	0.14
436.455	0.11
436.658	0.18
436.861	0.21
437.063	0.11
437.266	0.08
437.468	0.13
437.671	0.28
437.874	0.15
438.076	0.05
438.279	0.09
438.481	0.11
438.684	0.06
438.886	0.19
439.089	0.03
439.291	0.14
439.494	0.1
439.696	0.07
439.899	0.12
440.101	0.19
440.303	0.07
440.506	0.15
440.708	0.13
440.91	0.15
441.113	0.1
441.315	0.19
441.517	0.07
441.72	0.19
441.922	0.11
442.124	0.13
442.326	0.09
442.529	0.24
442.731	0.12
442.933	0.23
443.135	0.11
443.337	0.12
443.539	0.17
443.742	0.1
443.944	0.15
444.146	0.09
444.348	0.09
444.55	0.11
444.752	0.13
444.954	0.06
445.156	0.16
445.358	0.14
445.56	0.2
445.762	0.11
445.964	0.14
446.166	0.12
446.368	0.13
446.57	0.15
446.772	0.14
446.974	0.12
447.175	0.17
447.377	0.13
447.579	0.1
447.781	0.05
447.983	0.19
448.184	0.13
448.386	0.18
448.588	0
448.79	0.22
448.991	0.13
449.193	0.14
449.395	0.13
449.597	0.22
449.798	0.18
450	0.16
450.202	0.19
450.403	0.19
450.605	0.23
450.806	0.15
451.008	0.09
451.21	0.2
451.411	0.14
451.613	0.17
451.814	0.14
452.016	0.19
452.217	0.18
452.419	0.17
452.62	0.15
452.821	0.16
453.023	0.24
453.224	0.2
453.426	0.13
453.627	0.19
453.828	0.21
454.03	0.18
454.231	0.18
454.432	0.12
454.634	0.28
454.835	0.12
455.036	0.13
455.238	0.17
455.439	0.24
455.64	0.12
455.841	0.15
456.042	0.23
456.244	0.22
456.445	0.13
456.646	0.14
456.847	0.16
457.048	0.2
457.249	0.24
457.45	0.36
457.651	0.14
457.852	0.22
458.054	0.22
458.255	0.14
458.456	0.23
458.657	0.15
458.858	0.19
459.058	0.18
459.259	0.2
459.46	0.14
459.661	0.12
459.862	0.33
460.063	0.14
460.264	0.28
460.465	0.15
460.666	0.29
460.866	0.16
461.067	0.21
461.268	0.18
461.469	0.17
461.67	0.16
461.87	0.16
462.071	0.19
462.272	0.15
462.473	0.21
462.673	0.19
462.874	0.13
463.075	0.21
463.275	0.16
463.476	0.2
463.676	0.22
463.877	0.21
464.078	0.2
464.278	0.25
464.479	0.19
464.679	0.21
464.88	0.2
465.08	0.29
465.281	0.18
465.481	0.2
465.682	0.2
465.882	0.25
466.083	0.16
466.283	0.21
466.483	0.28
466.684	0.16
466.884	0.2
467.085	0.17
467.285	0.28
467.485	0.2
467.686	0.22
467.886	0.14
468.086	0.25
468.286	0.22
468.487	0.23
468.687	0.16
468.887	0.22
469.087	0.3
469.287	0.18
469.488	0.2
469.688	0.28
469.888	0.27
470.088	0.34
470.288	0.31
470.488	0.32
470.688	0.25
470.888	0.21
471.088	0.22
471.288	0.32
471.488	0.31
471.688	0.3
471.888	0.23
472.088	0.34
472.288	0.28
472.488	0.25
472.688	0.27
472.888	0.29
473.088	0.26
473.288	0.26
473.488	0.3
473.688	0.36
473.887	0.29
474.087	0.29
474.287	0.34
474.487	0.28
474.687	0.33
474.886	0.33
475.086	0.34
475.286	0.39
475.486	0.33
475.685	0.37
475.885	0.36
476.085	0.39
476.284	0.41
476.484	0.39
476.684	0.4
476.883	0.42
477.083	0.42
477.282	0.37
477.482	0.46
477.681	0.47
477.881	0.45
478.08	0.39
478.28	0.39
478.479	0.43
478.679	0.47
478.878	0.41
479.078	0.42
479.277	0.46
479.477	0.45
479.676	0.46
479.875	0.46
480.075	0.4
480.274	0.51
480.473	0.55
480.673	0.51
480.872	0.58
481.071	0.55
481.271	0.61
481.47	0.53
481.669	0.55
481.868	0.54
482.067	0.54
482.267	0.54
482.466	0.56
482.665	0.59
482.864	0.59
483.063	0.58
483.262	0.68
483.461	0.71
483.661	0.7
483.86	0.7
484.059	0.72
484.258	0.7
484.457	0.74
484.656	0.75
484.855	0.82
485.054	0.67
485.253	0.77
485.452	0.73
485.651	0.82
485.849	0.82
486.048	0.79
486.247	0.84
486.446	0.87
486.645	0.84
486.844	0.87
487.043	0.9
487.241	0.98
487.44	0.95
487.639	1.01
487.838	1
488.037	1.03
488.235	1.08
488.434	1.08
488.633	0.98
488.831	1.13
489.03	1.16
489.229	1.15
489.427	1.17
489.626	1.16
489.825	1.24
490.023	1.26
490.222	1.24
490.42	1.28
490.619	1.33
490.817	1.36
491.016	1.36
491.214	1.43
491.413	1.39
491.611	1.4
491.81	1.44
492.008	1.52
492.207	1.54
492.405	1.57
492.604	1.54
492.802	1.64
493	1.68
493.199	1.67
493.397	1.74
493.595	1.8
493.794	1.75
493.992	1.88
494.19	1.87
494.388	1.95
494.587	1.88
494.785	1.95
494.983	1.93
495.181	2.03
495.379	2.1
495.578	2.15
495.776	2.16
495.974	2.15
496.172	2.22
496.37	2.41
496.568	2.31
496.766	2.36
496.964	2.49
497.162	2.49
497.36	2.57
497.558	2.61
497.756	2.65
497.954	2.66
498.152	2.77
498.35	2.87
498.548	2.84
498.746	2.87
498.944	2.91
499.142	2.93
499.34	3.08
499.538	3.19
499.736	3.13
499.933	3.23
500.131	3.29
500.329	3.46
500.527	3.5
500.725	3.57
500.922	3.64
501.12	3.7
501.318	3.79
501.516	3.81
501.713	3.94
501.911	3.92
502.109	3.95
502.306	4.1
502.504	4.08
502.701	4.19
502.899	4.36
503.097	4.55
503.294	4.4
503.492	4.63
503.689	4.7
503.887	4.78
504.084	4.87
504.282	4.9
504.479	4.95
504.677	5.18
504.874	5.19
505.072	5.15
505.269	5.45
505.466	5.48
505.664	5.59
505.861	5.58
506.059	5.8
506.256	5.85
506.453	5.94
506.651	6.13
506.848	6.23
507.045	6.28
507.242	6.31
507.44	6.42
507.637	6.6
507.834	6.59
508.031	6.88
508.229	6.78
508.426	6.82
508.623	7.07
508.82	7.27
509.017	7.16
509.214	7.35
509.411	7.55
509.608	7.53
509.805	7.79
510.003	7.83
510.2	7.89
510.397	8.13
510.594	8.09
510.791	8.29
510.988	8.4
511.184	8.39
511.381	8.33
511.578	8.62
511.775	8.83
511.972	8.77
512.169	8.96
512.366	8.98
512.563	9.26
512.76	9.42
512.956	9.49
513.153	9.52
513.35	9.4
513.547	9.52
513.744	9.77
513.94	9.83
514.137	10.04
514.334	10.01
514.53	10.1
514.727	10.56
514.924	10.38
515.12	10.36
515.317	10.55
515.514	10.43
515.71	10.42
515.907	10.84
516.103	10.9
516.3	10.78
516.497	10.98
516.693	11.04
516.89	11.07
517.086	11.21
517.283	11.19
517.479	11.03
517.676	11.38
517.872	11.45
518.068	11.42
518.265	11.48
518.461	11.37
518.658	11.69
518.854	11.66
519.05	11.75
519.247	11.8
519.443	11.72
519.639	11.95
519.836	11.7
520.032	11.67
520.228	11.85
520.424	11.81
520.621	11.84
520.817	11.88
521.013	11.76
521.209	12.14
521.405	11.96
521.601	11.91
521.798	11.85
521.994	11.76
522.19	11.71
522.386	11.76
522.582	11.89
522.778	11.98
522.974	11.73
523.17	11.7
523.366	11.62
523.562	11.69
523.758	11.63
523.954	11.36
524.15	11.57
524.346	11.56
524.542	11.59
524.738	11.43
524.934	11.58
525.129	11.38
525.325	11.14
525.521	11.1
525.717	11.39
525.913	10.99
526.109	10.95
526.304	11.11
526.5	10.94
526.696	10.95
526.892	10.7
527.087	10.93
527.283	10.86
527.479	10.6
527.674	10.26
527.87	10.48
528.066	10.31
528.261	10.35
528.457	10.05
528.653	10.27
528.848	10.14
529.044	10.04
529.239	9.77
529.435	9.74
529.63	9.59
529.826	9.51
530.021	9.44
530.217	9.46
530.412	9.31
530.608	9.23
530.803	9.15
530.999	8.89
531.194	8.93
531.389	9.01
531.585	8.88
531.78	8.88
531.975	8.67
532.171	8.64
532.366	8.48
532.561	8.44
532.757	8.3
532.952	8.41
533.147	8.03
533.342	8.09
533.538	7.93
533.733	8.02
533.928	7.68
534.123	7.75
534.318	7.73
534.513	7.53
534.709	7.63
534.904	7.49
535.099	7.48
535.294	7.31
535.489	7.31
535.684	7.09
535.879	7.04
536.074	6.98
536.269	6.94
536.464	6.9
536.659	6.72
536.854	6.71
537.049	6.63
537.244	6.57
537.439	6.44
537.634	6.38
537.828	6.43
538.023	6.3
538.218	6.17
538.413	6.07
538.608	6.04
538.803	6.03
538.997	5.93
539.192	5.87
539.387	5.8
539.582	5.79
539.776	5.66
539.971	5.65
540.166	5.66
540.36	5.48
540.555	5.54
540.75	5.41
540.944	5.36
541.139	5.28
541.334	5.24
541.528	5.12
541.723	5.23
541.917	5.15
542.112	4.93
542.306	4.83
542.501	4.88
542.695	4.78
542.89	4.78
543.084	4.72
543.279	4.69
543.473	4.69
543.668	4.64
543.862	4.48
544.056	4.4
544.251	4.46
544.445	4.39
544.64	4.42
544.834	4.18
545.028	4.05
545.222	4.2
545.417	4.25
545.611	4.16
545.805	4.08
546	3.93
546.194	3.97
546.388	3.92
546.582	3.82
546.776	3.75
546.97	3.8
547.165	3.74
547.359	3.7
547.553	3.58
547.747	3.58
547.941	3.65
548.135	3.51
548.329	3.49
548.523	3.46
548.717	3.37
548.911	3.29
549.105	3.26
549.299	3.26
549.493	3.23
549.687	3.16
549.881	3.2
550.075	3.1
550.269	3.01
550.463	3.02
550.657	2.98
550.85	2.92
551.044	2.87
551.238	2.9
551.432	2.82
551.626	2.8
551.82	2.75
552.013	2.63
552.207	2.7
552.401	2.7
552.594	2.6
552.788	2.58
552.982	2.52
553.176	2.49
553.369	2.55
553.563	2.52
553.756	2.35
553.95	2.41
554.144	2.36
554.337	2.4
554.531	2.28
554.724	2.25
554.918	2.27
555.111	2.23
555.305	2.16
555.498	2.21
555.692	2.12
555.885	2.09
556.079	2.09
556.272	2.04
556.466	2.03
556.659	1.99
556.852	1.99
557.046	1.88
557.239	1.86
557.432	1.86
557.626	1.87
557.819	1.85
558.012	1.85
558.206	1.81
558.399	1.78
558.592	1.74
558.785	1.7
558.979	1.73
559.172	1.68
559.365	1.69
559.558	1.62
559.751	1.6
559.944	1.63
560.138	1.58
560.331	1.54
560.524	1.51
560.717	1.5
560.91	1.46
561.103	1.48
561.296	1.43
561.489	1.46
561.682	1.44
561.875	1.44
562.068	1.39
562.261	1.35
562.454	1.38
562.647	1.31
562.84	1.33
563.032	1.3
563.225	1.27
563.418	1.25
563.611	1.26
563.804	1.22
563.997	1.18
564.19	1.14
564.382	1.18
564.575	1.15
564.768	1.13
564.961	1.13
565.153	1.1
565.346	1.14
565.539	1.13
565.731	1.08
565.924	1.12
566.117	1.09
566.309	1.06
566.502	1.03
566.695	0.99
566.887	1.03
567.08	0.98
567.272	0.98
567.465	0.94
567.657	0.96
567.85	0.94
568.042	0.95
568.235	0.94
568.427	0.88
568.62	0.9
568.812	0.9
569.005	0.91
569.197	0.82
569.389	0.85
569.582	0.84
569.774	0.86
569.966	0.75
570.159	0.75
570.351	0.78
570.543	0.76
570.736	0.79
570.928	0.7
571.12	0.76
571.312	0.73
571.505	0.69
571.697	0.75
571.889	0.7
572.081	0.7
572.273	0.63
572.465	0.73
572.658	0.68
572.85	0.67
573.042	0.67
573.234	0.63
573.426	0.68
573.618	0.59
573.81	0.62
574.002	0.64
574.194	0.65
574.386	0.55
574.578	0.54
574.77	0.57
574.962	0.57
575.154	0.54
575.346	0.59
575.538	0.56
575.729	0.52
575.921	0.52
576.113	0.55
576.305	0.56
576.497	0.51
576.689	0.52
576.88	0.47
577.072	0.51
577.264	0.47
577.456	0.47
577.647	0.44
577.839	0.51
578.031	0.47
578.223	0.43
578.414	0.44
578.606	0.49
578.798	0.45
578.989	0.43
579.181	0.43
579.372	0.47
579.564	0.43
579.755	0.44
579.947	0.42
580.139	0.45
580.33	0.37
580.522	0.39
580.713	0.33
580.905	0.4
581.096	0.41
581.287	0.41
581.479	0.41
581.67	0.42
581.862	0.35
582.053	0.35
582.244	0.29
582.436	0.35
582.627	0.37
582.818	0.33
583.01	0.31
583.201	0.37
583.392	0.35
583.583	0.33
583.775	0.3
583.966	0.33
584.157	0.29
584.348	0.33
584.54	0.28
584.731	0.33
584.922	0.28
585.113	0.28
585.304	0.31
585.495	0.32
585.686	0.33
585.877	0.3
586.068	0.29
586.259	0.28
586.45	0.29
586.641	0.26
586.832	0.23
587.023	0.26
587.214	0.27
587.405	0.3
587.596	0.25
587.787	0.3
587.978	0.28
588.169	0.26
588.36	0.24
588.551	0.3
588.742	0.24
588.932	0.25
589.123	0.23
589.314	0.29
589.505	0.27
589.696	0.25
589.886	0.21
590.077	0.2
590.268	0.23
590.458	0.19
590.649	0.2
590.84	0.24
591.03	0.22
591.221	0.18
591.412	0.17
591.602	0.26
591.793	0.24
591.984	0.18
592.174	0.2
592.365	0.25
592.555	0.21
592.746	0.18
592.936	0.21
593.127	0.19
593.317	0.23
593.508	0.18
593.698	0.16
593.889	0.21
594.079	0.17
594.269	0.15
594.46	0.19
594.65	0.2
594.84	0.19
595.031	0.15
595.221	0.16
595.411	0.12
595.602	0.21
595.792	0.16
595.982	0.18
596.172	0.2
596.363	0.17
596.553	0.18
596.743	0.16
596.933	0.17
597.123	0.16
597.314	0.14
597.504	0.13
597.694	0.18
597.884	0.17
598.074	0.15
598.264	0.13
598.454	0.16
598.644	0.17
598.834	0.15
599.024	0.08
599.214	0.16
599.404	0.17
599.594	0.14
599.784	0.12
599.974	0.18
600.164	0.15
600.354	0.11
600.544	0.11
600.734	0.15
600.924	0.18
601.114	0.09
601.303	0.14
601.493	0.16
601.683	0.15
601.873	0.15
602.063	0.06
602.252	0.16
602.442	0.08
602.632	0.12
602.821	0.09
603.011	0.14
603.201	0.09
603.39	0.08
603.58	0.11
603.77	0.13
603.959	0.14
604.149	0.13
604.339	0.12
604.528	0.14
604.718	0.13
604.907	0.13
605.097	0.09
605.286	0.06
605.476	0.13
605.665	0.13
605.855	0.12
606.044	0.14
606.234	0.12
606.423	0.09
606.612	0.07
606.802	0.13
606.991	0.14
607.181	0.13
607.37	0.09
607.559	0.11
607.749	0.09
607.938	0.13
608.127	0.1
608.316	0.09
608.506	0.13
608.695	0.11
608.884	0.08
609.073	0.1
609.263	0.13
609.452	0.12
609.641	0.11
609.83	0.07
610.019	0.11
610.208	0.06
610.397	0.1
610.586	0.1
610.775	0.07
610.965	0.07
611.154	0.09
611.343	0.12
611.532	0.12
611.721	0.07
611.91	0.08
612.099	0.13
612.287	0.08
612.476	0.06
612.665	0.12
612.854	0.07
613.043	0.12
613.232	0.12
613.421	0.04
613.61	0.1
613.798	0.09
613.987	0.13
614.176	0.11
614.365	0.15
614.554	0.12
614.742	0.12
614.931	0.06
615.12	0.11
615.309	0.07
615.497	0.12
615.686	0.09
615.875	0.1
616.063	0.09
616.252	0.09
616.44	0.07
616.629	0.09
616.818	0.1
617.006	0.09
617.195	0.07
617.383	0.1
617.572	0.08
617.76	0.06
617.949	0.08
618.137	0.11
618.326	0.13
618.514	0.07
618.703	0.08
618.891	0.16
619.079	0.05
619.268	0.12
619.456	0.06
619.644	0.13
619.833	0.09
620.021	0.05
620.209	0.03
620.398	0.12
620.586	0.1
620.774	0.15
620.962	0.07
621.151	0.13
621.339	0.08
621.527	0.02
621.715	0.07
621.903	0.06
622.092	0.02
622.28	0.05
622.468	0.08
622.656	0.08
622.844	0.13
623.032	0.1
623.22	0.01
623.408	0.1
623.596	0.1
623.784	0.07
623.972	0.06
624.16	0.07
624.348	0.11
624.536	0.05
624.724	0.04
624.912	0.14
625.1	0.1
625.288	0.04
625.476	0.07
625.664	0.09
625.851	0.04
626.039	0.1
626.227	0.11
626.415	0.05
626.603	0.01
626.79	0.09
626.978	0.07
627.166	0.09
627.354	0.09
627.541	0.03
627.729	0.01
627.917	0.14
628.104	0.11
628.292	0.06
628.48	0.06
628.667	0.1
628.855	0.1
629.042	0.07
629.23	0.07
629.418	0.04
629.605	0.09
629.793	0.03
629.98	0.04
630.168	0.1
630.355	0.05
630.543	0.11
630.73	0.06
630.917	0.09
631.105	0.12
631.292	0.04
631.48	0.05
631.667	0.14
631.854	0.07
632.042	0.06
632.229	0.01
632.416	0.08
632.604	0.05
632.791	0.03
632.978	0.1
633.165	0.08
633.353	0.09
633.54	0.11
633.727	0
633.914	0.03
634.101	0
634.289	0.13
634.476	0.04
634.663	0.04
634.85	0.07
635.037	0.04
635.224	0.01
635.411	0.08
635.598	0.09
635.785	0.06
635.972	0.04
636.159	0.09
636.346	0.06
636.533	0.07
636.72	0.06
636.907	0.05
637.094	0.1
637.281	0.08
637.468	0.07
637.655	0.07
637.842	0.08
638.029	0.02
638.215	0.1
638.402	0.05
638.589	0.04
638.776	0.06
638.963	0.04
639.149	0.11
639.336	0.12
639.523	0.07
639.709	0.04
639.896	0.05
640.083	0.12
640.27	0.09
640.456	0.05
640.643	0.1
640.829	0.02
641.016	0.08
641.203	0.04
641.389	0.09
641.576	0.07
641.762	0.06
641.949	0.02
642.135	0.1
642.322	0.07
642.508	-0.02
642.695	0.11
642.881	0.06
643.068	0.06
643.254	0.06
643.441	0.08
643.627	0.08
643.813	0.03
644	0.11
644.186	0.05
644.372	0.02
644.559	0.11
644.745	0.07
644.931	0.07
645.118	0.06
645.304	0.08
645.49	0.03
645.676	0.01
645.862	0.07
646.049	0.16
646.235	0.09
646.421	0.12
646.607	0.13
646.793	0.05
646.979	0.03
647.165	0.09
647.352	0.1
647.538	0.08
647.724	0.05
647.91	0.09
648.096	0.11
648.282	0.13
648.468	0.06
648.654	0.04
648.84	0.09
649.026	0.06
649.212	0.08
649.397	0.03
649.583	0.03
649.769	0.09
649.955	0.06
650.141	0.09
650.327	0.12
650.513	-0
650.698	0.06
650.884	0.01
651.07	0.03
651.256	0.08
651.442	0.08
651.627	0.05
651.813	0.1
651.999	0.08
652.184	0.08
652.37	0.03
652.556	0.03
652.741	0.11
652.927	-0.04
653.113	0.05
653.298	0.03
653.484	0.05
653.669	-0
653.855	0.04
654.04	0.08
654.226	0.08
654.412	0.08
654.597	-0
654.782	0.08
654.968	0.09
655.153	0.07
655.339	0.05
655.524	0.06
655.71	0.09
655.895	0.03
656.08	0.05
656.266	0.09
656.451	0.07
656.636	0.04
656.822	0.11
657.007	0.04
657.192	0.05
657.378	0.02
657.563	0.08
657.748	0.1
657.933	0.05
658.118	0.04
658.304	0.05
658.489	0.08
658.674	0.09
658.859	0.03
659.044	0.05
659.229	0.08
659.414	0.05
659.599	0.07
659.785	0.01
659.97	0.05
660.155	0.1
660.34	0.04
660.525	0.05
660.71	0.04
660.895	0.07
661.08	0.05
661.264	0.03
661.449	0.09
661.634	0.11
661.819	0.08
662.004	0.09
662.189	-0.02
662.374	0.07
662.559	0
662.743	0.01
662.928	0.09
663.113	0.06
663.298	0.02
663.483	0.07
663.667	0.05
663.852	0.03
664.037	0.08
664.221	0.07
664.406	0.11
664.591	0.08
664.775	0.08
664.96	0.06
665.145	0.09
665.329	0.08
665.514	0.02
665.698	0.05
665.883	-0.01
666.068	0.13
666.252	0.06
666.437	0.06
666.621	0.07
666.806	0.1
666.99	0.09
667.174	0.06
667.359	0.11
667.543	0.04
667.728	0.06
667.912	-0.02
668.096	0.11
668.281	0.04
668.465	0.07
668.649	0.07
668.834	0.03
669.018	0.04
669.202	0.05
669.387	0.04
669.571	0.1
669.755	0.03
669.939	0.09
670.124	0.1
670.308	0.14
670.492	0.1
670.676	0.11
670.86	0.1
671.044	0.02
671.228	0.12
671.413	0.08
671.597	0.05
671.781	0.02
671.965	0.06
672.149	0.09
672.333	0.09
672.517	0.07
672.701	0.15
672.885	0.07
673.069	0.01
673.253	0.12
673.437	0.02
673.621	0.05
673.804	0.08
673.988	0.06
674.172	0.08
674.356	0.02
674.54	0.07
674.724	0.16
674.908	0.04
675.091	0.11
675.275	0.07
675.459	0.1
675.643	0.04
675.826	0.09
676.01	0.07
676.194	0.1
676.377	0.15
676.561	0.1
676.745	0.11
676.928	0.11
677.112	0.09
677.296	0.09
677.479	0.05
677.663	0.09
677.846	0.11
678.03	0.1
678.213	0.07
678.397	0.12
678.58	0.07
678.764	0.07
678.947	0.06
679.131	0.01
679.314	0.09
679.498	0.06
679.681	0.09
679.865	0.17
680.048	0.1
680.231	0.07
680.415	0.04
680.598	0.08
680.781	0.08
680.965	0.1
681.148	0.1
681.331	0.07
681.514	0.12
681.698	0.03
681.881	0.1
682.064	0.09
682.247	0.11
682.43	0.03
682.614	0.11
682.797	0.13
682.98	0.12
683.163	0.07
683.346	0.13
683.529	0.07
683.712	0.06
683.895	0.12
684.078	0.03
684.261	0.11
684.444	0.12
684.627	0.1
684.81	0.08
684.993	0.08
685.176	0.08
685.359	0.05
685.542	0.06
685.725	0.11
685.908	0.06
686.091	0.06
686.274	0.13
686.457	0.17
686.639	0.03
686.822	0.1
687.005	0.07
687.188	0.13
687.371	0.19
687.553	0.07
687.736	0.13
687.919	0.15
688.102	0.1
688.284	0.03
688.467	0.09
688.65	0.11
688.832	0.03
689.015	0.04
689.197	0.01
689.38	0.14
689.563	0.16
689.745	0.07
689.928	0.07
690.11	0.09
690.293	0.12
690.475	0.01
690.658	0.14
690.84	0.04
691.023	0.01
691.205	0.08
691.388	0.07
691.57	0.12
691.752	0.13
691.935	0.01
692.117	0.08
692.3	0.07
692.482	0.08
692.664	0.04
692.847	0.13
693.029	0.13
693.211	0.12
693.393	0.07
693.576	0.03
693.758	0.06
693.94	0.07
694.122	0.03
694.304	0.08
694.487	0.06
694.669	0.15
694.851	0.02
695.033	0.13
695.215	0.05
695.397	0.03
695.579	0.09
695.761	0.06
695.943	-0.02
696.125	0.15
696.308	0.13
696.49	0.02
696.671	0.18
696.853	0.08
697.035	0.26
697.217	0.06
697.399	0.15
697.581	0.07
697.763	0.09
697.945	0.01
698.127	0.08
698.309	0.13
698.491	0.05
698.672	0.08
698.854	0.1
699.036	0.13
699.218	0.11
699.399	0.2
699.581	0.17
699.763	0.09
699.945	0.04
700.126	0.01
700.308	0.1
700.49	0.06
700.671	0.01
700.853	0.06
701.035	0.07
701.216	0.02
701.398	0.02
701.579	0.11
701.761	0.13
701.943	0.05
702.124	0.07
702.306	0.04
702.487	0.22
702.669	0.09
702.85	0.03
703.031	0.08
703.213	0.16
703.394	0.11
703.576	0.11
703.757	0.21
703.938	0.11
704.12	0.22
704.301	0.08
704.483	0.07
704.664	0.07
704.845	0.19
705.026	0.1
705.208	0.1
705.389	0.09
705.57	0.07
705.751	0.03
705.933	0.12
706.114	0.14
706.295	0.12
706.476	0.01
706.657	0.16
706.838	0.1
707.02	0.14
707.201	0
707.382	0.01
707.563	0.13
707.744	0.06
707.925	0.03
708.106	0.08
708.287	0.06
708.468	0.24
708.649	0.07
708.83	0.15
709.011	0.02
709.192	0.11
709.373	0.07
709.554	0.06
709.734	0.09
709.915	0.1
710.096	0.1
710.277	0.03
710.458	0.13
710.639	0.14
710.819	0
711	0.11
711.181	0.14
711.362	0.11
711.542	0.07
711.723	0.09
711.904	0.11
712.085	0.12
712.265	0.1
712.446	0.02
712.627	0.05
712.807	0.08
712.988	0.14
713.168	0.01
713.349	0.13
713.53	-0.05
713.71	0
713.891	-0.05
714.071	0.11
714.252	0.06
714.432	0.05
714.613	-0.08
714.793	0.14
714.974	0.11
715.154	0.18
715.334	0.11
715.515	0.18
715.695	-0.03
715.876	0.05
716.056	0.08
716.236	0.08
716.417	0.08
716.597	0.01
716.777	0.21
716.957	0.02
717.138	0.07
717.318	0.02
717.498	0.04
717.678	0.09
717.859	0.11
718.039	-0.02
718.219	0.05
718.399	0.12
718.579	0.03
718.759	0.04
718.939	0.1
719.12	0.12
719.3	0.07
719.48	-0.03
719.66	-0.06
719.84	0.22
720.02	0.12
720.2	0.07
720.38	0.08
720.56	0.16
720.74	0.05
720.92	0.14
721.1	0.18
721.279	0.26
721.459	0.12
721.639	-0.01
721.819	0.06
721.999	0.04
722.179	0.13
722.359	-0.04
722.538	0.13
722.718	0.19
722.898	0.06
723.078	0.08
723.257	0.05
723.437	0.05
723.617	0.08
723.797	0.07
723.976	0.02
724.156	0.19
724.336	0.16
724.515	0.19
724.695	-0.03
724.874	0.04
725.054	0.18
725.234	0.09
725.413	0.13
725.593	0
725.772	0.05
725.952	0.08
726.131	0.02
726.311	0.07
726.49	0.04
726.67	0.03
726.849	0.02
727.028	0.14
727.208	0.06
727.387	0.12
727.567	-0.01
727.746	0.11
727.925	0.04
728.105	-0
728.284	0.08
728.463	-0.06
728.643	0.13
728.822	0.04
729.001	0.05
729.18	0.03
729.359	0.09
729.539	0.09
729.718	0.13
729.897	0.17
730.076	0.05
730.255	0.04
730.434	0.09
730.614	0.16
730.793	0.14
730.972	0.08
731.151	0.07
731.33	0.12
731.509	0.11
731.688	0.13
731.867	0.11
732.046	-0.1
732.225	0.23
732.404	0.03
732.583	-0
732.762	0.07
732.941	0.15
733.12	0.09
733.298	0.06
733.477	0.15
733.656	0.09
733.835	-0.04
734.014	0.1
734.193	0.17
734.371	0.21
734.55	0.13
734.729	-0.06
734.908	0.04
735.086	0.13
735.265	0.14
735.444	-0.05
735.623	-0.05
735.801	0.01
735.98	0.01
736.159	0.04
736.337	0.12
736.516	0.16
736.694	0.16
736.873	-0.01
737.052	0.21
737.23	0.18
737.409	-0.02
737.587	0.11
737.766	-0.1
737.944	-0.08
738.123	0.11
738.301	0.11
738.479	0.03
738.658	0.16
738.836	-0.05
739.015	0.16
739.193	0.11
739.371	-0.03
739.55	0.1
739.728	0.05
739.906	0.24
740.085	0.3
740.263	0.11
740.441	-0.02
740.62	0.24
740.798	0.15
740.976	-0.02
741.154	-0.01
741.332	0.23
741.511	0.06
741.689	0.12
741.867	0.19
742.045	0.09
742.223	0.13
742.401	0.12
742.579	0.1
742.757	0.15
742.935	-0.07
743.114	0.11
743.292	0.06
743.47	0.1
743.648	0.23
743.826	0.01
744.004	0.25
744.181	0.13
744.359	0.08
744.537	0.16
744.715	0.03
744.893	0.02
745.071	0.07
745.249	0.11
745.427	0.15
745.605	0.22
745.782	0.09
745.96	0.12
746.138	0.07
746.316	0.19
746.493	0.06
746.671	0.06
746.849	0.18
747.027	0.18
747.204	0.06
747.382	0.18
747.56	-0.11
747.737	-0
747.915	-0.07
748.093	0.19
748.27	0.09
748.448	0.04
748.625	0.04
748.803	0.08
748.98	0.04
749.158	0.04
749.335	0.18
749.513	0.04
749.69	0.06
749.868	0.11
750.045	0.12
750.223	0.11
750.4	-0.14
750.578	0.28
750.755	0.14
750.932	-0.04
751.11	0.23
751.287	-0.05
751.464	0.25
751.642	-0.1
751.819	0.06
751.996	0.14
752.173	0.08
752.351	-0.07
752.528	0.04
752.705	0.05
752.882	0.08
753.06	0.15
753.237	0.11
753.414	0.31
753.591	0.25
753.768	0.13
753.945	0.05
754.122	-0.02
754.299	0.14
754.476	-0.04
754.654	0.13
754.831	0.29
755.008	0.14
755.185	0.05
755.362	0.07
755.539	0.03
755.716	-0.03
755.892	0.1
756.069	0.02
756.246	0.04
756.423	0.1
756.6	0.17
756.777	0.13
756.954	0.17
757.131	0.03
757.307	-0.02
757.484	0.04
757.661	0.13
757.838	0.08
758.015	-0.06
758.191	0.07
758.368	0.22
758.545	0.23
758.721	0.12
758.898	-0.03
759.075	0.11
759.251	0.23
759.428	0.12
759.605	-0.14
759.781	0.1
759.958	0.1
760.134	0.17
760.311	0.05
760.488	0.07
760.664	0.18
760.841	0.1
761.017	-0.01
761.194	0.17
761.37	0.27
761.547	0.06
761.723	0.06
761.899	0.21
762.076	-0.06
762.252	-0.08
762.429	0.19
762.605	0.21
762.781	-0.17
762.958	0.19
763.134	0.02
763.31	0.03
763.486	0.2
763.663	-0
763.839	0.21
764.015	-0.19
764.191	0.09
764.368	0.11
764.544	-0.09
764.72	0.22
764.896	0.17
765.072	0.05
765.248	0.08
765.425	0.03
765.601	0.09
765.777	0.12
765.953	-0.08
766.129	0.12
766.305	-0.03
766.481	0.25
766.657	0.13
766.833	0.27
767.009	-0.02
767.185	0
767.361	0.05
767.537	-0.11
767.713	0.19
767.889	0.06
768.065	0.04
768.24	0.16
768.416	0.33
768.592	-0.04
768.768	0.06
768.944	0.03
769.12	-0.04
769.295	0.01
769.471	0.04
769.647	0.08
769.823	0.24
769.998	-0.07
770.174	-0.06
770.35	0.44
770.525	0.34
770.701	0.11
770.877	0.03
771.052	0.07
771.228	0.21
771.403	0.12
771.579	0.25
771.755	0.32
771.93	0.04
772.106	-0.09
772.281	-0.2
772.457	0.14
772.632	0.12
772.808	0.08
772.983	0.07
773.159	-0.07
773.334	0.15
773.509	0.2
773.685	-0.01
773.86	0.48
774.036	0.23
774.211	0.23
774.386	0.07
774.562	0.05
774.737	0.1
774.912	0.01
775.087	0.17
775.263	0.21
775.438	0.19
775.613	-0.02
775.788	0.1
775.964	0.23
776.139	0.39
776.314	-0.1
776.489	0.14
776.664	-0.01
776.839	0.11
777.014	0.25
777.19	0.24
777.365	0.31
777.54	0.21
777.715	0.05
777.89	-0
778.065	-0.03
778.24	-0
778.415	0.23
778.59	-0.14
778.765	-0.18
778.94	0.16
779.115	0.06
779.289	0.08
779.464	0.12
779.639	0.09
779.814	-0.12
779.989	-0.01
780.164	0.29
780.339	0.21
780.513	-0.08
780.688	0.02
780.863	0.16
781.038	0.19
781.212	-0.03
781.387	0.19
781.562	0.27
781.737	0.03
781.911	0.45
782.086	0.02
782.261	-0.03
782.435	0.45
782.61	-0.15
782.784	0.01
782.959	0.34
783.134	0.04
783.308	0.02
783.483	0.04
783.657	0.42
783.832	0.25
784.006	-0.29
784.181	0.07
784.355	0.16
784.53	0.04
784.704	-0.21
784.878	0.37
785.053	0.36
785.227	0.22
785.402	0.35
785.576	-0.02
785.75	0.04
785.925	0.08
786.099	0.05
786.273	0.13
786.448	0.37
786.622	0.16
786.796	0.09
786.97	0.1
787.145	0.47
787.319	-0.06
787.493	-0.03
787.667	-0.25
787.841	0.17
788.015	0.44
788.19	-0.09
788.364	0.27
788.538	0.41
788.712	0.43
788.886	0.07
789.06	0.51
789.234	0.2
789.408	-0.09
789.582	-0.05
789.756	0.15
789.93	-0.1
790.104	0.04
790.278	-0.04
790.452	0.03
790.626	0.17
790.8	-0.01
790.973	0.2
791.147	0.3
791.321	0.36
791.495	0.2
791.669	0.21
791.843	0.15
792.016	0.31
792.19	0.59
792.364	0.01
792.538	0.58
792.711	0.51
792.885	-0.22
793.059	-0.22
793.233	-0.52
793.406	0.15
793.58	0.18
793.754	0.05
793.927	-0.09
794.101	0.27
794.274	0.2
794.448	0.46
794.622	-0.28
794.795	0.52
794.969	0.02
795.142	0.36
795.316	0.02
795.489	-0.04
795.663	0.46
795.836	0.2
796.009	-0.11
796.183	0.4
796.356	0.29
796.53	0.05
796.703	0.14
796.876	0.69
797.05	-0.04
797.223	-0.15
797.396	0.62
797.57	0.16
797.743	0.54
797.916	-0.1
798.09	0.17
798.263	0.24
798.436	0.24
798.609	0.13
798.782	0.2
798.956	0.15
799.129	0.11
799.302	0.06
799.475	0.15
799.648	-0.25
799.821	0.22
799.994	0.1
800.167	-0.29
800.34	0.43
800.514	-0.04
800.687	-0.01
800.86	-0.15
801.033	-0.01
801.206	-0.01
801.379	-0.15
801.551	0.38
801.724	0.33
801.897	0.37
802.07	0.1
802.243	-0.39
802.416	0.17
802.589	-0.01
802.762	-0.12
802.935	-0.16
803.107	0.18
803.28	0.46
803.453	0.24
803.626	-0.11
803.798	0.15
803.971	0.2
804.144	0.4
804.317	0.51
804.489	0.32
804.662	0.26
804.835	0.24
805.007	0.04
805.18	0.29
805.353	0.24
805.525	-0.33
805.698	-0.23
805.87	0.44
806.043	0.68
806.215	-0.2
806.388	-0.05
806.56	0.21
806.733	0.56
806.905	0.17
807.078	-0.3
807.25	-0.27
807.423	0.36
807.595	0.36
807.768	0.39
807.94	0.59
808.112	0.25
808.285	-0.01
808.457	-0.07
808.629	0.06
808.802	0.43
808.974	0.01
809.146	0.02
809.318	-0.04
809.491	0.22
809.663	0.57
809.835	-0.06
810.007	0.55
810.18	0.15
810.352	-0.22
810.524	0.09
810.696	0.38
810.868	0.42
811.04	-0.11
811.212	-0.2
811.384	0.32
811.556	0.16
811.728	0.06
811.901	0.56
812.073	-0.25
812.245	0.13
812.417	0.02
812.589	-0.14
812.76	-0.01
812.932	0.34
813.104	0.78
813.276	0.21
813.448	0.4
813.62	-0.05
813.792	0.05
813.964	0.15
814.136	0.18
814.307	0.13
814.479	-0.12
814.651	0.2
814.823	0.75
814.995	-0.12
815.166	0.08
815.338	0.04
815.51	-0.25
815.681	0.86
815.853	0.24
816.025	0.07
816.196	0.93
816.368	0.92
816.54	-0.19
816.711	-0.19
816.883	0.49
817.054	1.24
817.226	-0.16
817.398	0.3
817.569	0.07
817.741	0.03
817.912	0.3
818.084	0.12
818.255	0.25
818.426	0.35
818.598	0.4
818.769	0.19
818.941	0.27
819.112	0.83
819.283	0.55
819.455	-0.12
819.626	0.4
819.798	-0.19
819.969	0.3
820.14	0.06
820.311	0.38
820.483	0.38
820.654	0.41
820.825	0.29
820.996	-0.05
821.168	-0.31
821.339	0.11
821.51	-0.76
821.681	-0.25
821.852	0.44
822.023	-0.14
822.195	-0.48
822.366	0.35
822.537	0.13
822.708	0.47
822.879	-0.13
823.05	0.62
823.221	0.2
823.392	0.33
823.563	-0.06
823.734	0.31
823.905	0.18
824.076	-0.19
824.247	0.08
824.418	-0.15
824.589	0.97
824.759	0.24
824.93	-0.19
825.101	0.11
825.272	0.51
825.443	0.64
825.614	0.85
825.784	-0.23
825.955	1.1
826.126	0.24
826.297	-0.26
826.467	1.3
826.638	0.73
826.809	-0.52
826.98	0.07
827.15	0.14
827.321	-0.05
827.492	0.97
827.662	0.43
827.833	1.11
828.003	0.14
828.174	-0.13
828.345	-0.33
828.515	0.49
828.686	0.7
828.856	-0.05
829.027	0.39
829.197	-0.15
829.368	0.97
829.538	-0.4
829.709	-0.26
829.879	0.26
830.049	0.42
830.22	0.07
830.39	-0.02
830.56	0.5
830.731	0.09
830.901	-0.23
831.072	0.48
831.242	0.36
831.412	0.49
831.582	0.31
831.753	-0.45
831.923	0.57
832.093	0.53
832.263	0.02
832.434	-0.16
832.604	-0.31
832.774	1.15
832.944	-0.15
833.114	0.23
833.284	0.29
833.454	-0.47
833.624	0.2
833.795	0.03
833.965	1.29
834.135	0.77
834.305	-0.12
834.475	-0.71
834.645	0.2
834.815	0.1
834.985	0.13
835.155	-0.09
835.325	0.65
835.494	0.42
835.664	-0.01
835.834	-0.2
836.004	0.4
836.174	1.02
836.344	0.12
836.514	-0.53
836.684	0.04
836.853	0.16
837.023	0.09
837.193	-0.46
837.363	1.44
837.532	1.6
837.702	0.01
837.872	-0.21
838.041	0.51
838.211	0.67
838.381	-0.32
838.55	0.34
838.72	2.22
838.89	0.87
839.059	-0.09
839.229	-0.21
839.398	0.84
839.568	0.14
839.738	0.05
839.907	0.89
840.077	0.22
840.246	-0.26
840.416	-0.55
840.585	-0.2
840.755	1.1
840.924	0.76
841.093	-0.75
841.263	0.15
841.432	0.86
841.602	-1.11
841.771	-0.05
841.94	0.24
842.11	2.34
842.279	2.24
842.448	-0.46
842.617	-0.54
842.787	1.55
842.956	-0.57
843.125	0.68
843.294	0.16
843.464	0.47
843.633	0.36
843.802	-0.33
843.971	0.09
844.14	1.16
844.309	1
844.479	-0.62
844.648	0.14
844.817	0.63
844.986	0.09
845.155	-0.11
845.324	0.47
845.493	-0.4
845.662	-0.54
845.831	0.86
846	0.15
846.169	0.16
846.338	1.66
846.507	0.69
846.676	0.35
846.844	-0.32
847.013	0.91
847.182	0.15
847.351	0.25
847.52	0.05
847.689	0.95
847.858	0.68
848.026	-0.58
848.195	0.58
848.364	0.01
848.533	0.49
848.701	-0.54
848.87	0.64
849.039	1.53
849.207	1.73
849.376	0.86
849.545	1.24
849.713	0.24
849.882	-0.29
850.051	0.04
850.219	0.68
850.388	0.09
850.556	-0.46
850.725	-1.25
850.893	0.78
851.062	0.61
851.23	1.34
851.399	-1.4
851.567	-0.06
851.736	-0.22
851.904	-0.94
852.073	0.73
852.241	1.44
852.41	0.25
852.578	0.29
852.746	0.33
852.915	1.2
853.083	0.32
853.251	-0.49
853.42	-0.11
853.588	-0.88
853.756	1.65
853.924	-0.95
854.093	0.23
854.261	0.01
854.429	-0.48
854.597	0.47
854.765	0.68
854.934	0.73
855.102	1.2
855.27	0.4
855.438	1.14
855.606	1.27
855.774	1.05
855.942	-0.79
856.11	-0.47
856.278	0.29
856.446	0.7
856.614	0.44
856.782	-0.36
856.95	1.67
857.118	1.38
857.286	0.83
857.454	-0.14
857.622	1.1
857.79	0.8
857.958	-1.89
858.126	-0.75
858.294	-2.44
858.462	-0.12
858.629	-1.13
858.797	-0.54
858.965	0.64
859.133	1.08
859.301	-0.59
859.468	1.25
859.636	-0.55
859.804	1.27
859.971	0.3
860.139	-0.18
860.307	-0.81
860.474	0.76
860.642	-0.95
860.81	-1.28
860.977	-1.29
861.145	1.55
861.313	0.31
861.48	0.54
861.648	1.56
861.815	0.86
861.983	-0.5
862.15	0.52
862.318	1.62
862.485	2.08
862.653	-0.3
862.82	-1.11
862.988	2.5
863.155	1.98
863.322	-0.4
863.49	0.36
863.657	0.65
863.824	1.85
863.992	0.56
864.159	0.59
864.326	1.74
864.494	0.36
864.661	3.15
864.828	-0.72
864.996	1.38
865.163	1.03
865.33	-0.57
865.497	-1.62
865.664	-1.27
865.832	-0.99
865.999	0.15
866.166	-2.14
866.333	0.98
866.5	1.53
866.667	0.45
866.834	-0.02
867.001	2.77
867.168	-0.28
867.335	0.15
867.502	-1.59
867.669	0.09
867.836	2.65
868.003	0.61
868.17	2.22
868.337	3.57
868.504	1.95
868.671	-0.74
868.838	-0.96
869.005	1.61
869.172	1.4
869.339	-0.17
869.505	-0.06
869.672	0.05
869.839	2.47
870.006	0.41
870.173	-0.88
870.339	2.1
870.506	4.56
870.673	-1.42
870.84	2.38
871.006	0.4
871.173	0.62
871.34	0.78
871.506	-0.82
871.673	1.88
871.839	-2.4
872.006	1.93
872.173	-0.58
872.339	1.05
872.506	1.85
872.672	-0.4
872.839	-2.51
873.005	0.7
873.172	3.03
873.338	1.78
873.505	0.4
873.671	1.95
873.838	1.34
874.004	-1.36
874.171	0.22
874.337	0.1
874.503	1.1
874.67	-0.41
874.836	-0.43
875.002	1.66
875.169	1.6
875.335	0.75
875.501	-1.26
875.668	-0.86
875.834	1.29
876	-0.27
876.166	0.79
876.332	0.59
876.499	2.18
876.665	-0.36
876.831	0.14
876.997	2.82
877.163	1.17
877.329	-1.43
877.495	1.06
877.662	0.77
877.828	1.26
877.994	-0.09
878.16	-0.96
878.326	-0.24
878.492	2.35
878.658	-0.22
878.824	0.3
878.99	2.64
879.156	-0.67
879.322	2.85
879.487	-0.75
879.653	-0.47
879.819	0.73
879.985	-1.79
880.151	1.27
880.317	0.48
880.483	-0.32
880.648	1.32
880.814	-3.21
880.98	1.5
881.146	-1.24
881.312	0.9
881.477	-1.52
881.643	0.99
881.809	1.47
881.974	3.65
882.14	-2.26
882.306	2.07
882.471	2.28
882.637	-0.81
882.803	-0.71
882.968	3.31
883.134	4
883.299	-0.47
883.465	1.57
883.63	2.27
883.796	1.73
883.961	1.82
884.127	2.29
884.292	-3.95
884.458	-2.07
884.623	-2.07
