Data from Apollo_Calib_20240827__AbsoluteIrradiance__371__05-20-02-318.txt Node

Date: Wed Aug 28 05:20:02 BST 2024
User: biology
Spectrometer: FLMT08252
Trigger mode: 0
Integration Time (sec): 5.000000E-1
Scans to average: 5
Electric dark correction enabled: true
Nonlinearity correction enabled: false
Boxcar width: 0
XAxis mode: Wavelengths
Number of Pixels in Spectrum: 3648
>>>>>Begin Spectral Data<<<<<
179.588	-0
179.809	-0
180.03	-0
180.251	-0
180.473	-0
180.694	0
180.915	0
181.136	-0
181.357	0
181.578	-0
181.799	0
182.02	-0
182.241	-0
182.462	-0
182.683	0
182.904	-0
183.125	-0
183.346	0
183.567	0
183.788	0
184.009	-0
184.23	0
184.451	0
184.672	0
184.892	-0
185.113	0
185.334	0
185.555	-0
185.776	0
185.996	0
186.217	0
186.438	0
186.659	-0
186.879	0
187.1	0
187.321	0
187.541	0
187.762	0
187.983	0
188.203	0
188.424	0
188.644	0
188.865	0
189.086	0
189.306	0
189.527	0
189.747	0
189.968	-0
190.188	0
190.409	0
190.629	0
190.849	0
191.07	-0
191.29	0
191.511	0
191.731	0
191.951	0
192.172	0
192.392	0
192.612	0
192.833	0
193.053	0
193.273	0
193.493	0
193.714	0
193.934	0
194.154	0
194.374	0
194.594	0
194.815	0
195.035	0
195.255	0
195.475	0
195.695	0
195.915	0
196.135	0
196.355	0
196.575	0
196.795	0
197.015	-0
197.235	0
197.455	0
197.675	0
197.895	0
198.115	0
198.335	0
198.555	0
198.775	0
198.995	0
199.214	0
199.434	0
199.654	0
199.874	0
200.094	1.22
200.313	0.2
200.533	0.31
200.753	-0.23
200.973	1.05
201.192	1.46
201.412	-0.46
201.632	0.15
201.851	1.48
202.071	0.55
202.291	0.27
202.51	-0.05
202.73	0.8
202.95	-0.02
203.169	-0.06
203.389	0.49
203.608	0.4
203.828	-0.08
204.047	0.43
204.267	0.43
204.486	0.42
204.706	0.62
204.925	0.6
205.145	0.38
205.364	0.97
205.583	0.98
205.803	0
206.022	0.32
206.242	0.33
206.461	0.04
206.68	0.31
206.9	0.18
207.119	1.29
207.338	0.85
207.557	0
207.777	0.24
207.996	0.3
208.215	1.05
208.434	-0.11
208.654	-0.16
208.873	0.57
209.092	0.95
209.311	0.05
209.53	0.05
209.749	0.22
209.968	0.17
210.187	0.03
210.407	-0.14
210.626	0.25
210.845	0.36
211.064	0.33
211.283	0.04
211.502	0.46
211.721	0.25
211.94	0.26
212.159	0.48
212.377	0.38
212.596	0.6
212.815	0.25
213.034	0.2
213.253	0.61
213.472	0.46
213.691	0.23
213.91	0.07
214.128	0.17
214.347	0.73
214.566	-0.14
214.785	-0.29
215.003	0.47
215.222	0.32
215.441	0.33
215.66	-0.08
215.878	0.42
216.097	0.38
216.316	-0.19
216.534	0.14
216.753	0.32
216.972	0.4
217.19	0.3
217.409	-0.08
217.627	0.15
217.846	0.25
218.064	0.26
218.283	0.13
218.501	0.79
218.72	0.48
218.938	-0.02
219.157	0.1
219.375	0.46
219.594	0.5
219.812	-0.08
220.031	0.05
220.249	0.43
220.467	0.52
220.686	0.16
220.904	0.09
221.122	0.08
221.341	0.55
221.559	0.33
221.777	-0.03
221.995	0.13
222.214	0.4
222.432	-0.15
222.65	0.18
222.868	0.35
223.086	0.25
223.305	0.21
223.523	0.15
223.741	0.58
223.959	0
224.177	-0.14
224.395	0.06
224.613	0.23
224.831	0.32
225.049	-0.02
225.267	0.06
225.485	0.29
225.703	-0.03
225.921	0.17
226.139	-0.01
226.357	0.31
226.575	0.29
226.793	0.17
227.011	0.8
227.229	0.15
227.447	0.37
227.665	0.04
227.883	0.01
228.1	0.14
228.318	0.28
228.536	-0.11
228.754	0.07
228.972	0.25
229.189	0.3
229.407	0.13
229.625	0.1
229.843	0.42
230.06	0.23
230.278	0.11
230.496	0.03
230.713	0.21
230.931	0.35
231.149	0.11
231.366	-0.14
231.584	0.15
231.801	0.58
232.019	0.07
232.236	-0.06
232.454	-0.05
232.671	0.31
232.889	0.12
233.106	-0
233.324	0.07
233.541	0.03
233.759	0.24
233.976	-0.02
234.194	0.17
234.411	0.17
234.628	-0
234.846	0.01
235.063	0.16
235.28	0.15
235.498	0.19
235.715	0.01
235.932	0.21
236.149	0.11
236.367	-0.03
236.584	0.15
236.801	0.12
237.018	0.18
237.236	0.06
237.453	0.04
237.67	0.28
237.887	0.12
238.104	0.11
238.321	0.04
238.538	0.04
238.755	0.32
238.973	-0.03
239.19	0.13
239.407	0.26
239.624	0.13
239.841	-0.03
240.058	0.08
240.275	0.18
240.492	-0.02
240.709	0.07
240.925	0.08
241.142	0.16
241.359	-0.01
241.576	0.08
241.793	0.03
242.01	0.11
242.227	0.18
242.444	0.2
242.66	0.24
242.877	0.19
243.094	0.03
243.311	0.16
243.527	0.09
243.744	0.07
243.961	0.22
244.178	0.05
244.394	0.15
244.611	0.2
244.828	0.31
245.044	0.01
245.261	0.02
245.477	0.23
245.694	0.25
245.911	0.13
246.127	0.14
246.344	0.27
246.56	0.2
246.777	0.02
246.993	0.11
247.21	0.13
247.426	0.21
247.643	0.05
247.859	-0.07
248.076	0.1
248.292	0.35
248.508	0.09
248.725	0.17
248.941	0.17
249.157	0.25
249.374	0.09
249.59	0.2
249.806	0.12
250.023	0.21
250.239	0.13
250.455	0.11
250.671	0.14
250.888	0.14
251.104	0.12
251.32	0.02
251.536	0.11
251.752	0.11
251.969	0.11
252.185	0.11
252.401	0.25
252.617	0.22
252.833	0.03
253.049	0.19
253.265	0.11
253.481	0.15
253.697	-0.03
253.913	0.02
254.129	0.12
254.345	0.19
254.561	0.1
254.777	0.07
254.993	0.16
255.209	0.15
255.425	0.1
255.641	0.07
255.857	0.21
256.073	0.1
256.288	0.01
256.504	0.08
256.72	0.18
256.936	0.24
257.152	0.07
257.367	0.06
257.583	0.1
257.799	0.18
258.015	0.08
258.23	0.08
258.446	0.26
258.662	0.07
258.877	0.01
259.093	-0.01
259.309	0.11
259.524	0.14
259.74	0.04
259.955	0.03
260.171	0.15
260.387	0.11
260.602	0.18
260.818	0.15
261.033	0.01
261.249	0.09
261.464	0.05
261.68	-0
261.895	0.11
262.11	0.22
262.326	0.06
262.541	0
262.757	0.17
262.972	0.19
263.187	0.11
263.403	0.17
263.618	0.2
263.833	0.14
264.049	0.01
264.264	0.14
264.479	0.15
264.694	0.29
264.91	0.03
265.125	0.1
265.34	0.19
265.555	0.23
265.77	0.13
265.986	0.1
266.201	0.22
266.416	0.21
266.631	0.07
266.846	0.1
267.061	0.09
267.276	0.15
267.491	-0.04
267.706	0.19
267.921	0.13
268.136	0.12
268.351	0.14
268.566	0.03
268.781	0.2
268.996	0.18
269.211	0.11
269.426	0.06
269.641	0.07
269.856	0.12
270.071	0.11
270.285	0.03
270.5	0.17
270.715	0.2
270.93	0.11
271.145	0.19
271.359	0.18
271.574	0.1
271.789	0.12
272.004	0.09
272.218	0.03
272.433	0.17
272.648	0.1
272.862	0.21
273.077	0.15
273.292	0.13
273.506	0.11
273.721	0.03
273.936	0.15
274.15	0.16
274.365	0.11
274.579	0.15
274.794	0.16
275.008	0.23
275.223	-0.03
275.437	0.07
275.652	0.18
275.866	0.2
276.081	0.11
276.295	0.17
276.509	0.1
276.724	0.14
276.938	0.14
277.153	0.12
277.367	0.22
277.581	0.06
277.796	0.09
278.01	0.06
278.224	0.17
278.438	0.23
278.653	0.05
278.867	0.08
279.081	0.15
279.295	0.08
279.51	0.13
279.724	0.01
279.938	0.19
280.152	0.15
280.366	0.01
280.58	0.13
280.794	0.23
281.008	0.16
281.222	0.19
281.437	0.27
281.651	0.15
281.865	0.22
282.079	0.17
282.293	-0.01
282.507	0.05
282.721	0.12
282.935	0.1
283.148	0.04
283.362	0.06
283.576	0.08
283.79	0.12
284.004	0.04
284.218	0.12
284.432	0.09
284.646	0.07
284.859	0.09
285.073	0.06
285.287	0.14
285.501	0.12
285.714	0.1
285.928	0.15
286.142	0.13
286.356	0.09
286.569	0.13
286.783	0.19
286.997	0.17
287.21	0.16
287.424	0.11
287.637	0.09
287.851	0.07
288.065	0.18
288.278	0.13
288.492	0.13
288.705	0.09
288.919	0.13
289.132	0.04
289.346	0.14
289.559	0.05
289.773	0.04
289.986	0.1
290.2	0.16
290.413	0.16
290.626	0.03
290.84	0.12
291.053	0.13
291.267	0.21
291.48	0.12
291.693	0.14
291.906	0.09
292.12	0.07
292.333	0.08
292.546	0.1
292.76	0.14
292.973	0.17
293.186	0.13
293.399	0.05
293.612	0.18
293.826	0.11
294.039	0.11
294.252	0.15
294.465	0.15
294.678	0.16
294.891	0.12
295.104	0.04
295.317	0.13
295.53	0.13
295.743	0.09
295.956	0.11
296.169	0.16
296.382	0.16
296.595	0.08
296.808	0.13
297.021	0.21
297.234	0.18
297.447	0.09
297.66	0.1
297.873	0.22
298.086	0.14
298.299	0.11
298.511	0
298.724	0.12
298.937	0.07
299.15	0.08
299.363	0.08
299.575	0.19
299.788	0.15
300.001	0.07
300.213	0.13
300.426	0.11
300.639	0.1
300.852	0.09
301.064	0.15
301.277	0.18
301.489	0.17
301.702	0.1
301.915	0.1
302.127	0.12
302.34	0.11
302.552	0.14
302.765	0.08
302.977	0.18
303.19	0.09
303.402	0.14
303.615	0.11
303.827	0.09
304.04	0.12
304.252	0.16
304.464	0.11
304.677	0.24
304.889	0.19
305.102	0.03
305.314	0.05
305.526	0.14
305.739	0.14
305.951	0.08
306.163	0.09
306.375	0.2
306.588	0.12
306.8	0.12
307.012	0.04
307.224	0.11
307.436	0.18
307.649	0.04
307.861	0.17
308.073	0.14
308.285	0.11
308.497	0.07
308.709	0.07
308.921	0.08
309.133	0.15
309.346	0.13
309.558	0.11
309.77	0.13
309.982	0.17
310.194	0.15
310.406	0.08
310.617	0.19
310.829	0.13
311.041	0.11
311.253	0.07
311.465	0.13
311.677	0.1
311.889	0.08
312.101	0.09
312.313	0.18
312.524	0.17
312.736	0.05
312.948	0.05
313.16	0.18
313.372	0.16
313.583	0.12
313.795	0.12
314.007	0.09
314.218	0.14
314.43	0.13
314.642	0.08
314.853	0.07
315.065	0.12
315.277	0.13
315.488	0.11
315.7	0.17
315.912	0.15
316.123	0.09
316.335	0.07
316.546	0.26
316.758	0.11
316.969	0.1
317.181	0.12
317.392	0.08
317.604	0.19
317.815	0.08
318.026	0.08
318.238	0.1
318.449	0.17
318.661	0.07
318.872	0.06
319.083	0.05
319.295	0.16
319.506	0.1
319.717	0.11
319.929	0.17
320.14	0.18
320.351	0.17
320.562	0.07
320.774	0.16
320.985	0.13
321.196	0.12
321.407	0.05
321.618	0.17
321.829	0.11
322.041	0.14
322.252	0.12
322.463	0.12
322.674	0.2
322.885	0.06
323.096	0.11
323.307	0.12
323.518	0.13
323.729	0.11
323.94	0.11
324.151	0.05
324.362	0.09
324.573	0.14
324.784	0.07
324.995	0.2
325.206	0.14
325.417	0.1
325.628	0.11
325.838	0.09
326.049	0.16
326.26	0.13
326.471	0.05
326.682	0.17
326.892	0.13
327.103	0.05
327.314	0.07
327.525	0.19
327.735	0.13
327.946	0.14
328.157	0.1
328.368	0.14
328.578	0.15
328.789	0.12
328.999	0.11
329.21	0.09
329.421	0.19
329.631	0.1
329.842	0.09
330.052	0.09
330.263	0.17
330.473	0.18
330.684	0.08
330.894	0.07
331.105	0.14
331.315	0.12
331.526	0.09
331.736	0.19
331.947	0.13
332.157	0.17
332.367	0.06
332.578	0.12
332.788	0.15
332.999	0.12
333.209	0.12
333.419	0.04
333.629	0.13
333.84	0.16
334.05	0.12
334.26	0.17
334.47	0.13
334.681	0.17
334.891	0.1
335.101	0.14
335.311	0.21
335.521	0.14
335.732	0.09
335.942	0.18
336.152	0.15
336.362	0.11
336.572	0.09
336.782	0.15
336.992	0.08
337.202	0.08
337.412	0.09
337.622	0.11
337.832	0.11
338.042	0.12
338.252	0.11
338.462	0.06
338.672	0.12
338.882	0.07
339.092	0.1
339.302	0.2
339.511	0.12
339.721	0.09
339.931	0.05
340.141	0.16
340.351	0.19
340.561	0.15
340.77	0.15
340.98	0.09
341.19	0.14
341.4	0.09
341.609	0.07
341.819	0.14
342.029	0.05
342.238	0.08
342.448	0.11
342.658	0.14
342.867	0.12
343.077	0.11
343.286	0.16
343.496	0.15
343.706	0.21
343.915	0.04
344.125	0.12
344.334	0.14
344.544	0.07
344.753	0.07
344.963	0.09
345.172	0.09
345.381	0.1
345.591	0.09
345.8	0.13
346.01	0.13
346.219	0.14
346.428	-0.02
346.638	0.15
346.847	0.09
347.056	0.19
347.266	0.12
347.475	0.08
347.684	0.15
347.893	0.11
348.103	0.13
348.312	0.11
348.521	0.12
348.73	0.1
348.94	0.11
349.149	0.12
349.358	0.1
349.567	0.09
349.776	0.06
349.985	0.07
350.194	0.17
350.403	0.19
350.612	0.05
350.821	0.11
351.03	0.11
351.239	0.04
351.448	0.1
351.657	0.1
351.866	0.19
352.075	0.19
352.284	0.11
352.493	0.06
352.702	0.2
352.911	0.15
353.12	0.11
353.329	0.11
353.538	0.16
353.746	0.13
353.955	0.05
354.164	0.15
354.373	0.09
354.582	0.15
354.79	0.13
354.999	0.17
355.208	0.12
355.416	0.16
355.625	0.1
355.834	0.1
356.042	0.12
356.251	0.1
356.46	0.07
356.668	0.13
356.877	0.22
357.085	0.16
357.294	0.05
357.503	0.12
357.711	0.1
357.92	0.25
358.128	0.12
358.337	0.11
358.545	0.14
358.754	0.08
358.962	0.18
359.17	0.11
359.379	0.12
359.587	0.12
359.796	0.11
360.004	0.17
360.212	0.15
360.421	0.18
360.629	0.12
360.837	0.12
361.046	0.17
361.254	0.26
361.462	0.12
361.67	0.1
361.879	0.11
362.087	0.19
362.295	0.13
362.503	0.14
362.711	0.08
362.92	0.14
363.128	0.1
363.336	0.05
363.544	0.05
363.752	0.09
363.96	0.07
364.168	0.09
364.376	0.09
364.584	0.14
364.792	0.18
365	0.14
365.208	0.12
365.416	0.14
365.624	0.14
365.832	0.12
366.04	0.17
366.248	0.08
366.456	0.16
366.664	0.11
366.872	0.11
367.079	0.11
367.287	0.13
367.495	0.14
367.703	0.11
367.911	0.09
368.118	0.15
368.326	0.15
368.534	0.05
368.742	0.17
368.949	0.06
369.157	0.1
369.365	0.18
369.572	0.15
369.78	0.09
369.988	0.17
370.195	0.11
370.403	0.16
370.61	0.13
370.818	0.11
371.026	0.19
371.233	0.11
371.441	0.16
371.648	0.12
371.856	0.11
372.063	0.09
372.271	0.09
372.478	0.05
372.685	0.1
372.893	0.18
373.1	0.13
373.308	0.09
373.515	0.18
373.722	0.17
373.93	0.13
374.137	0.19
374.344	0.2
374.552	0.14
374.759	0.17
374.966	0.15
375.173	0.08
375.381	0.14
375.588	0.11
375.795	0.03
376.002	0.08
376.209	0.13
376.417	0.12
376.624	0.1
376.831	0.15
377.038	0.12
377.245	0.07
377.452	0.13
377.659	0.15
377.866	0.1
378.073	0.13
378.28	0.11
378.487	0.14
378.694	0.16
378.901	0.11
379.108	0.14
379.315	0.17
379.522	0.24
379.729	0.12
379.936	0.1
380.143	0.11
380.35	0.12
380.557	0.14
380.763	0.12
380.97	0.09
381.177	0.1
381.384	0.16
381.591	0.09
381.797	0.13
382.004	0.2
382.211	0.18
382.418	0.12
382.624	0.21
382.831	0.12
383.038	0.12
383.244	0.14
383.451	0.12
383.658	0.16
383.864	0.1
384.071	0.09
384.277	0.22
384.484	0.1
384.69	0.23
384.897	0.12
385.103	0.11
385.31	0.1
385.516	0.14
385.723	0.06
385.929	0.12
386.136	0.13
386.342	0.14
386.549	0.13
386.755	0.25
386.961	0.19
387.168	0.13
387.374	0.12
387.58	0.15
387.787	0.2
387.993	0.17
388.199	0.17
388.406	0.17
388.612	0.16
388.818	0.13
389.024	0.15
389.231	0.13
389.437	0.24
389.643	0.15
389.849	0.16
390.055	0.15
390.261	0.2
390.467	0.14
390.674	0.08
390.88	0.14
391.086	0.17
391.292	0.12
391.498	0.17
391.704	0.2
391.91	0.12
392.116	0.13
392.322	0.08
392.528	0.14
392.734	0.17
392.94	0.16
393.146	0.12
393.352	0.19
393.557	0.1
393.763	0.17
393.969	0.19
394.175	0.17
394.381	0.18
394.587	0.14
394.792	0.15
394.998	0.2
395.204	0.17
395.41	0.12
395.615	0.19
395.821	0.24
396.027	0.19
396.233	0.13
396.438	0.19
396.644	0.24
396.85	0.19
397.055	0.14
397.261	0.18
397.466	0.28
397.672	0.21
397.878	0.18
398.083	0.17
398.289	0.15
398.494	0.21
398.7	0.21
398.905	0.09
399.111	0.25
399.316	0.12
399.522	0.22
399.727	0.14
399.932	0.15
400.138	0.17
400.343	0.23
400.549	0.19
400.754	0.2
400.959	0.18
401.165	0.21
401.37	0.22
401.575	0.28
401.78	0.23
401.986	0.17
402.191	0.2
402.396	0.17
402.601	0.26
402.807	0.2
403.012	0.21
403.217	0.27
403.422	0.17
403.627	0.22
403.832	0.18
404.037	0.26
404.243	0.27
404.448	0.2
404.653	0.21
404.858	0.24
405.063	0.28
405.268	0.24
405.473	0.22
405.678	0.22
405.883	0.45
406.088	0.28
406.293	0.21
406.498	0.25
406.703	0.32
406.907	0.27
407.112	0.24
407.317	0.3
407.522	0.31
407.727	0.23
407.932	0.36
408.136	0.45
408.341	0.33
408.546	0.36
408.751	0.35
408.956	0.35
409.16	0.4
409.365	0.36
409.57	0.31
409.774	0.39
409.979	0.45
410.184	0.41
410.388	0.33
410.593	0.48
410.798	0.39
411.002	0.44
411.207	0.51
411.411	0.46
411.616	0.46
411.82	0.48
412.025	0.54
412.229	0.48
412.434	0.59
412.638	0.55
412.843	0.51
413.047	0.57
413.252	0.55
413.456	0.63
413.66	0.69
413.865	0.65
414.069	0.78
414.273	0.71
414.478	0.71
414.682	0.71
414.886	0.73
415.091	0.75
415.295	0.75
415.499	0.89
415.703	0.81
415.908	0.91
416.112	0.85
416.316	1.07
416.52	1.03
416.724	0.97
416.929	1.1
417.133	1.27
417.337	1.13
417.541	1.22
417.745	1.24
417.949	1.4
418.153	1.38
418.357	1.42
418.561	1.57
418.765	1.59
418.969	1.68
419.173	1.75
419.377	1.7
419.581	1.87
419.785	1.87
419.989	1.91
420.193	2.07
420.397	2.13
420.601	2.28
420.804	2.34
421.008	2.34
421.212	2.42
421.416	2.57
421.62	2.51
421.823	2.59
422.027	2.74
422.231	2.78
422.435	2.79
422.638	2.9
422.842	2.98
423.046	3.12
423.249	3.25
423.453	3.3
423.657	3.41
423.86	3.47
424.064	3.66
424.268	3.86
424.471	3.9
424.675	4.19
424.878	4.18
425.082	4.32
425.285	4.6
425.489	4.59
425.692	4.73
425.896	4.8
426.099	5.07
426.303	5.32
426.506	5.36
426.71	5.72
426.913	5.96
427.116	6.09
427.32	6.14
427.523	6.24
427.726	6.63
427.93	6.78
428.133	7.12
428.336	7.34
428.54	7.55
428.743	7.91
428.946	8.17
429.149	8.26
429.353	8.28
429.556	8.5
429.759	8.51
429.962	8.77
430.165	8.93
430.368	8.72
430.571	8.76
430.775	8.93
430.978	8.91
431.181	8.99
431.384	9.23
431.587	9.38
431.79	9.91
431.993	9.76
432.196	10.21
432.399	10.74
432.602	10.81
432.805	11.08
433.008	11.84
433.211	11.63
433.414	12.11
433.616	12.22
433.819	12.12
434.022	12.48
434.225	12.67
434.428	12.74
434.631	13.38
434.833	13.2
435.036	13.65
435.239	13.89
435.442	14.15
435.645	14.25
435.847	14.56
436.05	14.99
436.253	15.37
436.455	15.55
436.658	15.39
436.861	15.77
437.063	16.13
437.266	16.23
437.468	16.66
437.671	17.17
437.874	17.35
438.076	17.3
438.279	18.08
438.481	18.12
438.684	19.47
438.886	18.9
439.089	19.58
439.291	19.62
439.494	20.28
439.696	20.77
439.899	21.66
440.101	22.37
440.303	22.9
440.506	23.93
440.708	23.71
440.91	24.2
441.113	24.91
441.315	25.35
441.517	25.35
441.72	26.11
441.922	25.88
442.124	25.93
442.326	26.66
442.529	27.29
442.731	27.56
442.933	28.11
443.135	28.1
443.337	28.32
443.539	29.54
443.742	29.09
443.944	30.3
444.146	30.05
444.348	30.19
444.55	30.39
444.752	30.86
444.954	31.07
445.156	31.1
445.358	32.05
445.56	32.5
445.762	32.48
445.964	33.36
446.166	32.89
446.368	33.29
446.57	33.4
446.772	32.94
446.974	32.72
447.175	33.36
447.377	33.05
447.579	33.92
447.781	33.64
447.983	33.17
448.184	32.6
448.386	33.36
448.588	32.71
448.79	32.61
448.991	33.56
449.193	33.61
449.395	32.11
449.597	31.45
449.798	31.39
450	30.53
450.202	30.6
450.403	30.84
450.605	30.42
450.806	29.84
451.008	29.61
451.21	29.17
451.411	28.24
451.613	26.81
451.814	27.41
452.016	27.11
452.217	25.88
452.419	25.84
452.62	25.28
452.821	24.73
453.023	24.5
453.224	23.84
453.426	23.02
453.627	21.62
453.828	21.66
454.03	21.81
454.231	21.83
454.432	21.35
454.634	20.77
454.835	20.2
455.036	20.07
455.238	19.34
455.439	18.55
455.64	18.14
455.841	17.99
456.042	17.89
456.244	17.5
456.445	16.95
456.646	16.4
456.847	16.15
457.048	15.91
457.249	15.97
457.45	15.23
457.651	14.61
457.852	14.12
458.054	13.58
458.255	13.34
458.456	13.52
458.657	13.29
458.858	12.57
459.058	12.16
459.259	12.38
459.46	11.9
459.661	11.72
459.862	11.63
460.063	11.6
460.264	11.31
460.465	10.9
460.666	10.74
460.866	10.34
461.067	9.85
461.268	9.98
461.469	9.87
461.67	9.57
461.87	9.35
462.071	9.27
462.272	8.96
462.473	8.86
462.673	9.14
462.874	9.02
463.075	8.79
463.275	8.73
463.476	8.77
463.676	8.63
463.877	8.35
464.078	8.3
464.278	8.22
464.479	8.04
464.679	7.74
464.88	7.65
465.08	7.55
465.281	7.33
465.481	6.87
465.682	6.57
465.882	6.59
466.083	6.39
466.283	6.26
466.483	6.02
466.684	5.7
466.884	5.49
467.085	5.53
467.285	5.54
467.485	5.32
467.686	5.18
467.886	5.01
468.086	4.81
468.286	4.82
468.487	4.81
468.687	4.55
468.887	4.43
469.087	4.56
469.287	4.37
469.488	4.07
469.688	4.25
469.888	4.17
470.088	4.02
470.288	3.89
470.488	3.8
470.688	3.64
470.888	3.58
471.088	3.36
471.288	3.39
471.488	3.33
471.688	3.23
471.888	3.16
472.088	3.23
472.288	3.08
472.488	2.99
472.688	2.84
472.888	2.89
473.088	2.92
473.288	2.65
473.488	2.65
473.688	2.73
473.887	2.59
474.087	2.49
474.287	2.47
474.487	2.43
474.687	2.4
474.886	2.24
475.086	2.23
475.286	2.21
475.486	2.17
475.685	2.09
475.885	1.97
476.085	2.08
476.284	2
476.484	1.92
476.684	1.94
476.883	1.95
477.083	1.81
477.282	1.78
477.482	1.79
477.681	1.74
477.881	1.66
478.08	1.62
478.28	1.55
478.479	1.61
478.679	1.6
478.878	1.48
479.078	1.49
479.277	1.49
479.477	1.41
479.676	1.39
479.875	1.35
480.075	1.31
480.274	1.31
480.473	1.29
480.673	1.27
480.872	1.3
481.071	1.22
481.271	1.24
481.47	1.12
481.669	1.12
481.868	1.08
482.067	1.12
482.267	1.01
482.466	0.98
482.665	1
482.864	0.98
483.063	0.95
483.262	0.95
483.461	1.01
483.661	0.98
483.86	0.9
484.059	0.89
484.258	0.88
484.457	0.86
484.656	0.86
484.855	0.83
485.054	0.71
485.253	0.76
485.452	0.7
485.651	0.75
485.849	0.73
486.048	0.67
486.247	0.65
486.446	0.7
486.645	0.62
486.844	0.63
487.043	0.62
487.241	0.63
487.44	0.55
487.639	0.58
487.838	0.6
488.037	0.59
488.235	0.6
488.434	0.55
488.633	0.47
488.831	0.54
489.03	0.55
489.229	0.51
489.427	0.47
489.626	0.51
489.825	0.52
490.023	0.44
490.222	0.44
490.42	0.44
490.619	0.46
490.817	0.43
491.016	0.37
491.214	0.42
491.413	0.37
491.611	0.37
491.81	0.36
492.008	0.38
492.207	0.39
492.405	0.36
492.604	0.29
492.802	0.37
493	0.34
493.199	0.34
493.397	0.31
493.595	0.32
493.794	0.3
493.992	0.36
494.19	0.3
494.388	0.34
494.587	0.28
494.785	0.31
494.983	0.22
495.181	0.29
495.379	0.26
495.578	0.26
495.776	0.29
495.974	0.27
496.172	0.24
496.37	0.25
496.568	0.22
496.766	0.24
496.964	0.3
497.162	0.23
497.36	0.2
497.558	0.24
497.756	0.27
497.954	0.22
498.152	0.22
498.35	0.22
498.548	0.21
498.746	0.21
498.944	0.2
499.142	0.2
499.34	0.18
499.538	0.22
499.736	0.18
499.933	0.25
500.131	0.22
500.329	0.21
500.527	0.22
500.725	0.2
500.922	0.21
501.12	0.18
501.318	0.19
501.516	0.14
501.713	0.18
501.911	0.17
502.109	0.16
502.306	0.18
502.504	0.15
502.701	0.15
502.899	0.14
503.097	0.21
503.294	0.17
503.492	0.15
503.689	0.17
503.887	0.18
504.084	0.2
504.282	0.14
504.479	0.12
504.677	0.15
504.874	0.13
505.072	0.16
505.269	0.12
505.466	0.17
505.664	0.17
505.861	0.11
506.059	0.11
506.256	0.14
506.453	0.1
506.651	0.17
506.848	0.15
507.045	0.15
507.242	0.12
507.44	0.1
507.637	0.15
507.834	0.15
508.031	0.14
508.229	0.1
508.426	0.12
508.623	0.14
508.82	0.11
509.017	0.07
509.214	0.1
509.411	0.1
509.608	0.09
509.805	0.08
510.003	0.1
510.2	0.09
510.397	0.12
510.594	0.09
510.791	0.07
510.988	0.11
511.184	0.13
511.381	0.1
511.578	0.09
511.775	0.15
511.972	0.09
512.169	0.09
512.366	0.1
512.563	0.12
512.76	0.09
512.956	0.11
513.153	0.08
513.35	0.14
513.547	0.06
513.744	0.08
513.94	0.08
514.137	0.09
514.334	0.12
514.53	0.08
514.727	0.09
514.924	0.16
515.12	0.07
515.317	0.07
515.514	0.08
515.71	0.08
515.907	0.08
516.103	0.09
516.3	0.11
516.497	0.12
516.693	0.11
516.89	0.07
517.086	0.06
517.283	0.13
517.479	0.1
517.676	0.09
517.872	0.08
518.068	0.06
518.265	0.08
518.461	0.08
518.658	0.04
518.854	0.08
519.05	0.07
519.247	0.06
519.443	0.08
519.639	0.07
519.836	0.09
520.032	0.1
520.228	0.08
520.424	0.13
520.621	0.11
520.817	0.07
521.013	0.08
521.209	0.07
521.405	0.12
521.601	0.08
521.798	0.09
521.994	0.13
522.19	0.05
522.386	0.03
522.582	0.05
522.778	0.09
522.974	0.05
523.17	0.05
523.366	0.08
523.562	0.1
523.758	0.07
523.954	0.03
524.15	0.06
524.346	0.11
524.542	0.06
524.738	0.05
524.934	0.06
525.129	0.07
525.325	0.08
525.521	0.05
525.717	0.08
525.913	0.09
526.109	0.08
526.304	0.06
526.5	0.08
526.696	0.09
526.892	0.06
527.087	0.05
527.283	0.06
527.479	0.07
527.674	0.05
527.87	0.06
528.066	0.05
528.261	0.07
528.457	0.06
528.653	0.06
528.848	0.04
529.044	0.06
529.239	0.05
529.435	0.09
529.63	0.08
529.826	0.12
530.021	0.08
530.217	0.1
530.412	0.07
530.608	0.05
530.803	0.05
530.999	0.06
531.194	0.02
531.389	0.08
531.585	0.02
531.78	0.07
531.975	0.05
532.171	0.09
532.366	0.06
532.561	0.05
532.757	0.04
532.952	0.06
533.147	0.1
533.342	0.06
533.538	0.05
533.733	0.08
533.928	0.05
534.123	0.04
534.318	0.03
534.513	0.04
534.709	0.05
534.904	0.03
535.099	0.06
535.294	0.06
535.489	0.05
535.684	0.05
535.879	0.02
536.074	0.05
536.269	0.03
536.464	0.06
536.659	0.05
536.854	0.05
537.049	0.06
537.244	0.05
537.439	0.05
537.634	0.09
537.828	0.07
538.023	0.05
538.218	0.02
538.413	0.04
538.608	0.03
538.803	0.06
538.997	0.02
539.192	0.1
539.387	0.08
539.582	0.06
539.776	0.06
539.971	0.03
540.166	0.06
540.36	0.02
540.555	0.04
540.75	0.04
540.944	0.05
541.139	0.02
541.334	0.05
541.528	0.08
541.723	0.06
541.917	0.05
542.112	0.01
542.306	0.05
542.501	0.03
542.695	0.05
542.89	0.04
543.084	0.07
543.279	0.03
543.473	0.06
543.668	0.05
543.862	0.05
544.056	0.07
544.251	0.01
544.445	0.06
544.64	0.02
544.834	0.01
545.028	0.04
545.222	0.06
545.417	0.06
545.611	0.05
545.805	0.05
546	0.05
546.194	0.03
546.388	0.01
546.582	0.06
546.776	0.04
546.97	0.06
547.165	0.06
547.359	0.08
547.553	0.02
547.747	0.08
547.941	0.07
548.135	0.05
548.329	0.07
548.523	0.07
548.717	0.02
548.911	0.03
549.105	0.03
549.299	0.07
549.493	0.06
549.687	0.07
549.881	0.07
550.075	0.03
550.269	0.01
550.463	0.07
550.657	0.03
550.85	0.04
551.044	0.03
551.238	0.06
551.432	0.05
551.626	0.04
551.82	0.05
552.013	0.01
552.207	0.04
552.401	0.09
552.594	0.07
552.788	0.03
552.982	0.06
553.176	0.04
553.369	0.06
553.563	0.04
553.756	0.01
553.95	0.02
554.144	0.03
554.337	0.06
554.531	0.06
554.724	0.04
554.918	0.05
555.111	0.07
555.305	0.05
555.498	0.1
555.692	0.06
555.885	0.04
556.079	0.06
556.272	0.02
556.466	0.07
556.659	0.06
556.852	0.05
557.046	0.04
557.239	0.05
557.432	0.01
557.626	0.02
557.819	0.06
558.012	0.06
558.206	0.06
558.399	0.05
558.592	0.04
558.785	0.03
558.979	0.06
559.172	0.05
559.365	0.06
559.558	0.07
559.751	0.04
559.944	0.03
560.138	0.01
560.331	0.03
560.524	0.04
560.717	0.05
560.91	0.02
561.103	0.06
561.296	0.03
561.489	0.05
561.682	0.04
561.875	0.07
562.068	0.06
562.261	0.04
562.454	0.09
562.647	0.04
562.84	0.06
563.032	0.02
563.225	0.07
563.418	0.02
563.611	0.03
563.804	0.04
563.997	0.03
564.19	0.02
564.382	0.06
564.575	0.03
564.768	0.03
564.961	0.04
565.153	0.02
565.346	0.08
565.539	0.06
565.731	0.08
565.924	0.06
566.117	0.07
566.309	0.05
566.502	0.02
566.695	0.06
566.887	0.06
567.08	0.03
567.272	0.02
567.465	0.02
567.657	0.05
567.85	0.06
568.042	0.06
568.235	0.07
568.427	0.02
568.62	0.04
568.812	0.04
569.005	0.04
569.197	0
569.389	0.06
569.582	0.03
569.774	0.05
569.966	0.01
570.159	0.02
570.351	0.06
570.543	0.03
570.736	0.05
570.928	-0
571.12	0.06
571.312	0.01
571.505	0.02
571.697	0.06
571.889	0.01
572.081	0.01
572.273	0.01
572.465	0.07
572.658	0.03
572.85	0.06
573.042	0.04
573.234	0.02
573.426	0.07
573.618	0.01
573.81	0.05
574.002	0.06
574.194	0.08
574.386	-0.01
574.578	-0.03
574.77	0.01
574.962	0.04
575.154	0
575.346	0.02
575.538	0.04
575.729	0.02
575.921	0.04
576.113	0.01
576.305	0.06
576.497	0.01
576.689	0.04
576.88	0.03
577.072	0.05
577.264	0.02
577.456	0.02
577.647	-0.05
577.839	0.03
578.031	0.08
578.223	-0.01
578.414	-0.01
578.606	0.03
578.798	0.05
578.989	-0.01
579.181	0.02
579.372	0.03
579.564	0.05
579.755	0.05
579.947	0.04
580.139	0.05
580.33	-0.03
580.522	0.02
580.713	-0.03
580.905	0.04
581.096	0.05
581.287	0.04
581.479	0.05
581.67	0.07
581.862	0.02
582.053	0.01
582.244	-0.03
582.436	0.03
582.627	0.04
582.818	0.02
583.01	0.02
583.201	0.05
583.392	0.06
583.583	0.02
583.775	0.01
583.966	0.02
584.157	0.01
584.348	0.03
584.54	-0.01
584.731	0.05
584.922	0.04
585.113	0
585.304	0.05
585.495	0.07
585.686	0.01
585.877	0.07
586.068	0.05
586.259	0.02
586.45	0.05
586.641	-0.01
586.832	-0.02
587.023	0.02
587.214	0.05
587.405	0.04
587.596	0.02
587.787	0.08
587.978	0.04
588.169	0.01
588.36	-0
588.551	0.05
588.742	0.02
588.932	0.05
589.123	0.02
589.314	0.04
589.505	0.05
589.696	0.02
589.886	-0
590.077	-0
590.268	0.05
590.458	-0.01
590.649	-0.01
590.84	0.08
591.03	0.02
591.221	0.02
591.412	-0.01
591.602	0.05
591.793	0.04
591.984	-0
592.174	0.03
592.365	0.1
592.555	-0.01
592.746	0.02
592.936	0.06
593.127	0.04
593.317	0.07
593.508	0.01
593.698	0.01
593.889	0.03
594.079	0.05
594.269	-0
594.46	0.02
594.65	0.04
594.84	0.02
595.031	-0.02
595.221	0.01
595.411	-0.01
595.602	0.05
595.792	0.03
595.982	0
596.172	0.08
596.363	0.04
596.553	0.03
596.743	0.02
596.933	0.02
597.123	0.07
597.314	-0.01
597.504	-0.02
597.694	0.07
597.884	0.05
598.074	0.02
598.264	-0
598.454	0.04
598.644	0.05
598.834	0.03
599.024	-0.04
599.214	0.01
599.404	0.06
599.594	0.01
599.784	0.01
599.974	0.07
600.164	0.04
600.354	-0.01
600.544	-0.02
600.734	0.03
600.924	0.05
601.114	0
601.303	0.02
601.493	0.03
601.683	0.03
601.873	0.04
602.063	-0.02
602.252	0.05
602.442	-0.03
602.632	-0.01
602.821	-0.02
603.011	0.05
603.201	0.02
603.39	-0.02
603.58	0
603.77	0.06
603.959	0.07
604.149	0.04
604.339	0.02
604.528	0.06
604.718	0.04
604.907	-0.01
605.097	0.02
605.286	-0
605.476	0.06
605.665	0.04
605.855	0.02
606.044	0.06
606.234	0.03
606.423	0.01
606.612	-0
606.802	0.04
606.991	0.03
607.181	0.05
607.37	-0.01
607.559	0.01
607.749	-0.03
607.938	0.03
608.127	0.02
608.316	-0
608.506	0.05
608.695	0.01
608.884	-0
609.073	0.03
609.263	0.06
609.452	0.06
609.641	0.02
609.83	0.02
610.019	0.03
610.208	-0.01
610.397	0.03
610.586	0.07
610.775	-0
610.965	-0
611.154	0.02
611.343	0.03
611.532	0.04
611.721	-0.01
611.91	-0
612.099	0.05
612.287	0.01
612.476	0
612.665	-0.01
612.854	0.01
613.043	0.08
613.232	0
613.421	-0.02
613.61	0.03
613.798	0.01
613.987	0.05
614.176	0.02
614.365	0.06
614.554	0.04
614.742	0.05
614.931	0.01
615.12	0.08
615.309	-0.02
615.497	0.04
615.686	0.01
615.875	0.02
616.063	0.03
616.252	0
616.44	0
616.629	0.05
616.818	0.07
617.006	0.02
617.195	0.02
617.383	0.03
617.572	0.01
617.76	-0.01
617.949	0
618.137	0.04
618.326	0.07
618.514	0
618.703	-0
618.891	0.08
619.079	-0.03
619.268	0.05
619.456	0.01
619.644	0.07
619.833	0.01
620.021	0.02
620.209	-0.02
620.398	0.03
620.586	0.05
620.774	0.06
620.962	0
621.151	0.08
621.339	0.05
621.527	0.01
621.715	-0.02
621.903	-0.02
622.092	-0.05
622.28	0.04
622.468	0.01
622.656	-0.02
622.844	0.05
623.032	0.01
623.22	-0.03
623.408	0.06
623.596	0
623.784	0.05
623.972	0.02
624.16	0.02
624.348	0.1
624.536	0.01
624.724	0.02
624.912	0.07
625.1	0.05
625.288	-0.02
625.476	-0.02
625.664	0.06
625.851	0.02
626.039	0.02
626.227	0.03
626.415	0.02
626.603	-0.02
626.79	0.02
626.978	0.01
627.166	0.06
627.354	0.02
627.541	0.01
627.729	-0.03
627.917	0.09
628.104	0.07
628.292	0.01
628.48	0
628.667	0.01
628.855	0.01
629.042	0.02
629.23	0.01
629.418	0.02
629.605	0.02
629.793	-0.01
629.98	-0.04
630.168	0.04
630.355	0.05
630.543	0.02
630.73	-0.01
630.917	0.04
631.105	0.08
631.292	-0.02
631.48	0.01
631.667	0.07
631.854	0.03
632.042	0
632.229	-0.01
632.416	0.02
632.604	-0
632.791	-0.03
632.978	0.04
633.165	0.01
633.353	0.1
633.54	0.04
633.727	-0.05
633.914	0.01
634.101	-0.03
634.289	0.07
634.476	0
634.663	-0.02
634.85	0.06
635.037	-0.01
635.224	-0.06
635.411	0.04
635.598	0.07
635.785	0.02
635.972	0.02
636.159	0.06
636.346	-0.02
636.533	0.05
636.72	0.02
636.907	0.04
637.094	0.02
637.281	-0
637.468	0.03
637.655	0
637.842	0.02
638.029	0.02
638.215	0.05
638.402	0.05
638.589	-0.01
638.776	-0.01
638.963	0
639.149	0.05
639.336	0.09
639.523	0.01
639.709	0.04
639.896	-0.03
640.083	0.07
640.27	0.03
640.456	0.02
640.643	0.05
640.829	-0.03
641.016	0.01
641.203	-0.04
641.389	0.05
641.576	0.05
641.762	-0.01
641.949	0
642.135	0.03
642.322	0.03
642.508	-0.04
642.695	0.01
642.881	0.03
643.068	0.04
643.254	0.02
643.441	0.06
643.627	0.01
643.813	-0.01
644	0.02
644.186	-0.02
644.372	0.04
644.559	0.05
644.745	0
644.931	-0.02
645.118	-0.01
645.304	0.02
645.49	-0.03
645.676	0.01
645.862	0.05
646.049	0.07
646.235	0.02
646.421	0.11
646.607	0.09
646.793	0.02
646.979	-0.02
647.165	-0.01
647.352	0.02
647.538	0.08
647.724	0.03
647.91	0.03
648.096	0.06
648.282	0.02
648.468	0.01
648.654	0.03
648.84	0.03
649.026	0
649.212	0.03
649.397	-0.02
649.583	0.01
649.769	0.03
649.955	0
650.141	0.02
650.327	0.07
650.513	-0.03
650.698	0.05
650.884	-0.05
651.07	0.05
651.256	0.07
651.442	-0.01
651.627	0.01
651.813	0.03
651.999	0.01
652.184	0.02
652.37	-0
652.556	-0.01
652.741	0.08
652.927	-0.06
653.113	0
653.298	0.03
653.484	0
653.669	-0.03
653.855	0.02
654.04	0.02
654.226	0.07
654.412	-0.04
654.597	-0.04
654.782	0.04
654.968	0.03
655.153	0.03
655.339	0.01
655.524	-0.01
655.71	0.07
655.895	-0.01
656.08	0.01
656.266	0.05
656.451	0.02
656.636	0.02
656.822	0.03
657.007	0.01
657.192	0
657.378	-0.01
657.563	0.01
657.748	0.05
657.933	0.02
658.118	0
658.304	-0.02
658.489	0.05
658.674	0.05
658.859	-0.05
659.044	0.05
659.229	0.03
659.414	-0.01
659.599	-0
659.785	-0.05
659.97	0.01
660.155	0.03
660.34	0.04
660.525	0
660.71	-0.01
660.895	0.03
661.08	0.03
661.264	-0.04
661.449	0.04
661.634	0.07
661.819	0.04
662.004	0.07
662.189	-0.07
662.374	0.01
662.559	-0.03
662.743	-0.06
662.928	0
663.113	0
663.298	-0.04
663.483	-0.01
663.667	0.03
663.852	-0
664.037	0.06
664.221	-0.02
664.406	0.03
664.591	-0
664.775	0
664.96	0.03
665.145	0.02
665.329	0.05
665.514	0.02
665.698	-0.02
665.883	-0.07
666.068	0.09
666.252	0.04
666.437	-0.02
666.621	-0.02
666.806	0.05
666.99	0.04
667.174	-0.04
667.359	0.08
667.543	0.04
667.728	0.01
667.912	-0.04
668.096	0.08
668.281	0.01
668.465	-0.01
668.649	-0
668.834	0.02
669.018	-0.02
669.202	-0.03
669.387	-0.01
669.571	0.06
669.755	-0.03
669.939	-0.01
670.124	0.03
670.308	0.08
670.492	0.04
670.676	0.01
670.86	0
671.044	-0.03
671.228	0.03
671.413	-0.01
671.597	-0.01
671.781	-0.02
671.965	0.02
672.149	0
672.333	0.05
672.517	0.02
672.701	0.06
672.885	0.01
673.069	-0.07
673.253	0.1
673.437	0.01
673.621	0.01
673.804	0.04
673.988	-0.04
674.172	-0.04
674.356	-0.08
674.54	-0
674.724	0.11
674.908	-0
675.091	0.05
675.275	0.03
675.459	0.08
675.643	0.08
675.826	0.04
676.01	-0
676.194	-0.01
676.377	0.1
676.561	0.04
676.745	0.01
676.928	0
677.112	0.08
677.296	-0.02
677.479	-0.02
677.663	-0.06
677.846	0.1
678.03	-0
678.213	0
678.397	0.07
678.58	0.03
678.764	-0.04
678.947	-0.06
679.131	-0.02
679.314	0.07
679.498	0.02
679.681	0.02
679.865	0.04
680.048	-0.01
680.231	-0.02
680.415	-0.03
680.598	0.04
680.781	-0.04
680.965	0.01
681.148	0
681.331	-0.01
681.514	0.07
681.698	-0.01
681.881	0.02
682.064	-0
682.247	-0.01
682.43	-0.05
682.614	0.07
682.797	0.05
682.98	0.04
683.163	-0.03
683.346	0.03
683.529	0.02
683.712	-0.02
683.895	0.04
684.078	-0.07
684.261	-0.01
684.444	0.02
684.627	0.03
684.81	-0.04
684.993	0.02
685.176	0.04
685.359	0.01
685.542	0
685.725	0.12
685.908	0.02
686.091	0
686.274	0.06
686.457	0
686.639	0.02
686.822	0.03
687.005	0.02
687.188	0.05
687.371	0.12
687.553	0.04
687.736	0.04
687.919	0.12
688.102	0.11
688.284	-0.02
688.467	0
688.65	0.02
688.832	0.01
689.015	0.02
689.197	-0.04
689.38	0.1
689.563	0.13
689.745	-0.01
689.928	-0.01
690.11	0.03
690.293	0.05
690.475	-0
690.658	0.01
690.84	0.02
691.023	-0
691.205	-0.01
691.388	0.06
691.57	0.07
691.752	0.02
691.935	-0.04
692.117	0.01
692.3	-0.01
692.482	0.02
692.664	0.02
692.847	0.04
693.029	0.1
693.211	0.01
693.393	0.04
693.576	-0.05
693.758	0.04
693.94	0.01
694.122	0
694.304	0.03
694.487	0.02
694.669	0.12
694.851	-0.02
695.033	0.02
695.215	-0.06
695.397	-0.01
695.579	0.04
695.761	-0.01
695.943	-0.08
696.125	0.09
696.308	0.01
696.49	-0.08
696.671	0.14
696.853	-0.03
697.035	0.16
697.217	0.07
697.399	0.08
697.581	-0.02
697.763	-0.02
697.945	-0.03
698.127	-0.02
698.309	0.1
698.491	0.04
698.672	0.06
698.854	0.07
699.036	0.09
699.218	-0.07
699.399	0.04
699.581	0.07
699.763	0.02
699.945	-0.08
700.126	-0.06
700.308	-0.01
700.49	-0
700.671	-0.11
700.853	0.01
701.035	-0.06
701.216	0.01
701.398	-0.02
701.579	0.05
701.761	0.11
701.943	-0.01
702.124	-0.03
702.306	0.02
702.487	0.2
702.669	0.03
702.85	-0.05
703.031	-0.07
703.213	0.08
703.394	0.06
703.576	0
703.757	0.11
703.938	0.08
704.12	0.13
704.301	-0.01
704.483	-0.01
704.664	0.02
704.845	0.17
705.026	0.09
705.208	0.01
705.389	0.06
705.57	0.02
705.751	0
705.933	0.07
706.114	0.09
706.295	0.04
706.476	-0.09
706.657	0.09
706.838	0.06
707.02	0.12
707.201	-0.06
707.382	0.02
707.563	0.07
707.744	-0.02
707.925	-0.06
708.106	-0.07
708.287	0.07
708.468	0.14
708.649	0.01
708.83	0.11
709.011	0.02
709.192	0.11
709.373	-0.13
709.554	-0.03
709.734	0.06
709.915	0.02
710.096	-0.01
710.277	-0.06
710.458	0.07
710.639	-0
710.819	-0.1
711	0.07
711.181	0.04
711.362	0.11
711.542	0.01
711.723	0
711.904	0.07
712.085	0.05
712.265	0.02
712.446	0.03
712.627	-0.04
712.807	-0
712.988	0.04
713.168	-0.06
713.349	0.05
713.53	-0.09
713.71	-0.02
713.891	-0.09
714.071	0.01
714.252	0.03
714.432	0.02
714.613	-0.07
714.793	0.04
714.974	0.09
715.154	0.05
715.334	0.08
715.515	0.11
715.695	-0.03
715.876	-0.04
716.056	-0.02
716.236	0
716.417	0.01
716.597	-0.09
716.777	0.24
716.957	0
717.138	0.01
717.318	-0.01
717.498	-0.04
717.678	0.03
717.859	0.09
718.039	-0.1
718.219	0.01
718.399	0.05
718.579	-0.04
718.759	-0.02
718.939	0.14
719.12	0.03
719.3	0.06
719.48	-0.08
719.66	-0.1
719.84	0.12
720.02	0.06
720.2	-0.04
720.38	0.06
720.56	0.13
720.74	0.01
720.92	0.04
721.1	0.07
721.279	0.07
721.459	0
721.639	-0.11
721.819	-0.01
721.999	0.01
722.179	0.06
722.359	-0.06
722.538	0.08
722.718	-0.02
722.898	-0
723.078	-0.01
723.257	0.03
723.437	0.05
723.617	-0.03
723.797	-0.03
723.976	-0.04
724.156	0.03
724.336	0.17
724.515	0.12
724.695	-0.14
724.874	0.06
725.054	0.05
725.234	-0.04
725.413	0.03
725.593	0.01
725.772	-0.08
725.952	0.01
726.131	0.01
726.311	-0.04
726.49	0.02
726.67	-0.06
726.849	0
727.028	0.09
727.208	0.02
727.387	0.16
727.567	-0.13
727.746	0.02
727.925	-0.02
728.105	-0.06
728.284	-0.06
728.463	-0.03
728.643	0.01
728.822	-0.12
729.001	-0.03
729.18	0.05
729.359	0.08
729.539	0.03
729.718	0
729.897	0.1
730.076	0
730.255	-0.05
730.434	0.03
730.614	0.06
730.793	0.12
730.972	0.01
731.151	-0
731.33	0.12
731.509	0.05
731.688	-0.03
731.867	-0.01
732.046	-0.12
732.225	0.13
732.404	-0.06
732.583	-0.1
732.762	0.08
732.941	0.09
733.12	0.01
733.298	-0.07
733.477	0.1
733.656	0.08
733.835	-0.09
734.014	0.09
734.193	-0.04
734.371	0.1
734.55	-0.07
734.729	-0.15
734.908	0.11
735.086	0.04
735.265	0.13
735.444	-0.15
735.623	-0.03
735.801	-0
735.98	0.03
736.159	0.06
736.337	-0.01
736.516	-0.03
736.694	0.16
736.873	-0.01
737.052	0.22
737.23	0.09
737.409	0.07
737.587	0.22
737.766	-0.15
737.944	-0.1
738.123	0.05
738.301	0.05
738.479	0.09
738.658	0.11
738.836	-0.17
739.015	0.01
739.193	0.12
739.371	-0.13
739.55	-0.02
739.728	-0.16
739.906	0.13
740.085	0.17
740.263	0.04
740.441	-0.1
740.62	0.26
740.798	0.07
740.976	-0.02
741.154	0
741.332	0.13
741.511	0.03
741.689	0.13
741.867	0.09
742.045	0.11
742.223	-0.02
742.401	-0.08
742.579	-0
742.757	0.05
742.935	-0.09
743.114	0.07
743.292	-0.04
743.47	-0.07
743.648	0.06
743.826	-0.11
744.004	0.13
744.181	0.1
744.359	-0.11
744.537	0.13
744.715	0.02
744.893	0.05
745.071	0.06
745.249	-0.02
745.427	0.06
745.605	-0
745.782	0.11
745.96	0.05
746.138	0.14
746.316	0.09
746.493	0.02
746.671	0.01
746.849	0.01
747.027	0.11
747.204	-0.09
747.382	0.04
747.56	-0.07
747.737	-0.02
747.915	-0.06
748.093	0.11
748.27	0.06
748.448	0.06
748.625	-0.12
748.803	-0.07
748.98	-0.05
749.158	0.09
749.335	0.11
749.513	0.02
749.69	0.04
749.868	0.06
750.045	0.1
750.223	-0.09
750.4	-0.21
750.578	0.2
750.755	0.06
750.932	-0.03
751.11	0.09
751.287	-0.22
751.464	0.17
751.642	-0
751.819	0.04
751.996	0.08
752.173	0.02
752.351	-0.24
752.528	-0.05
752.705	0.05
752.882	-0.07
753.06	0.01
753.237	0.14
753.414	0.21
753.591	0.27
753.768	0.04
753.945	0.04
754.122	-0.1
754.299	0.11
754.476	0.06
754.654	0.01
754.831	0.14
755.008	0.09
755.185	-0.04
755.362	-0.02
755.539	0.01
755.716	-0.12
755.892	-0.04
756.069	0.06
756.246	0.01
756.423	-0.05
756.6	0.15
756.777	0.02
756.954	0.19
757.131	0.02
757.307	-0.04
757.484	-0.07
757.661	0.07
757.838	0.04
758.015	-0.16
758.191	0.08
758.368	0.11
758.545	0.23
758.721	0.12
758.898	-0.07
759.075	0.11
759.251	0.07
759.428	0.11
759.605	-0.15
759.781	0.06
759.958	0.07
760.134	0.22
760.311	-0.03
760.488	0.19
760.664	0.22
760.841	0.03
761.017	-0.07
761.194	0.09
761.37	0.08
761.547	0.01
761.723	0.06
761.899	0.31
762.076	-0.15
762.252	-0.11
762.429	-0.03
762.605	0.12
762.781	0.06
762.958	0.1
763.134	-0.1
763.31	-0.07
763.486	0.16
763.663	-0.23
763.839	0.12
764.015	-0.19
764.191	-0.16
764.368	-0.05
764.544	-0.04
764.72	0.1
764.896	0.1
765.072	0.06
765.248	0.09
765.425	-0.08
765.601	0.02
765.777	0.08
765.953	-0.16
766.129	-0.06
766.305	-0.03
766.481	0.17
766.657	0.04
766.833	0.18
767.009	-0.05
767.185	0.01
767.361	-0.01
767.537	-0.19
767.713	0.27
767.889	-0.07
768.065	0.01
768.24	0.06
768.416	0
768.592	-0.08
768.768	0.09
768.944	0.22
769.12	0.05
769.295	0.03
769.471	-0.09
769.647	0.03
769.823	0.25
769.998	-0.08
770.174	-0.06
770.35	0.37
770.525	0.24
770.701	0.03
770.877	-0.01
771.052	-0.04
771.228	0.06
771.403	0.03
771.579	0.08
771.755	0.26
771.93	-0.04
772.106	-0.26
772.281	-0.12
772.457	0.11
772.632	0.07
772.808	-0.07
772.983	-0.13
773.159	-0.06
773.334	0.16
773.509	-0.22
773.685	0
773.86	0.4
774.036	0.23
774.211	0.01
774.386	-0.01
774.562	-0.03
774.737	0.12
774.912	-0.19
775.087	0.15
775.263	0.15
775.438	0.02
775.613	-0.03
775.788	0.01
775.964	0.1
776.139	0.29
776.314	-0.14
776.489	0.14
776.664	0.03
776.839	-0.06
777.014	0.22
777.19	0.1
777.365	0.24
777.54	0.31
777.715	-0.02
777.89	-0.07
778.065	-0.14
778.24	-0.02
778.415	0.1
778.59	-0.2
778.765	-0.04
778.94	0.16
779.115	-0.22
779.289	0.03
779.464	0.03
779.639	0.05
779.814	-0.23
779.989	-0.22
780.164	0.17
780.339	0.04
780.513	-0.02
780.688	-0.14
780.863	0.08
781.038	0.16
781.212	-0.04
781.387	-0.01
781.562	0.33
781.737	-0.07
781.911	0.16
782.086	-0.13
782.261	-0.04
782.435	0.19
782.61	0.01
782.784	-0.07
782.959	0.29
783.134	-0.14
783.308	-0.27
783.483	-0.07
783.657	0.43
783.832	0.27
784.006	-0.15
784.181	-0.23
784.355	0.14
784.53	-0.18
784.704	-0.19
784.878	0.31
785.053	0.05
785.227	-0.11
785.402	0.27
785.576	-0.13
785.75	-0.17
785.925	0.09
786.099	0
786.273	0
786.448	0.15
786.622	0.3
786.796	-0.17
786.97	0.03
787.145	0.45
787.319	-0.36
787.493	0.07
787.667	-0.46
787.841	-0.09
788.015	0.15
788.19	-0.06
788.364	-0.03
788.538	0.22
788.712	0.26
788.886	0.02
789.06	0.36
789.234	0.17
789.408	-0.12
789.582	-0.04
789.756	-0.12
789.93	-0.09
790.104	-0.19
790.278	-0.05
790.452	-0.33
790.626	0.1
790.8	-0.11
790.973	0.39
791.147	0.27
791.321	0.24
791.495	0.13
791.669	0.21
791.843	0.21
792.016	0.05
792.19	0.48
792.364	-0.28
792.538	0.75
792.711	0.24
792.885	-0.12
793.059	-0.18
793.233	-0.21
793.406	0.15
793.58	0.03
793.754	0.18
793.927	-0.02
794.101	0.42
794.274	0.08
794.448	0.16
794.622	-0.23
794.795	0.23
794.969	-0.22
795.142	0.26
795.316	-0.22
795.489	-0.24
795.663	0.48
795.836	-0.06
796.009	-0.33
796.183	0.39
796.356	-0.05
796.53	0.25
796.703	0.08
796.876	0.66
797.05	0
797.223	-0.19
797.396	0.37
797.57	-0.03
797.743	0.41
797.916	-0.06
798.09	0.15
798.263	0.23
798.436	0.33
798.609	-0.06
798.782	-0.23
798.956	0.29
799.129	0.06
799.302	0
799.475	-0.18
799.648	-0.18
799.821	-0.18
799.994	-0.24
800.167	-0.35
800.34	-0.26
800.514	0.16
800.687	-0.39
800.86	-0.3
801.033	-0.02
801.206	0.2
801.379	-0.18
801.551	0.16
801.724	0.12
801.897	0.25
802.07	-0.23
802.243	-0.54
802.416	0.05
802.589	-0.19
802.762	0.3
802.935	-0.16
803.107	0.47
803.28	0.25
803.453	0.26
803.626	-0.29
803.798	0
803.971	0.05
804.144	0.4
804.317	0.12
804.489	0.39
804.662	0.01
804.835	-0.15
805.007	-0.31
805.18	0.43
805.353	0.14
805.525	-0.34
805.698	-0.31
805.87	-0.01
806.043	0.3
806.215	-0.53
806.388	-0.25
806.56	-0.09
806.733	0.36
806.905	-0.1
807.078	-0.05
807.25	-0.39
807.423	0.46
807.595	0.1
807.768	-0.25
807.94	0.46
808.112	0.22
808.285	-0.1
808.457	-0.07
808.629	0.21
808.802	0.35
808.974	0.12
809.146	-0.06
809.318	-0.28
809.491	0.13
809.663	0.22
809.835	-0.31
810.007	0.26
810.18	0.13
810.352	-0.27
810.524	-0.04
810.696	0.18
810.868	0.16
811.04	-0.17
811.212	-0.18
811.384	0.36
811.556	-0.21
811.728	-0.33
811.901	0.64
812.073	0.13
812.245	0.17
812.417	0.11
812.589	-0.77
812.76	0.2
812.932	0.38
813.104	0.31
813.276	-0.36
813.448	0.36
813.62	-0.08
813.792	-0.13
813.964	-0
814.136	0.22
814.307	-0.18
814.479	-0.24
814.651	-0.19
814.823	0.57
814.995	-0.14
815.166	-0.15
815.338	-0.33
815.51	-0.31
815.681	0.37
815.853	-0.21
816.025	-0
816.196	0.5
816.368	0.22
816.54	-0.45
816.711	-0.78
816.883	0.27
817.054	0.56
817.226	-0.88
817.398	-0.28
817.569	-0.04
817.741	0.14
817.912	0
818.084	-0.02
818.255	0.19
818.426	-0.4
818.598	0.12
818.769	-0.41
818.941	0.09
819.112	0.77
819.283	0.06
819.455	-0.5
819.626	0.1
819.798	0.41
819.969	-0.06
820.14	-0
820.311	0.35
820.483	0.55
820.654	-0
820.825	0.31
820.996	-0.26
821.168	-0.54
821.339	-0.09
821.51	-0.79
821.681	-0.08
821.852	-0.14
822.023	-0.2
822.195	-0.58
822.366	0.35
822.537	0.05
822.708	0.19
822.879	-0.48
823.05	0.63
823.221	-0.29
823.392	0.05
823.563	0.06
823.734	0.22
823.905	-0.2
824.076	-0.54
824.247	-0.11
824.418	0.02
824.589	0.67
824.759	0.06
824.93	0.1
825.101	-1.24
825.272	0.11
825.443	0.63
825.614	0.01
825.784	-0.54
825.955	0.3
826.126	0.96
826.297	-0.15
826.467	1.14
826.638	0.54
826.809	-0.87
826.98	-0.49
827.15	0.16
827.321	-0.02
827.492	0.4
827.662	-0.17
827.833	0.93
828.003	0.37
828.174	-0.56
828.345	-0.69
828.515	1.4
828.686	0.09
828.856	-0.41
829.027	0.32
829.197	0.17
829.368	0.29
829.538	-0.81
829.709	-0.55
829.879	-0.16
830.049	-0.41
830.22	-1.02
830.39	-0.02
830.56	0.28
830.731	-0.31
830.901	-0.08
831.072	0.35
831.242	-0.14
831.412	0.37
831.582	-0.31
831.753	-0.32
831.923	0.43
832.093	-0.05
832.263	-0.18
832.434	-0.71
832.604	0.21
832.774	0.15
832.944	-0.23
833.114	-0.13
833.284	0.55
833.454	-0.87
833.624	-0.16
833.795	-0.15
833.965	0.71
834.135	0.67
834.305	-1.25
834.475	-0.49
834.645	0.11
834.815	-0.36
834.985	-0.33
835.155	-0.68
835.325	-0.29
835.494	0.42
835.664	-0.24
835.834	-1
836.004	-0.12
836.174	0.3
836.344	-0.17
836.514	-0.93
836.684	-0.64
836.853	0.19
837.023	-0.26
837.193	0.12
837.363	0.93
837.532	0.02
837.702	-0.2
837.872	-0.6
838.041	0.14
838.211	0.63
838.381	-0.93
838.55	-0.03
838.72	2.32
838.89	1.33
839.059	-0.4
839.229	-0.95
839.398	2.05
839.568	0.15
839.738	-0.05
839.907	1.01
840.077	-0.24
840.246	-0.07
840.416	-1.06
840.585	-0.44
840.755	1.32
840.924	1.3
841.093	-0.19
841.263	-0.31
841.432	0.47
841.602	-0.64
841.771	-0.83
841.94	-0.34
842.11	1.69
842.279	1.37
842.448	-0.74
842.617	-0.96
842.787	0.97
842.956	-0.79
843.125	0.05
843.294	-0.05
843.464	0.77
843.633	0.06
843.802	-1.3
843.971	0.22
844.14	0.64
844.309	0.68
844.479	-1.03
844.648	0.22
844.817	-0.14
844.986	0.4
845.155	-0.81
845.324	0.35
845.493	-0.54
845.662	-1.17
845.831	0.43
846	0.03
846.169	-0.15
846.338	1.67
846.507	-0.11
846.676	-0.24
846.844	-0.72
847.013	-0.18
847.182	0.38
847.351	-1.02
847.52	0.51
847.689	1.11
847.858	-0.9
848.026	-0.32
848.195	0.58
848.364	-0.17
848.533	-1.27
848.701	-0.7
848.87	-0.01
849.039	1.24
849.207	0.85
849.376	1.4
849.545	0.68
849.713	-0.45
849.882	-0.63
850.051	-0.16
850.219	-0.24
850.388	0
850.556	-0.35
850.725	-0.91
850.893	0.39
851.062	0.16
851.23	0.11
851.399	-1.12
851.567	-0.77
851.736	-0.95
851.904	-0.42
852.073	-0.41
852.241	0.22
852.41	-0.08
852.578	-1.01
852.746	-0.55
852.915	0.49
853.083	-0.47
853.251	-2.11
853.42	-0.62
853.588	0.52
853.756	0.91
853.924	0.4
854.093	-1.38
854.261	-0.03
854.429	-1.09
854.597	-0.06
854.765	-2.03
854.934	0.75
855.102	1.94
855.27	0.15
855.438	0.68
855.606	1.45
855.774	0.97
855.942	-1.33
856.11	-1.1
856.278	-0.7
856.446	0.47
856.614	-1.21
856.782	-0.78
856.95	0.75
857.118	-0.01
857.286	-0.14
857.454	-0.19
857.622	0.76
857.79	0.1
857.958	-0.93
858.126	-2.32
858.294	-2.36
858.462	-0.01
858.629	-1.52
858.797	-1.25
858.965	0.39
859.133	-0.55
859.301	-1.46
859.468	0.3
859.636	-0.79
859.804	0.46
859.971	0.39
860.139	-1.35
860.307	0.8
860.474	-0.98
860.642	-0.75
860.81	-0.11
860.977	-0.75
861.145	0.91
861.313	-0.33
861.48	-0.31
861.648	1.61
861.815	-0.63
861.983	-1.48
862.15	-1.04
862.318	0.61
862.485	1.87
862.653	-1.63
862.82	-0.92
862.988	0.89
863.155	0.31
863.322	-1.4
863.49	-1.2
863.657	-0.87
863.824	1.27
863.992	1.6
864.159	-0.01
864.326	2.09
864.494	-0.67
864.661	1.69
864.828	-1.4
864.996	1.19
865.163	2.05
865.33	-2.1
865.497	-1.68
865.664	-1.82
865.832	-2.1
865.999	-1.11
866.166	-1.83
866.333	-1.79
866.5	-1.23
866.667	-0.3
866.834	-1.03
867.001	3.09
867.168	-2.6
867.335	-0.29
867.502	-3.21
867.669	-1.33
867.836	2.58
868.003	0.09
868.17	0.48
868.337	2.96
868.504	2.58
868.671	-2.47
868.838	-0.52
869.005	1.05
869.172	-0.28
869.339	-0.86
869.505	0.32
869.672	-0.96
869.839	2.05
870.006	0.13
870.173	-2.03
870.339	1.56
870.506	1.61
870.673	0.13
870.84	-0.41
871.006	-0.95
871.173	-0.71
871.34	0.8
871.506	-1.2
871.673	0
871.839	-2.2
872.006	-1.32
872.173	-1.94
872.339	0.2
872.506	2.3
872.672	-0.5
872.839	-1.63
873.005	-0.16
873.172	3.22
873.338	2.5
873.505	0.07
873.671	-0.52
873.838	0.93
874.004	-1.53
874.171	-0.56
874.337	2.02
874.503	0.83
874.67	-0.84
874.836	0.35
875.002	2.2
875.169	2.4
875.335	0.81
875.501	-1.54
875.668	1.96
875.834	-1.18
876	-0.57
876.166	0.13
876.332	1.42
876.499	0.56
876.665	-0.5
876.831	1.06
876.997	3.97
877.163	0.43
877.329	-0.38
877.495	0.22
877.662	1.52
877.828	0.97
877.994	0.11
878.16	-3.42
878.326	-0.61
878.492	2.28
878.658	-0.63
878.824	-0.33
878.99	0.39
879.156	-1.9
879.322	1.68
879.487	0
879.653	-1.02
879.819	-0.65
879.985	-2.47
880.151	0.79
880.317	1.27
880.483	0.49
880.648	0.32
880.814	-1.42
880.98	-1.23
881.146	-2.92
881.312	-0.95
881.477	-0.43
881.643	-0.35
881.809	3.56
881.974	0.36
882.14	-2.48
882.306	-0.41
882.471	4.71
882.637	-0.8
882.803	0.62
882.968	1.48
883.134	4.27
883.299	-1.34
883.465	0.53
883.63	2.32
883.796	2.8
883.961	1.74
884.127	0.45
884.292	-2.19
884.458	-2.86
884.623	-2.85
