Data from Apollo_Calib_20240827__AbsoluteIrradiance__610__09-19-00-970.txt Node

Date: Wed Aug 28 09:19:00 BST 2024
User: biology
Spectrometer: FLMT08252
Trigger mode: 0
Integration Time (sec): 5.000000E-1
Scans to average: 5
Electric dark correction enabled: true
Nonlinearity correction enabled: false
Boxcar width: 0
XAxis mode: Wavelengths
Number of Pixels in Spectrum: 3648
>>>>>Begin Spectral Data<<<<<
179.588	-0
179.809	-0
180.03	-0
180.251	-0
180.473	-0
180.694	0
180.915	0
181.136	-0
181.357	0
181.578	-0
181.799	-0
182.02	-0
182.241	0
182.462	-0
182.683	0
182.904	-0
183.125	0
183.346	0
183.567	0
183.788	0
184.009	-0
184.23	0
184.451	0
184.672	0
184.892	-0
185.113	0
185.334	0
185.555	0
185.776	0
185.996	0
186.217	0
186.438	0
186.659	0
186.879	0
187.1	0
187.321	0
187.541	0
187.762	0
187.983	0
188.203	0
188.424	0
188.644	0
188.865	0
189.086	0
189.306	0
189.527	0
189.747	0
189.968	0
190.188	0
190.409	0
190.629	0
190.849	0
191.07	0
191.29	0
191.511	0
191.731	0
191.951	0
192.172	0
192.392	0
192.612	0
192.833	0
193.053	0
193.273	0
193.493	0
193.714	0
193.934	0
194.154	0
194.374	0
194.594	0
194.815	0
195.035	0
195.255	0
195.475	0
195.695	0
195.915	0
196.135	0
196.355	0
196.575	0
196.795	0
197.015	-0
197.235	0
197.455	0
197.675	0
197.895	0
198.115	0
198.335	0
198.555	0
198.775	0
198.995	0
199.214	0
199.434	0
199.654	0
199.874	0
200.094	2.4
200.313	0.75
200.533	0.35
200.753	0.22
200.973	1.64
201.192	1.19
201.412	0.2
201.632	0.75
201.851	1.54
202.071	0.29
202.291	-0.06
202.51	0.31
202.73	1.58
202.95	0.72
203.169	0.55
203.389	0.98
203.608	0.9
203.828	0.07
204.047	0.55
204.267	1.42
204.486	0.68
204.706	1
204.925	0.43
205.145	0.55
205.364	1.09
205.583	1.65
205.803	0.58
206.022	0.61
206.242	0.85
206.461	0.53
206.68	0.26
206.9	0.93
207.119	1.29
207.338	1.27
207.557	0.49
207.777	0.17
207.996	0.69
208.215	1.09
208.434	0.25
208.654	0.15
208.873	0.55
209.092	0.88
209.311	0.39
209.53	0.24
209.749	0.34
209.968	0.63
210.187	0.31
210.407	0.19
210.626	0.45
210.845	0.6
211.064	0.58
211.283	0.44
211.502	0.7
211.721	0.43
211.94	0.43
212.159	0.61
212.377	0.78
212.596	0.74
212.815	0.4
213.034	0.27
213.253	0.5
213.472	0.69
213.691	0.23
213.91	0.38
214.128	0.17
214.347	0.84
214.566	0.11
214.785	0.03
215.003	0.55
215.222	0.45
215.441	0.19
215.66	0.05
215.878	0.3
216.097	0.58
216.316	0.16
216.534	0.11
216.753	0.38
216.972	0.32
217.19	0.25
217.409	0.28
217.627	0.31
217.846	0.31
218.064	0.39
218.283	0.13
218.501	0.81
218.72	0.54
218.938	0.08
219.157	0.37
219.375	0.51
219.594	0.47
219.812	0.32
220.031	0.19
220.249	0.6
220.467	0.58
220.686	0.28
220.904	0.19
221.122	0.05
221.341	0.71
221.559	0.31
221.777	0.2
221.995	0.24
222.214	0.45
222.432	0.22
222.65	0.34
222.868	0.29
223.086	0.46
223.305	0.49
223.523	0.28
223.741	0.59
223.959	0.17
224.177	0.02
224.395	0.2
224.613	0.31
224.831	0.33
225.049	0.14
225.267	0.17
225.485	0.2
225.703	0.2
225.921	0.25
226.139	0.21
226.357	0.38
226.575	0.44
226.793	0.23
227.011	0.77
227.229	0.27
227.447	0.41
227.665	0.13
227.883	-0.07
228.1	0.28
228.318	0.31
228.536	-0.07
228.754	0.07
228.972	0.32
229.189	0.33
229.407	0.05
229.625	0.18
229.843	0.29
230.06	0.39
230.278	0.18
230.496	0.14
230.713	0.22
230.931	0.45
231.149	0.15
231.366	0.05
231.584	0.23
231.801	0.52
232.019	0.28
232.236	0.13
232.454	0.04
232.671	0.19
232.889	0.14
233.106	0.14
233.324	0.2
233.541	0.23
233.759	0.17
233.976	0.19
234.194	0.23
234.411	0.15
234.628	0.07
234.846	0.16
235.063	0.22
235.28	0.16
235.498	0.2
235.715	0.01
235.932	0.35
236.149	0.15
236.367	0.1
236.584	0.25
236.801	0.15
237.018	0.23
237.236	0.17
237.453	0.06
237.67	0.19
237.887	0.08
238.104	0.11
238.321	0.13
238.538	0.14
238.755	0.24
238.973	0.03
239.19	0.27
239.407	0.19
239.624	0.17
239.841	0.1
240.058	0.12
240.275	0.23
240.492	0.2
240.709	0.13
240.925	0.11
241.142	0.2
241.359	0.02
241.576	0.09
241.793	0.07
242.01	0.19
242.227	0.19
242.444	0.3
242.66	0.25
242.877	0.27
243.094	0.09
243.311	0.2
243.527	0.03
243.744	0.09
243.961	0.28
244.178	0.18
244.394	0.14
244.611	0.28
244.828	0.26
245.044	0
245.261	0.12
245.477	0.19
245.694	0.23
245.911	0.13
246.127	0.12
246.344	0.35
246.56	0.21
246.777	0.12
246.993	0.21
247.21	0.19
247.426	0.26
247.643	0.13
247.859	0.13
248.076	0.16
248.292	0.34
248.508	0.07
248.725	0.2
248.941	0.22
249.157	0.24
249.374	0.15
249.59	0.2
249.806	0.21
250.023	0.22
250.239	0.07
250.455	0.07
250.671	0.19
250.888	0.15
251.104	0.2
251.32	0.13
251.536	0.06
251.752	0.07
251.969	0.16
252.185	0.18
252.401	0.3
252.617	0.16
252.833	0.12
253.049	0.15
253.265	0.15
253.481	0.22
253.697	0.1
253.913	0.11
254.129	0.11
254.345	0.13
254.561	0.2
254.777	0.14
254.993	0.28
255.209	0.15
255.425	0.15
255.641	0.05
255.857	0.2
256.073	0.12
256.288	0.07
256.504	0.11
256.72	0.12
256.936	0.29
257.152	0.08
257.367	0.08
257.583	0.16
257.799	0.17
258.015	0.01
258.23	0.15
258.446	0.2
258.662	0.19
258.877	0.06
259.093	0.07
259.309	0.14
259.524	0.18
259.74	0.08
259.955	0.06
260.171	0.11
260.387	0.13
260.602	0.23
260.818	0.19
261.033	0.07
261.249	0.11
261.464	0.13
261.68	-0.01
261.895	0.14
262.11	0.19
262.326	0.08
262.541	0.01
262.757	0.19
262.972	0.17
263.187	0.12
263.403	0.11
263.618	0.22
263.833	0.13
264.049	0.07
264.264	0.09
264.479	0.17
264.694	0.22
264.91	0.03
265.125	0.05
265.34	0.2
265.555	0.27
265.77	0.18
265.986	0.1
266.201	0.14
266.416	0.2
266.631	0.11
266.846	0.12
267.061	0.19
267.276	0.25
267.491	-0
267.706	0.13
267.921	0.2
268.136	0.16
268.351	0.14
268.566	0.08
268.781	0.22
268.996	0.18
269.211	0.16
269.426	0.1
269.641	0.08
269.856	0.25
270.071	0.08
270.285	0.05
270.5	0.21
270.715	0.23
270.93	0.13
271.145	0.1
271.359	0.19
271.574	0.11
271.789	0.15
272.004	0.05
272.218	0.08
272.433	0.2
272.648	0.09
272.862	0.11
273.077	0.07
273.292	0.12
273.506	0.06
273.721	0.1
273.936	0.19
274.15	0.18
274.365	0.11
274.579	0.18
274.794	0.11
275.008	0.21
275.223	-0.02
275.437	0.11
275.652	0.21
275.866	0.12
276.081	0.07
276.295	0.12
276.509	0.16
276.724	0.15
276.938	0.09
277.153	0.09
277.367	0.17
277.581	0.03
277.796	0.07
278.01	0.05
278.224	0.16
278.438	0.19
278.653	0.06
278.867	0.1
279.081	-0.09
279.295	0.1
279.51	0.12
279.724	0.05
279.938	0.1
280.152	0.11
280.366	0.05
280.58	0.13
280.794	0.14
281.008	0.06
281.222	0.19
281.437	0.21
281.651	0.16
281.865	0.19
282.079	0.04
282.293	0.04
282.507	0.09
282.721	0.08
282.935	0.11
283.148	0.02
283.362	0.1
283.576	0.05
283.79	0.13
284.004	0.06
284.218	0.14
284.432	0.07
284.646	0.09
284.859	0.1
285.073	0.06
285.287	0.08
285.501	0.13
285.714	0.06
285.928	0.12
286.142	0.11
286.356	0.04
286.569	0.09
286.783	0.18
286.997	0.11
287.21	0.14
287.424	0.1
287.637	0.01
287.851	0.07
288.065	0.16
288.278	0.12
288.492	0.12
288.705	0.08
288.919	0.08
289.132	0.04
289.346	0.14
289.559	0.04
289.773	0.06
289.986	0.09
290.2	0.09
290.413	0.13
290.626	0.05
290.84	0.08
291.053	0.09
291.267	0.14
291.48	0.11
291.693	0.08
291.906	0.01
292.12	0.09
292.333	0.04
292.546	0.09
292.76	0.18
292.973	0.1
293.186	0.12
293.399	0.08
293.612	0.17
293.826	0.07
294.039	0.06
294.252	0.06
294.465	0.1
294.678	0.13
294.891	0.12
295.104	-0
295.317	0.08
295.53	0.09
295.743	0.07
295.956	0.07
296.169	0.19
296.382	0.19
296.595	0.06
296.808	0.02
297.021	0.1
297.234	0.12
297.447	0.09
297.66	0.1
297.873	0.1
298.086	0.1
298.299	0.04
298.511	0.04
298.724	0.04
298.937	0.04
299.15	0.06
299.363	0.06
299.575	0.09
299.788	0.1
300.001	0.1
300.213	0.03
300.426	0.1
300.639	0.07
300.852	0.01
301.064	0.1
301.277	0.15
301.489	0.12
301.702	0.12
301.915	0.11
302.127	0.08
302.34	0.06
302.552	0.07
302.765	0.08
302.977	0.08
303.19	0.04
303.402	0.05
303.615	0.09
303.827	0.05
304.04	0.07
304.252	0.13
304.464	0.05
304.677	0.18
304.889	0.1
305.102	0.05
305.314	0.08
305.526	0.15
305.739	0.11
305.951	0.07
306.163	0.07
306.375	0.16
306.588	0.04
306.8	0.04
307.012	0.03
307.224	0.08
307.436	0.15
307.649	0.02
307.861	0.1
308.073	0.11
308.285	0.08
308.497	0.07
308.709	0.07
308.921	0.12
309.133	0.15
309.346	0.12
309.558	0.1
309.77	0.11
309.982	0.14
310.194	0.15
310.406	0.05
310.617	0.12
310.829	0.08
311.041	0.12
311.253	0.03
311.465	0.09
311.677	0.07
311.889	0.08
312.101	0.01
312.313	0.12
312.524	0.13
312.736	0.03
312.948	0.05
313.16	0.15
313.372	0.15
313.583	0.12
313.795	0.09
314.007	0.06
314.218	0.08
314.43	0.07
314.642	0.04
314.853	0.03
315.065	0.15
315.277	0.07
315.488	0.11
315.7	0.13
315.912	0.16
316.123	0.07
316.335	0.1
316.546	0.2
316.758	0.04
316.969	0.07
317.181	0.1
317.392	0.12
317.604	0.16
317.815	0.08
318.026	0.07
318.238	0.05
318.449	0.1
318.661	0.03
318.872	0.04
319.083	0.03
319.295	0.1
319.506	0.07
319.717	0.09
319.929	0.09
320.14	0.08
320.351	0.07
320.562	0.05
320.774	0.07
320.985	0.1
321.196	0.03
321.407	0.01
321.618	0.16
321.829	0.11
322.041	0.09
322.252	0.08
322.463	0.11
322.674	0.12
322.885	0.04
323.096	0.07
323.307	0.07
323.518	0.1
323.729	0.06
323.94	0.08
324.151	0.03
324.362	0.08
324.573	0.1
324.784	0.08
324.995	0.1
325.206	0.12
325.417	0.03
325.628	0.06
325.838	0.07
326.049	0.11
326.26	0.09
326.471	0.07
326.682	0.14
326.892	0.11
327.103	0.04
327.314	0.05
327.525	0.11
327.735	0.12
327.946	0.08
328.157	0.05
328.368	0.11
328.578	0.02
328.789	0.1
328.999	0.08
329.21	0.04
329.421	0.1
329.631	0.04
329.842	0.07
330.052	0.08
330.263	0.14
330.473	0.08
330.684	0.07
330.894	0.05
331.105	0.07
331.315	0.08
331.526	0.03
331.736	0.12
331.947	0.09
332.157	0.12
332.367	0.07
332.578	0.16
332.788	0.16
332.999	0.13
333.209	0.07
333.419	0.04
333.629	0.07
333.84	0.14
334.05	0.09
334.26	0.11
334.47	0.09
334.681	0.11
334.891	0.1
335.101	0.09
335.311	0.18
335.521	0.06
335.732	0.05
335.942	0.17
336.152	0.08
336.362	0.08
336.572	0.09
336.782	0.12
336.992	0.08
337.202	0.11
337.412	0.04
337.622	0.09
337.832	0.08
338.042	0.12
338.252	0.09
338.462	0.02
338.672	0.11
338.882	0.06
339.092	0.04
339.302	0.13
339.511	0.1
339.721	0.05
339.931	0.03
340.141	0.15
340.351	0.12
340.561	0.07
340.77	0.11
340.98	0.04
341.19	0.07
341.4	0.05
341.609	0.05
341.819	0.08
342.029	0.06
342.238	0.09
342.448	0.04
342.658	0.09
342.867	0.04
343.077	0.11
343.286	0.07
343.496	0.05
343.706	0.16
343.915	0.04
344.125	0.08
344.334	0.08
344.544	0.02
344.753	0.05
344.963	0.05
345.172	0.02
345.381	0.07
345.591	0.05
345.8	0.07
346.01	0.16
346.219	0.13
346.428	-0.02
346.638	0.09
346.847	0.09
347.056	0.12
347.266	0.04
347.475	0.05
347.684	0.06
347.893	0.16
348.103	0.1
348.312	0.11
348.521	0.05
348.73	0.05
348.94	0.07
349.149	0.09
349.358	0.05
349.567	0.04
349.776	0.02
349.985	0.06
350.194	0.11
350.403	0.11
350.612	0.04
350.821	0.04
351.03	0.05
351.239	0.02
351.448	0.09
351.657	0.04
351.866	0.16
352.075	0.07
352.284	0.11
352.493	0.01
352.702	0.15
352.911	0.05
353.12	0.08
353.329	0.1
353.538	0.11
353.746	0.05
353.955	0.04
354.164	0.11
354.373	0.04
354.582	0.13
354.79	0.07
354.999	0.07
355.208	0.06
355.416	0.14
355.625	0.04
355.834	0.05
356.042	0.08
356.251	0.07
356.46	0.05
356.668	0.07
356.877	0.15
357.085	0.12
357.294	0.03
357.503	0.1
357.711	0.08
357.92	0.24
358.128	0.11
358.337	0.07
358.545	0.09
358.754	0.03
358.962	0.11
359.17	0.07
359.379	0.1
359.587	0.12
359.796	0.07
360.004	0.13
360.212	0.12
360.421	0.11
360.629	0.07
360.837	0.05
361.046	0.06
361.254	0.16
361.462	0.07
361.67	0.08
361.879	0.08
362.087	0.14
362.295	0.05
362.503	0.04
362.711	0.05
362.92	-0.02
363.128	0.04
363.336	0.04
363.544	0
363.752	0.07
363.96	0.01
364.168	0.07
364.376	0.06
364.584	0.08
364.792	0.11
365	0.1
365.208	0.09
365.416	0.11
365.624	0.11
365.832	0.07
366.04	0.17
366.248	0.08
366.456	0.07
366.664	0.09
366.872	0.05
367.079	0.08
367.287	0.09
367.495	0.08
367.703	0.07
367.911	0.04
368.118	0.05
368.326	0.07
368.534	0.02
368.742	0.13
368.949	0.03
369.157	0.02
369.365	0.07
369.572	0.04
369.78	0.03
369.988	0.1
370.195	0.1
370.403	0.09
370.61	0.07
370.818	0.08
371.026	0.13
371.233	0.05
371.441	0.08
371.648	0.06
371.856	0.09
372.063	0.1
372.271	0.08
372.478	0.04
372.685	0.04
372.893	0.11
373.1	0.06
373.308	0.05
373.515	0.14
373.722	0.12
373.93	0.12
374.137	0.07
374.344	0.11
374.552	0.1
374.759	0.1
374.966	0.1
375.173	0.06
375.381	0.11
375.588	0.1
375.795	-0.03
376.002	0.04
376.209	0.04
376.417	0.07
376.624	0.08
376.831	0.08
377.038	0.05
377.245	0.03
377.452	0.05
377.659	0.07
377.866	0.08
378.073	0.06
378.28	0.09
378.487	0.1
378.694	0.09
378.901	0.1
379.108	0.09
379.315	0.13
379.522	0.14
379.729	0.06
379.936	0.09
380.143	0.09
380.35	0.04
380.557	0.06
380.763	0.07
380.97	0.09
381.177	0.09
381.384	0.1
381.591	-0
381.797	0.06
382.004	0.09
382.211	0.06
382.418	0.04
382.624	0.07
382.831	0.07
383.038	0.03
383.244	0.05
383.451	0.06
383.658	0.08
383.864	0.02
384.071	0.04
384.277	0.14
384.484	0
384.69	0.1
384.897	0.04
385.103	0.05
385.31	0.02
385.516	0.1
385.723	-0.01
385.929	0.07
386.136	0.03
386.342	0.07
386.549	0.04
386.755	0.16
386.961	0.1
387.168	0.05
387.374	0.06
387.58	0.09
387.787	0.09
387.993	0.07
388.199	0.08
388.406	0.01
388.612	0.08
388.818	0.03
389.024	0.08
389.231	0.1
389.437	0.11
389.643	0.1
389.849	0.09
390.055	0.1
390.261	0.08
390.467	0.07
390.674	0.05
390.88	0.05
391.086	0.1
391.292	0.04
391.498	0.12
391.704	0.1
391.91	0.06
392.116	0.06
392.322	0
392.528	0.1
392.734	0.07
392.94	0.11
393.146	0.02
393.352	0.08
393.557	0.05
393.763	0.01
393.969	0.08
394.175	0.05
394.381	0.08
394.587	0
394.792	0.06
394.998	0.08
395.204	0.13
395.41	0.05
395.615	0.09
395.821	0.05
396.027	0.07
396.233	0.03
396.438	0.12
396.644	0.13
396.85	0.08
397.055	0.05
397.261	0.08
397.466	0.05
397.672	0.1
397.878	0.08
398.083	0.06
398.289	0.02
398.494	0.08
398.7	0.09
398.905	-0.01
399.111	0.16
399.316	0.04
399.522	0.04
399.727	0.06
399.932	0.01
400.138	0.06
400.343	0.11
400.549	0.1
400.754	0.08
400.959	0.07
401.165	0.07
401.37	0.07
401.575	0.03
401.78	0.07
401.986	0.06
402.191	0
402.396	0.04
402.601	0.1
402.807	0.09
403.012	0.08
403.217	0.1
403.422	0.09
403.627	0.04
403.832	0.05
404.037	0.12
404.243	0.08
404.448	0.06
404.653	0.05
404.858	0.1
405.063	0.12
405.268	0.03
405.473	0.04
405.678	0.01
405.883	0.19
406.088	0.11
406.293	0.03
406.498	0.05
406.703	0.11
406.907	0.07
407.112	0.03
407.317	0.1
407.522	0.12
407.727	0.04
407.932	0.06
408.136	0.14
408.341	0.13
408.546	0.07
408.751	0.09
408.956	0.02
409.16	0.1
409.365	0.07
409.57	0.07
409.774	0.05
409.979	0.09
410.184	0.09
410.388	0.03
410.593	0.09
410.798	0.08
411.002	0.07
411.207	0.1
411.411	0.04
411.616	0.05
411.82	0.09
412.025	0.09
412.229	0.05
412.434	0.14
412.638	0.12
412.843	0.08
413.047	0.05
413.252	-0
413.456	0.04
413.66	0.13
413.865	0.03
414.069	0.15
414.273	0.06
414.478	0.07
414.682	0.04
414.886	0.09
415.091	0.04
415.295	0
415.499	0.11
415.703	0.08
415.908	0.12
416.112	-0.05
416.316	0.1
416.52	0.11
416.724	-0.02
416.929	0.04
417.133	0.16
417.337	0.02
417.541	0.08
417.745	0.03
417.949	0.1
418.153	0.09
418.357	0.02
418.561	0.17
418.765	0.07
418.969	0.17
419.173	0.1
419.377	0.02
419.581	0.14
419.785	0.11
419.989	-0.01
420.193	0.04
420.397	0.01
420.601	0.16
420.804	0.08
421.008	0.08
421.212	0.06
421.416	0.07
421.62	-0.02
421.823	0.1
422.027	0.12
422.231	0.15
422.435	0.09
422.638	0.1
422.842	0.09
423.046	0.1
423.249	0.1
423.453	0.08
423.657	0.1
423.86	0.09
424.064	0.04
424.268	0.13
424.471	0.06
424.675	0.11
424.878	0.17
425.082	0.06
425.285	0.09
425.489	0.1
425.692	0.06
425.896	-0.01
426.099	0.13
426.303	0.01
426.506	-0.01
426.71	0.1
426.913	0.13
427.116	0.11
427.32	0.07
427.523	0.08
427.726	0.1
427.93	-0.03
428.133	0.04
428.336	0.03
428.54	0.04
428.743	0.09
428.946	0.14
429.149	0.06
429.353	0.05
429.556	0.15
429.759	0.07
429.962	0.07
430.165	0.09
430.368	0.08
430.571	0.03
430.775	0.11
430.978	0.06
431.181	0.1
431.384	0.1
431.587	0.05
431.79	0.06
431.993	0.03
432.196	0.05
432.399	0.05
432.602	0.09
432.805	0.07
433.008	0.03
433.211	-0.02
433.414	0.13
433.616	0.08
433.819	0.05
434.022	-0.04
434.225	0.16
434.428	0.07
434.631	0.16
434.833	0.06
435.036	0.08
435.239	0.14
435.442	0.07
435.645	0.07
435.847	0.08
436.05	0.09
436.253	0.09
436.455	0.01
436.658	0.06
436.861	0.14
437.063	0.07
437.266	0.07
437.468	0.11
437.671	0.19
437.874	0.06
438.076	0.06
438.279	0.01
438.481	0.06
438.684	0.04
438.886	0.08
439.089	-0.03
439.291	0.09
439.494	0.1
439.696	0.01
439.899	0.09
440.101	0.08
440.303	0.06
440.506	0.09
440.708	0.06
440.91	0.15
441.113	0.08
441.315	0.09
441.517	0.03
441.72	0.09
441.922	0.02
442.124	0.04
442.326	0.1
442.529	0.13
442.731	0.04
442.933	0.14
443.135	0.05
443.337	0.02
443.539	0.05
443.742	0.1
443.944	0.12
444.146	0.06
444.348	0.03
444.55	0.03
444.752	0.06
444.954	0.04
445.156	0.1
445.358	0.07
445.56	0.12
445.762	0.03
445.964	0.06
446.166	0.11
446.368	0.06
446.57	0.09
446.772	0.06
446.974	0.06
447.175	0.08
447.377	0.01
447.579	0.06
447.781	-0.02
447.983	0.11
448.184	0.08
448.386	0.08
448.588	-0.01
448.79	0.08
448.991	0.04
449.193	0.06
449.395	0.05
449.597	0.13
449.798	0.09
450	0.15
450.202	0.03
450.403	0.09
450.605	0.06
450.806	0.08
451.008	-0.01
451.21	0.08
451.411	0.14
451.613	0.05
451.814	0.11
452.016	0.08
452.217	0.06
452.419	0.15
452.62	0.09
452.821	0.1
453.023	0.13
453.224	0.11
453.426	0.06
453.627	0.09
453.828	0.12
454.03	0.07
454.231	0.06
454.432	0.05
454.634	0.19
454.835	0.02
455.036	-0.02
455.238	0.13
455.439	0.17
455.64	0.03
455.841	0.02
456.042	0.17
456.244	0.18
456.445	0.11
456.646	0
456.847	0.07
457.048	0.15
457.249	0.1
457.45	0.24
457.651	0.01
457.852	0.11
458.054	0.08
458.255	0.07
458.456	0.07
458.657	0.09
458.858	0.02
459.058	0.08
459.259	0.12
459.46	0.04
459.661	0.02
459.862	0.2
460.063	0.04
460.264	0.17
460.465	0.03
460.666	0.15
460.866	0.03
461.067	0.08
461.268	0.05
461.469	0.07
461.67	0.06
461.87	0.08
462.071	0.01
462.272	0.01
462.473	0.12
462.673	0.09
462.874	0
463.075	0.1
463.275	0.06
463.476	0.11
463.676	0.07
463.877	0.14
464.078	0.08
464.278	0.12
464.479	-0.01
464.679	0.08
464.88	0.1
465.08	0.16
465.281	0.02
465.481	0.01
465.682	0.09
465.882	0.12
466.083	0.06
466.283	0.08
466.483	0.05
466.684	0.01
466.884	0.05
467.085	0.04
467.285	0.13
467.485	-0
467.686	0.09
467.886	0.02
468.086	0.08
468.286	0.07
468.487	0.1
468.687	0.06
468.887	0.11
469.087	0.12
469.287	0.05
469.488	0.02
469.688	0.09
469.888	0.08
470.088	0.11
470.288	0.1
470.488	0.14
470.688	0.06
470.888	0.09
471.088	0
471.288	0.12
471.488	0.12
471.688	0.1
471.888	0.02
472.088	0.13
472.288	0.11
472.488	0.07
472.688	0.02
472.888	0.11
473.088	0.05
473.288	0.09
473.488	0.11
473.688	0.16
473.887	0.08
474.087	0.03
474.287	0.12
474.487	0.05
474.687	0.11
474.886	0.04
475.086	0.07
475.286	0.09
475.486	0.05
475.685	0.07
475.885	0.02
476.085	0.04
476.284	0.07
476.484	0.06
476.684	0.06
476.883	0.15
477.083	0.04
477.282	0.02
477.482	0.1
477.681	0.11
477.881	0.07
478.08	0.03
478.28	0.01
478.479	0.06
478.679	0.11
478.878	0.03
479.078	0.05
479.277	0.04
479.477	0.04
479.676	0.12
479.875	0.05
480.075	-0
480.274	0.07
480.473	0.07
480.673	0
480.872	0.07
481.071	0.05
481.271	0.05
481.47	0.05
481.669	0.04
481.868	0.03
482.067	0.02
482.267	0.03
482.466	-0.03
482.665	0.04
482.864	0.02
483.063	-0.01
483.262	0.08
483.461	0.1
483.661	0.06
483.86	0.04
484.059	0.06
484.258	0.05
484.457	0.05
484.656	0.07
484.855	0.09
485.054	0.02
485.253	0.02
485.452	-0
485.651	0.04
485.849	0.03
486.048	0
486.247	0.04
486.446	0.06
486.645	0.02
486.844	0.01
487.043	0.04
487.241	0.06
487.44	0.02
487.639	0.03
487.838	0.05
488.037	0.04
488.235	0.1
488.434	0.03
488.633	0
488.831	0.05
489.03	0.06
489.229	0.06
489.427	0.04
489.626	0.08
489.825	0.11
490.023	0.05
490.222	0.03
490.42	0.05
490.619	0.09
490.817	0.03
491.016	0.05
491.214	0.06
491.413	0.04
491.611	0.03
491.81	0.03
492.008	0.03
492.207	0.04
492.405	0.04
492.604	-0
492.802	0.04
493	0.04
493.199	0.02
493.397	0.02
493.595	0.02
493.794	0.02
493.992	0.09
494.19	0.06
494.388	0.05
494.587	0.03
494.785	0.03
494.983	0.01
495.181	0.05
495.379	0.02
495.578	0.02
495.776	0.05
495.974	0.03
496.172	0.02
496.37	0.02
496.568	0.01
496.766	0.01
496.964	0.07
497.162	0.04
497.36	0.03
497.558	0.05
497.756	0.06
497.954	0.04
498.152	0.02
498.35	0.05
498.548	0.03
498.746	0.03
498.944	0.02
499.142	0.02
499.34	0.01
499.538	0.04
499.736	0.01
499.933	0.05
500.131	0.07
500.329	0.03
500.527	0.08
500.725	0.05
500.922	0.03
501.12	0.05
501.318	0.04
501.516	0
501.713	0.05
501.911	0.04
502.109	0
502.306	0.04
502.504	0.03
502.701	0.01
502.899	0.03
503.097	0.07
503.294	0.04
503.492	0.01
503.689	0.04
503.887	0.06
504.084	0.09
504.282	0.05
504.479	0
504.677	0.04
504.874	0.03
505.072	0.03
505.269	0.02
505.466	0.05
505.664	0.03
505.861	0
506.059	-0.01
506.256	0.05
506.453	0.02
506.651	0.06
506.848	0.07
507.045	0.06
507.242	0.04
507.44	0.03
507.637	0.03
507.834	0.04
508.031	0.06
508.229	0
508.426	0.04
508.623	0.04
508.82	0.02
509.017	0.01
509.214	0.03
509.411	0.04
509.608	0.01
509.805	0.06
510.003	0.03
510.2	0.02
510.397	0.06
510.594	0.03
510.791	0
510.988	0.03
511.184	0.06
511.381	0.05
511.578	0
511.775	0.04
511.972	0.02
512.169	0.05
512.366	0.04
512.563	0.06
512.76	0.01
512.956	0.06
513.153	0.03
513.35	0.04
513.547	0.03
513.744	0.01
513.94	0.01
514.137	0.06
514.334	0.04
514.53	0.03
514.727	0.05
514.924	0.08
515.12	0.03
515.317	-0.01
515.514	0.03
515.71	0.03
515.907	0.04
516.103	0.05
516.3	0.06
516.497	0.06
516.693	0.08
516.89	0.05
517.086	0
517.283	0.07
517.479	0.05
517.676	0.02
517.872	0.02
518.068	0.02
518.265	0.04
518.461	0.02
518.658	-0
518.854	0.03
519.05	0.01
519.247	0.01
519.443	0.05
519.639	0.03
519.836	0.05
520.032	0.05
520.228	0.03
520.424	0.08
520.621	0.03
520.817	0.03
521.013	0.06
521.209	0.04
521.405	0.07
521.601	0.03
521.798	0.03
521.994	0.07
522.19	0.02
522.386	-0
522.582	0.03
522.778	0.03
522.974	0.02
523.17	0.03
523.366	0.02
523.562	0.06
523.758	0.04
523.954	0.01
524.15	0.02
524.346	0.05
524.542	0.03
524.738	0.01
524.934	0.02
525.129	0.05
525.325	0.04
525.521	0.04
525.717	0.07
525.913	0.02
526.109	0.04
526.304	0.02
526.5	0.05
526.696	0.05
526.892	0.04
527.087	0.05
527.283	0.02
527.479	0.05
527.674	0.03
527.87	0.04
528.066	0.03
528.261	0.05
528.457	0.05
528.653	0.01
528.848	0.02
529.044	0.04
529.239	0.04
529.435	0.06
529.63	0.04
529.826	0.07
530.021	0.05
530.217	0.06
530.412	0.04
530.608	0.03
530.803	0.02
530.999	0.04
531.194	0.02
531.389	0.05
531.585	0
531.78	0.03
531.975	0.04
532.171	0.04
532.366	0.01
532.561	0.04
532.757	0.02
532.952	0.03
533.147	0.05
533.342	0.06
533.538	0.03
533.733	0.07
533.928	0.02
534.123	0.04
534.318	0.02
534.513	0.04
534.709	0.04
534.904	0.02
535.099	0.02
535.294	0.03
535.489	0.02
535.684	0.03
535.879	-0.02
536.074	0.04
536.269	0.03
536.464	0.05
536.659	0.05
536.854	0.04
537.049	0.04
537.244	0.03
537.439	0.01
537.634	0.05
537.828	0.04
538.023	0.04
538.218	-0.01
538.413	0.01
538.608	0.02
538.803	0.06
538.997	-0.01
539.192	0.04
539.387	0.04
539.582	0.05
539.776	0.04
539.971	0.03
540.166	0.04
540.36	0.02
540.555	0.06
540.75	0.03
540.944	0.04
541.139	0.01
541.334	0.05
541.528	0.03
541.723	0.04
541.917	0.03
542.112	-0.01
542.306	0.03
542.501	0.03
542.695	0.05
542.89	0.02
543.084	0.06
543.279	0.03
543.473	0.04
543.668	0.04
543.862	0.02
544.056	0.07
544.251	0.04
544.445	0.06
544.64	0.02
544.834	0.01
545.028	0.03
545.222	0.05
545.417	0.06
545.611	0.05
545.805	0.04
546	0.05
546.194	0.01
546.388	0.03
546.582	0.06
546.776	0.05
546.97	0.03
547.165	0.05
547.359	0.05
547.553	0.03
547.747	0.05
547.941	0.06
548.135	0.04
548.329	0.05
548.523	0.04
548.717	0.04
548.911	0.02
549.105	0.03
549.299	0.04
549.493	0.08
549.687	0.05
549.881	0.06
550.075	0.05
550.269	0.02
550.463	0.07
550.657	0.03
550.85	0.04
551.044	0.02
551.238	0.06
551.432	0.05
551.626	-0.01
551.82	0.05
552.013	0.02
552.207	0.05
552.401	0.07
552.594	0.04
552.788	0.03
552.982	0.05
553.176	0.02
553.369	0.04
553.563	0.07
553.756	-0
553.95	0.02
554.144	0.04
554.337	0.05
554.531	0.05
554.724	0.04
554.918	0.03
555.111	0.06
555.305	0.04
555.498	0.08
555.692	0.06
555.885	0.06
556.079	0.05
556.272	0.02
556.466	0.07
556.659	0.06
556.852	0.02
557.046	0.05
557.239	0.08
557.432	0.01
557.626	0.02
557.819	0.05
558.012	0.06
558.206	0.05
558.399	0.04
558.592	0.06
558.785	0.04
558.979	0.07
559.172	0.03
559.365	0.12
559.558	0.07
559.751	0.03
559.944	0.02
560.138	0.03
560.331	0.04
560.524	0.03
560.717	0.05
560.91	0.06
561.103	0.06
561.296	0.04
561.489	0.08
561.682	0.04
561.875	0.07
562.068	0.07
562.261	0.06
562.454	0.1
562.647	0.05
562.84	0.07
563.032	0.02
563.225	0.05
563.418	0.03
563.611	0.05
563.804	0.05
563.997	0.02
564.19	0.02
564.382	-0.01
564.575	0.06
564.768	0.04
564.961	0.04
565.153	0.02
565.346	0.06
565.539	0.07
565.731	0.08
565.924	0.08
566.117	0.08
566.309	0.06
566.502	0.05
566.695	0.03
566.887	0.06
567.08	0.01
567.272	0.02
567.465	0.04
567.657	0.04
567.85	0.06
568.042	0.06
568.235	0.08
568.427	0.08
568.62	0.06
568.812	0.07
569.005	0.05
569.197	0.01
569.389	0.07
569.582	0.07
569.774	0.06
569.966	0.01
570.159	0.03
570.351	0.07
570.543	0.03
570.736	0.05
570.928	0.02
571.12	0.06
571.312	0.04
571.505	0.03
571.697	0.07
571.889	0.02
572.081	0.06
572.273	0.05
572.465	0.11
572.658	0.04
572.85	0.08
573.042	0.07
573.234	0.05
573.426	0.1
573.618	0.04
573.81	0.08
574.002	0.08
574.194	0.12
574.386	0.05
574.578	-0.02
574.77	0.03
574.962	0.06
575.154	0.04
575.346	0.06
575.538	0.08
575.729	0.02
575.921	0.05
576.113	0.06
576.305	0.1
576.497	0.03
576.689	0.07
576.88	0.03
577.072	0.11
577.264	0.05
577.456	0.06
577.647	-0.01
577.839	0.05
578.031	0.12
578.223	0.04
578.414	0.01
578.606	0.1
578.798	0.06
578.989	0.07
579.181	0.08
579.372	0.05
579.564	0.07
579.755	0.08
579.947	0.08
580.139	0.11
580.33	0.02
580.522	0.04
580.713	0.01
580.905	0.08
581.096	0.09
581.287	0.07
581.479	0.09
581.67	0.09
581.862	0.08
582.053	0.05
582.244	0.05
582.436	0.07
582.627	0.1
582.818	0.03
583.01	0.06
583.201	0.09
583.392	0.1
583.583	0.06
583.775	0.08
583.966	0.09
584.157	0.08
584.348	0.07
584.54	0.05
584.731	0.1
584.922	0.06
585.113	0.05
585.304	0.09
585.495	0.1
585.686	0.09
585.877	0.12
586.068	0.1
586.259	0.1
586.45	0.08
586.641	0.07
586.832	0.05
587.023	0.09
587.214	0.08
587.405	0.09
587.596	0.05
587.787	0.12
587.978	0.1
588.169	0.05
588.36	0.07
588.551	0.08
588.742	0.07
588.932	0.13
589.123	0.08
589.314	0.13
589.505	0.15
589.696	0.11
589.886	0.11
590.077	0.06
590.268	0.1
590.458	0.05
590.649	0.08
590.84	0.16
591.03	0.09
591.221	0.07
591.412	0.08
591.602	0.16
591.793	0.16
591.984	0.09
592.174	0.12
592.365	0.17
592.555	0.08
592.746	0.12
592.936	0.15
593.127	0.15
593.317	0.15
593.508	0.14
593.698	0.14
593.889	0.14
594.079	0.11
594.269	0.11
594.46	0.13
594.65	0.13
594.84	0.13
595.031	0.12
595.221	0.11
595.411	0.08
595.602	0.15
595.792	0.15
595.982	0.13
596.172	0.2
596.363	0.16
596.553	0.16
596.743	0.15
596.933	0.13
597.123	0.17
597.314	0.15
597.504	0.14
597.694	0.2
597.884	0.17
598.074	0.15
598.264	0.15
598.454	0.17
598.644	0.19
598.834	0.18
599.024	0.12
599.214	0.2
599.404	0.2
599.594	0.18
599.784	0.15
599.974	0.23
600.164	0.21
600.354	0.16
600.544	0.18
600.734	0.22
600.924	0.25
601.114	0.19
601.303	0.2
601.493	0.24
601.683	0.18
601.873	0.2
602.063	0.19
602.252	0.24
602.442	0.16
602.632	0.21
602.821	0.17
603.011	0.22
603.201	0.2
603.39	0.21
603.58	0.21
603.77	0.24
603.959	0.29
604.149	0.26
604.339	0.25
604.528	0.29
604.718	0.28
604.907	0.25
605.097	0.27
605.286	0.28
605.476	0.31
605.665	0.31
605.855	0.29
606.044	0.35
606.234	0.32
606.423	0.3
606.612	0.29
606.802	0.31
606.991	0.34
607.181	0.34
607.37	0.3
607.559	0.32
607.749	0.29
607.938	0.34
608.127	0.31
608.316	0.33
608.506	0.37
608.695	0.36
608.884	0.35
609.073	0.37
609.263	0.41
609.452	0.43
609.641	0.39
609.83	0.36
610.019	0.42
610.208	0.39
610.397	0.42
610.586	0.47
610.775	0.43
610.965	0.42
611.154	0.43
611.343	0.47
611.532	0.44
611.721	0.45
611.91	0.46
612.099	0.5
612.287	0.5
612.476	0.49
612.665	0.51
612.854	0.54
613.043	0.55
613.232	0.55
613.421	0.51
613.61	0.61
613.798	0.55
613.987	0.63
614.176	0.63
614.365	0.62
614.554	0.65
614.742	0.7
614.931	0.62
615.12	0.67
615.309	0.7
615.497	0.72
615.686	0.65
615.875	0.69
616.063	0.73
616.252	0.74
616.44	0.75
616.629	0.78
616.818	0.79
617.006	0.8
617.195	0.78
617.383	0.84
617.572	0.83
617.76	0.83
617.949	0.85
618.137	0.89
618.326	0.95
618.514	0.87
618.703	0.88
618.891	1.02
619.079	0.94
619.268	1.02
619.456	0.93
619.644	1.07
619.833	1.01
620.021	1.05
620.209	1.03
620.398	1.1
620.586	1.11
620.774	1.18
620.962	1.17
621.151	1.27
621.339	1.19
621.527	1.23
621.715	1.22
621.903	1.3
622.092	1.3
622.28	1.33
622.468	1.31
622.656	1.38
622.844	1.38
623.032	1.4
623.22	1.37
623.408	1.57
623.596	1.53
623.784	1.6
623.972	1.52
624.16	1.62
624.348	1.71
624.536	1.67
624.724	1.67
624.912	1.75
625.1	1.72
625.288	1.73
625.476	1.75
625.664	1.9
625.851	1.85
626.039	1.92
626.227	1.95
626.415	2
626.603	1.95
626.79	2.07
626.978	2.14
627.166	2.14
627.354	2.13
627.541	2.14
627.729	2.13
627.917	2.36
628.104	2.34
628.292	2.4
628.48	2.39
628.667	2.41
628.855	2.5
629.042	2.59
629.23	2.56
629.418	2.61
629.605	2.71
629.793	2.67
629.98	2.79
630.168	2.84
630.355	2.85
630.543	2.96
630.73	2.95
630.917	2.99
631.105	3.12
631.292	3.2
631.48	3.13
631.667	3.33
631.854	3.23
632.042	3.33
632.229	3.38
632.416	3.47
632.604	3.53
632.791	3.5
632.978	3.67
633.165	3.66
633.353	3.82
633.54	3.91
633.727	3.75
633.914	3.9
634.101	3.93
634.289	4.14
634.476	4.14
634.663	4.18
634.85	4.26
635.037	4.32
635.224	4.34
635.411	4.5
635.598	4.5
635.785	4.5
635.972	4.66
636.159	4.71
636.346	4.82
636.533	4.82
636.72	4.98
636.907	5.05
637.094	4.99
637.281	4.95
637.468	5.18
637.655	5.35
637.842	5.43
638.029	5.44
638.215	5.58
638.402	5.66
638.589	5.63
638.776	5.83
638.963	5.8
639.149	6.01
639.336	6.1
639.523	6.23
639.709	6.21
639.896	6.31
640.083	6.33
640.27	6.6
640.456	6.57
640.643	6.73
640.829	6.64
641.016	6.82
641.203	6.92
641.389	7.07
641.576	7.16
641.762	7.2
641.949	7.33
642.135	7.48
642.322	7.54
642.508	7.62
642.695	7.9
642.881	7.86
643.068	8
643.254	8.19
643.441	8.26
643.627	8.55
643.813	8.45
644	8.71
644.186	8.76
644.372	9.01
644.559	9.06
644.745	9.16
644.931	9.24
645.118	9.48
645.304	9.71
645.49	9.83
645.676	9.86
645.862	10.09
646.049	10.41
646.235	10.39
646.421	10.75
646.607	10.96
646.793	10.89
646.979	10.98
647.165	11.35
647.352	11.47
647.538	11.59
647.724	11.82
647.91	11.92
648.096	12.11
648.282	12.41
648.468	12.53
648.654	12.75
648.84	12.87
649.026	13.23
649.212	13.2
649.397	13.47
649.583	13.9
649.769	14.08
649.955	14.18
650.141	14.48
650.327	14.49
650.513	14.85
650.698	15.09
650.884	15.07
651.07	15.57
651.256	15.62
651.442	16.04
651.627	15.89
651.813	16.54
651.999	16.4
652.184	16.71
652.37	17.16
652.556	17.41
652.741	17.61
652.927	17.45
653.113	17.98
653.298	18.21
653.484	18.49
653.669	18.79
653.855	18.97
654.04	19.3
654.226	19.46
654.412	19.63
654.597	19.66
654.782	20.14
654.968	20.3
655.153	20.52
655.339	20.77
655.524	20.99
655.71	21.33
655.895	21.67
656.08	21.78
656.266	22.24
656.451	22.02
656.636	22.14
656.822	22.5
657.007	22.81
657.192	22.85
657.378	23.08
657.563	23.09
657.748	23.44
657.933	23.81
658.118	23.3
658.304	24.11
658.489	24.36
658.674	24.23
658.859	24.19
659.044	24.33
659.229	24.49
659.414	24.86
659.599	24.85
659.785	24.72
659.97	24.72
660.155	24.78
660.34	25.04
660.525	24.82
660.71	24.76
660.895	24.92
661.08	24.87
661.264	24.47
661.449	24.52
661.634	23.95
661.819	24.25
662.004	23.79
662.189	23.82
662.374	23.54
662.559	23.07
662.743	22.8
662.928	22.67
663.113	22.21
663.298	22.07
663.483	21.68
663.667	21.07
663.852	20.91
664.037	20.65
664.221	20.26
664.406	19.66
664.591	19.39
664.775	18.88
664.96	18.47
665.145	17.82
665.329	17.63
665.514	17.06
665.698	16.48
665.883	16.02
666.068	15.78
666.252	15.25
666.437	14.83
666.621	14.23
666.806	13.97
666.99	13.5
667.174	13.13
667.359	12.64
667.543	12.3
667.728	11.89
667.912	11.43
668.096	10.92
668.281	10.57
668.465	10.48
668.649	10.03
668.834	9.52
669.018	9.47
669.202	9.25
669.387	8.76
669.571	8.49
669.755	8.2
669.939	7.86
670.124	7.65
670.308	7.41
670.492	7.2
670.676	6.86
670.86	6.66
671.044	6.41
671.228	6.29
671.413	6.03
671.597	5.83
671.781	5.66
671.965	5.58
672.149	5.33
672.333	5.13
672.517	5
672.701	4.76
672.885	4.68
673.069	4.51
673.253	4.5
673.437	4.25
673.621	4.1
673.804	4.01
673.988	3.93
674.172	3.62
674.356	3.51
674.54	3.58
674.724	3.52
674.908	3.27
675.091	3.24
675.275	3.09
675.459	3.07
675.643	2.79
675.826	2.85
676.01	2.68
676.194	2.64
676.377	2.63
676.561	2.53
676.745	2.45
676.928	2.4
677.112	2.3
677.296	2.24
677.479	2.16
677.663	2.05
677.846	2.02
678.03	1.99
678.213	1.86
678.397	1.89
678.58	1.77
678.764	1.71
678.947	1.66
679.131	1.64
679.314	1.62
679.498	1.54
679.681	1.51
679.865	1.53
680.048	1.4
680.231	1.36
680.415	1.34
680.598	1.31
680.781	1.24
680.965	1.25
681.148	1.24
681.331	1.13
681.514	1.12
681.698	1.07
681.881	1.11
682.064	1.07
682.247	1.02
682.43	0.95
682.614	1.03
682.797	0.99
682.98	0.96
683.163	0.91
683.346	0.91
683.529	0.81
683.712	0.76
683.895	0.84
684.078	0.73
684.261	0.73
684.444	0.8
684.627	0.77
684.81	0.75
684.993	0.65
685.176	0.7
685.359	0.67
685.542	0.66
685.725	0.76
685.908	0.68
686.091	0.64
686.274	0.64
686.457	0.63
686.639	0.55
686.822	0.6
687.005	0.57
687.188	0.56
687.371	0.61
687.553	0.6
687.736	0.56
687.919	0.57
688.102	0.61
688.284	0.49
688.467	0.51
688.65	0.48
688.832	0.46
689.015	0.43
689.197	0.34
689.38	0.54
689.563	0.54
689.745	0.41
689.928	0.41
690.11	0.38
690.293	0.42
690.475	0.32
690.658	0.45
690.84	0.36
691.023	0.36
691.205	0.33
691.388	0.36
691.57	0.4
691.752	0.44
691.935	0.31
692.117	0.28
692.3	0.36
692.482	0.33
692.664	0.28
692.847	0.33
693.029	0.41
693.211	0.32
693.393	0.27
693.576	0.3
693.758	0.31
693.94	0.32
694.122	0.25
694.304	0.24
694.487	0.26
694.669	0.37
694.851	0.25
695.033	0.28
695.215	0.29
695.397	0.25
695.579	0.28
695.761	0.26
695.943	0.2
696.125	0.29
696.308	0.31
696.49	0.17
696.671	0.34
696.853	0.22
697.035	0.39
697.217	0.23
697.399	0.22
697.581	0.21
697.763	0.25
697.945	0.18
698.127	0.21
698.309	0.23
698.491	0.17
698.672	0.25
698.854	0.24
699.036	0.34
699.218	0.17
699.399	0.22
699.581	0.3
699.763	0.17
699.945	0.21
700.126	0.17
700.308	0.27
700.49	0.16
700.671	0.11
700.853	0.13
701.035	0.14
701.216	0.18
701.398	0.19
701.579	0.23
701.761	0.19
701.943	0.16
702.124	0.14
702.306	0.22
702.487	0.37
702.669	0.22
702.85	0.18
703.031	0.09
703.213	0.28
703.394	0.24
703.576	0.18
703.757	0.24
703.938	0.17
704.12	0.25
704.301	0.16
704.483	0.12
704.664	0.2
704.845	0.23
705.026	0.23
705.208	0.11
705.389	0.22
705.57	0.21
705.751	0.11
705.933	0.19
706.114	0.21
706.295	0.11
706.476	0.12
706.657	0.25
706.838	0.2
707.02	0.15
707.201	0.12
707.382	0.13
707.563	0.23
707.744	0.16
707.925	0.12
708.106	0.1
708.287	0.19
708.468	0.28
708.649	0.15
708.83	0.23
709.011	0.14
709.192	0.21
709.373	0.14
709.554	0.15
709.734	0.25
709.915	0.21
710.096	0.14
710.277	0.08
710.458	0.15
710.639	0.2
710.819	0.05
711	0.16
711.181	0.17
711.362	0.24
711.542	0.16
711.723	0.03
711.904	0.18
712.085	0.17
712.265	0.1
712.446	0.07
712.627	0.14
712.807	0.19
712.988	0.17
713.168	0.1
713.349	0.18
713.53	0.07
713.71	0.12
713.891	0.1
714.071	0.19
714.252	0.15
714.432	0.09
714.613	0.07
714.793	0.12
714.974	0.29
715.154	0.22
715.334	0.2
715.515	0.26
715.695	0.07
715.876	0.14
716.056	0.15
716.236	0.12
716.417	0.14
716.597	0.09
716.777	0.24
716.957	0.1
717.138	0.14
717.318	0.14
717.498	0.05
717.678	0.17
717.859	0.17
718.039	0.03
718.219	0.2
718.399	0.19
718.579	0.11
718.759	0.07
718.939	0.25
719.12	0.1
719.3	0.18
719.48	-0.05
719.66	0.06
719.84	0.2
720.02	0.13
720.2	0.16
720.38	0.09
720.56	0.23
720.74	0.11
720.92	0.15
721.1	0.16
721.279	0.18
721.459	0.23
721.639	0.07
721.819	0.17
721.999	0.12
722.179	0.23
722.359	-0
722.538	0.14
722.718	0.16
722.898	0.13
723.078	0.12
723.257	0.14
723.437	0.19
723.617	0.08
723.797	0.13
723.976	0.12
724.156	0.15
724.336	0.19
724.515	0.29
724.695	0.06
724.874	0.09
725.054	0.22
725.234	0.05
725.413	0.23
725.593	0.22
725.772	0.1
725.952	0.1
726.131	0.19
726.311	0.16
726.49	0.08
726.67	0.04
726.849	0.06
727.028	0.27
727.208	0.11
727.387	0.09
727.567	0.02
727.746	0.14
727.925	0.17
728.105	0.08
728.284	0.14
728.463	-0.14
728.643	0.19
728.822	0.05
729.001	0.18
729.18	0.13
729.359	0.17
729.539	0.1
729.718	0.13
729.897	0.15
730.076	0.1
730.255	0.04
730.434	0.15
730.614	0.13
730.793	0.18
730.972	0.09
731.151	0.13
731.33	0.27
731.509	0.16
731.688	0.15
731.867	0.04
732.046	0.1
732.225	0.35
732.404	-0
732.583	0.02
732.762	0.23
732.941	0.13
733.12	0.2
733.298	0.11
733.477	0.21
733.656	0.13
733.835	0.08
734.014	0.31
734.193	0.15
734.371	0.13
734.55	0.22
734.729	-0.04
734.908	0.19
735.086	0.21
735.265	0.19
735.444	-0.02
735.623	-0.01
735.801	-0.05
735.98	0.15
736.159	0.09
736.337	0.3
736.516	0.21
736.694	0.18
736.873	0.07
737.052	0.16
737.23	0.23
737.409	0.16
737.587	0.32
737.766	0.03
737.944	0.04
738.123	0.19
738.301	0.22
738.479	0.09
738.658	0.26
738.836	0.01
739.015	0.19
739.193	0.21
739.371	0.06
739.55	0.07
739.728	0
739.906	0.18
740.085	0.25
740.263	0.13
740.441	-0.05
740.62	0.31
740.798	0.21
740.976	0
741.154	0.14
741.332	0.33
741.511	0.1
741.689	0.08
741.867	0.25
742.045	0.11
742.223	0.21
742.401	0.1
742.579	0.17
742.757	0.21
742.935	-0.05
743.114	0.09
743.292	0.13
743.47	0.16
743.648	0.14
743.826	0.18
744.004	0.18
744.181	0.22
744.359	0.16
744.537	0.19
744.715	0.13
744.893	0.13
745.071	0.18
745.249	0.14
745.427	0.1
745.605	0.2
745.782	0.24
745.96	0.3
746.138	0.16
746.316	0.28
746.493	0.11
746.671	0.22
746.849	0.11
747.027	0.3
747.204	0.15
747.382	0.17
747.56	-0
747.737	0.12
747.915	0.23
748.093	0.13
748.27	0.17
748.448	0.01
748.625	-0.02
748.803	0.1
748.98	0.11
749.158	0.27
749.335	0.12
749.513	0.15
749.69	-0.03
749.868	0.15
750.045	0.16
750.223	0.02
750.4	-0.06
750.578	0.26
750.755	0.14
750.932	0.06
751.11	0.23
751.287	-0.06
751.464	0.24
751.642	0.11
751.819	0.11
751.996	0.1
752.173	0.13
752.351	0.05
752.528	0.08
752.705	0.08
752.882	0.15
753.06	0.15
753.237	0.27
753.414	0.23
753.591	0.23
753.768	0.18
753.945	0.06
754.122	0.05
754.299	0.28
754.476	0.07
754.654	0.09
754.831	0.17
755.008	0.1
755.185	0.03
755.362	0.01
755.539	0.08
755.716	0.01
755.892	0.06
756.069	0.1
756.246	0.11
756.423	0.05
756.6	0.3
756.777	0.13
756.954	0.13
757.131	0.09
757.307	0.05
757.484	0.15
757.661	0.22
757.838	0.17
758.015	-0.01
758.191	0.21
758.368	0.04
758.545	0.26
758.721	0.2
758.898	0.05
759.075	0.28
759.251	0.17
759.428	0.15
759.605	-0.04
759.781	0.13
759.958	0.21
760.134	0.13
760.311	-0.01
760.488	0.24
760.664	0.31
760.841	0.11
761.017	0.13
761.194	0.11
761.37	0.27
761.547	0.12
761.723	0.09
761.899	0.24
762.076	0.12
762.252	0
762.429	0.11
762.605	0.12
762.781	0.05
762.958	0.21
763.134	0.1
763.31	0.12
763.486	0.18
763.663	-0.07
763.839	0.08
764.015	-0.06
764.191	0.04
764.368	0.27
764.544	0.09
764.72	0.18
764.896	0.15
765.072	0.19
765.248	0.14
765.425	0.05
765.601	0.09
765.777	0.13
765.953	-0.02
766.129	-0.03
766.305	0.12
766.481	0.21
766.657	0.17
766.833	0.36
767.009	0.07
767.185	0.13
767.361	0.1
767.537	0.02
767.713	0.18
767.889	0.04
768.065	0.24
768.24	-0.07
768.416	0.29
768.592	-0.01
768.768	0.02
768.944	0.07
769.12	-0.01
769.295	0.05
769.471	0.12
769.647	0.08
769.823	0.34
769.998	0.05
770.174	0.11
770.35	0.46
770.525	0.38
770.701	0.1
770.877	0.15
771.052	0.08
771.228	0.24
771.403	0.2
771.579	0.26
771.755	0.33
771.93	0.04
772.106	0.01
772.281	-0.1
772.457	0.13
772.632	0.43
772.808	0.04
772.983	-0.01
773.159	0.07
773.334	0.13
773.509	0.13
773.685	0.05
773.86	0.3
774.036	0.34
774.211	0.22
774.386	0.11
774.562	0.14
774.737	0.32
774.912	0.04
775.087	0.42
775.263	0.29
775.438	0.34
775.613	-0.03
775.788	0.07
775.964	0.29
776.139	0.43
776.314	-0.08
776.489	0.26
776.664	0.3
776.839	-0.04
777.014	0.33
777.19	0.32
777.365	0.36
777.54	0.27
777.715	0.15
777.89	0.19
778.065	0.1
778.24	0.2
778.415	0.39
778.59	-0.04
778.765	0.07
778.94	0.17
779.115	0.13
779.289	0.05
779.464	0.14
779.639	0.14
779.814	-0.13
779.989	0.03
780.164	0.23
780.339	0.21
780.513	-0.01
780.688	0.05
780.863	0.02
781.038	0.42
781.212	-0.04
781.387	0.13
781.562	0.57
781.737	0.01
781.911	0.41
782.086	0.03
782.261	0.22
782.435	0.32
782.61	0.21
782.784	-0.01
782.959	0.29
783.134	0.04
783.308	0.17
783.483	0.2
783.657	0.63
783.832	0.31
784.006	0
784.181	0.12
784.355	0.32
784.53	-0.21
784.704	0.01
784.878	0.37
785.053	0.24
785.227	0.57
785.402	0.61
785.576	-0.02
785.75	0.36
785.925	0.23
786.099	0.28
786.273	0.17
786.448	0.11
786.622	0.32
786.796	0.03
786.97	0.09
787.145	0.82
787.319	-0.2
787.493	0.14
787.667	-0.13
787.841	0.31
788.015	0.41
788.19	0.23
788.364	0.41
788.538	0.32
788.712	0.26
788.886	0.26
789.06	0.22
789.234	0.18
789.408	-0.04
789.582	0.14
789.756	0.25
789.93	0.04
790.104	0.04
790.278	0.16
790.452	0.02
790.626	0.28
790.8	0.03
790.973	0.39
791.147	0.31
791.321	0.71
791.495	0.34
791.669	0.25
791.843	0.47
792.016	0.33
792.19	0.43
792.364	-0.06
792.538	0.86
792.711	0.53
792.885	0.21
793.059	0.06
793.233	-0.33
793.406	0.22
793.58	0.29
793.754	0.25
793.927	0.19
794.101	0.56
794.274	0.38
794.448	0.42
794.622	0.11
794.795	0.51
794.969	-0.09
795.142	0.49
795.316	0.28
795.489	0.02
795.663	0.49
795.836	0.24
796.009	-0.1
796.183	0.55
796.356	0.42
796.53	0.4
796.703	0.13
796.876	0.84
797.05	0.19
797.223	0.24
797.396	0.42
797.57	0.33
797.743	0.45
797.916	0.16
798.09	0.23
798.263	0.52
798.436	0.24
798.609	0.17
798.782	0.2
798.956	0.54
799.129	0.04
799.302	-0.05
799.475	0.18
799.648	0
799.821	-0.13
799.994	0.36
800.167	0.1
800.34	0.18
800.514	0.12
800.687	0.12
800.86	0.07
801.033	-0.07
801.206	0.15
801.379	0.16
801.551	0.42
801.724	0.62
801.897	0.42
802.07	0.34
802.243	-0.05
802.416	0.35
802.589	0.3
802.762	0.69
802.935	0.52
803.107	0.27
803.28	0.42
803.453	0.25
803.626	0.1
803.798	0.45
803.971	0.1
804.144	0.49
804.317	0.54
804.489	0.63
804.662	0.29
804.835	0.24
805.007	0.08
805.18	0.72
805.353	0.15
805.525	-0
805.698	0.17
805.87	0.53
806.043	0.63
806.215	-0.01
806.388	0.05
806.56	0.33
806.733	0.54
806.905	0.58
807.078	0.02
807.25	0.1
807.423	0.36
807.595	0.31
807.768	-0.04
807.94	0.68
808.112	0.53
808.285	0.28
808.457	0.17
808.629	0.48
808.802	0.68
808.974	0.4
809.146	0.23
809.318	0.05
809.491	0.36
809.663	0.31
809.835	-0.02
810.007	0.96
810.18	0.42
810.352	0.03
810.524	0.11
810.696	0.4
810.868	0.29
811.04	0.18
811.212	0.23
811.384	0.63
811.556	0.54
811.728	-0.13
811.901	1.1
812.073	0.12
812.245	0.76
812.417	0.55
812.589	-0.31
812.76	0.77
812.932	0.48
813.104	0.67
813.276	0.16
813.448	0.72
813.62	0.38
813.792	0.09
813.964	0.3
814.136	0.53
814.307	0.41
814.479	-0.13
814.651	0.52
814.823	0.86
814.995	-0.13
815.166	0.76
815.338	0.37
815.51	0.07
815.681	0.7
815.853	-0.02
816.025	0.07
816.196	0.73
816.368	0.9
816.54	-0.2
816.711	0.03
816.883	0.5
817.054	1.22
817.226	-0.24
817.398	0.81
817.569	0.01
817.741	0.64
817.912	-0.13
818.084	0.46
818.255	0.52
818.426	0.44
818.598	0.19
818.769	0.35
818.941	0.54
819.112	0.88
819.283	0.31
819.455	-0.19
819.626	0.44
819.798	0.63
819.969	0.28
820.14	0.3
820.311	0.48
820.483	0.13
820.654	0.55
820.825	-0.07
820.996	0.35
821.168	0.15
821.339	0.56
821.51	-0.31
821.681	0.17
821.852	0.48
822.023	-0.09
822.195	-0.46
822.366	0.51
822.537	0.4
822.708	0.58
822.879	-0.05
823.05	0.73
823.221	0.25
823.392	0.48
823.563	0.47
823.734	0.88
823.905	0.47
824.076	0.67
824.247	0.03
824.418	0.02
824.589	0.43
824.759	0.59
824.93	0.58
825.101	0.2
825.272	0.66
825.443	1.03
825.614	0.57
825.784	-0.45
825.955	1.69
826.126	0.71
826.297	1.05
826.467	1.25
826.638	1.77
826.809	0.14
826.98	0.89
827.15	0.98
827.321	0.28
827.492	1.28
827.662	0.44
827.833	1.21
828.003	0.33
828.174	0.12
828.345	-0.15
828.515	1.49
828.686	0.58
828.856	0.41
829.027	0.73
829.197	1.04
829.368	0.84
829.538	0.46
829.709	-0.1
829.879	0.6
830.049	0.21
830.22	0.14
830.39	1.11
830.56	1.1
830.731	0.65
830.901	-0.12
831.072	0.69
831.242	0.72
831.412	0.48
831.582	0.66
831.753	0.03
831.923	0.93
832.093	1.05
832.263	0.29
832.434	0.06
832.604	0.59
832.774	0.87
832.944	0.28
833.114	0.28
833.284	0.93
833.454	0.33
833.624	0.44
833.795	0.05
833.965	1.27
834.135	1.43
834.305	0.08
834.475	-0.02
834.645	0.55
834.815	0.49
834.985	0.5
835.155	0.67
835.325	1.33
835.494	0.71
835.664	0.54
835.834	-0.15
836.004	0.9
836.174	0.95
836.344	0.74
836.514	-0.46
836.684	0.49
836.853	0.87
837.023	0.1
837.193	0.37
837.363	0.78
837.532	1.61
837.702	0.24
837.872	0.23
838.041	1.24
838.211	1.57
838.381	-0.2
838.55	0.49
838.72	2.42
838.89	0.94
839.059	0.38
839.229	-0.11
839.398	1.73
839.568	0.76
839.738	0.98
839.907	1.66
840.077	1.27
840.246	0.24
840.416	0
840.585	0.26
840.755	1.68
840.924	1.74
841.093	-0.21
841.263	0.06
841.432	0.58
841.602	0.31
841.771	1.02
841.94	0.25
842.11	1.72
842.279	2.21
842.448	-0.44
842.617	0.72
842.787	1.75
842.956	-0.34
843.125	0.44
843.294	1.62
843.464	1.16
843.633	0.67
843.802	0.05
843.971	0.16
844.14	1.86
844.309	1.99
844.479	0.26
844.648	0.41
844.817	0.45
844.986	1.83
845.155	0.44
845.324	0.58
845.493	0.46
845.662	0.39
845.831	1.78
846	0.65
846.169	0.5
846.338	1.95
846.507	0.86
846.676	1.7
846.844	1.03
847.013	1.13
847.182	0.91
847.351	0.66
847.52	0.64
847.689	0.36
847.858	1.4
848.026	0.13
848.195	0.4
848.364	1.08
848.533	0.17
848.701	0.25
848.87	0.84
849.039	1.17
849.207	2.16
849.376	2.25
849.545	1.87
849.713	0.55
849.882	0.87
850.051	0.47
850.219	1.62
850.388	1.85
850.556	0.08
850.725	-0.5
850.893	1.3
851.062	0.28
851.23	1.72
851.399	-0.51
851.567	0.78
851.736	0.84
851.904	0.01
852.073	1.26
852.241	2.07
852.41	1.18
852.578	1.13
852.746	0.26
852.915	0.99
853.083	1.21
853.251	0.42
853.42	0.92
853.588	1.37
853.756	2.35
853.924	1.01
854.093	0.3
854.261	1.6
854.429	-0.7
854.597	0.57
854.765	0.11
854.934	1.32
855.102	2.6
855.27	1.2
855.438	1.71
855.606	2.12
855.774	3.66
855.942	-0.62
856.11	-0.5
856.278	2.14
856.446	1.35
856.614	1.9
856.782	-0.49
856.95	2.01
857.118	1.59
857.286	2.3
857.454	0.13
857.622	1.75
857.79	1.52
857.958	0.43
858.126	0.32
858.294	-1.07
858.462	1.16
858.629	0.22
858.797	0.31
858.965	1.38
859.133	1.33
859.301	0.45
859.468	2.34
859.636	1.13
859.804	2.25
859.971	2.22
860.139	0.02
860.307	1.85
860.474	1.81
860.642	-0.5
860.81	0.82
860.977	-0.18
861.145	1.63
861.313	0.49
861.48	1.32
861.648	1.66
861.815	1.59
861.983	-0.36
862.15	0.57
862.318	1.49
862.485	0.51
862.653	-0.02
862.82	-0.19
862.988	2.33
863.155	-0.04
863.322	-0.78
863.49	-0.09
863.657	1.29
863.824	3.06
863.992	1.8
864.159	2.01
864.326	2.12
864.494	1.36
864.661	4.52
864.828	0.82
864.996	3
865.163	2.3
865.33	0.57
865.497	-1.22
865.664	0.54
865.832	0.25
865.999	1.31
866.166	0.46
866.333	1.63
866.5	0.63
866.667	1.85
866.834	0.96
867.001	3.32
867.168	-0.72
867.335	1.34
867.502	-0.87
867.669	2.02
867.836	2.35
868.003	1.9
868.17	1.86
868.337	-0.76
868.504	4.47
868.671	0.81
868.838	-1.23
869.005	1.74
869.172	0.52
869.339	1.27
869.505	1.74
869.672	1.46
869.839	3.32
870.006	2
870.173	-0.37
870.339	2.07
870.506	4.99
870.673	0.59
870.84	2.26
871.006	1.19
871.173	0.42
871.34	2.15
871.506	0.92
871.673	1.17
871.839	-0.48
872.006	2.69
872.173	1.85
872.339	2.13
872.506	3.4
872.672	-0.46
872.839	-0.11
873.005	1.39
873.172	7.06
873.338	3.74
873.505	1.73
873.671	2.33
873.838	2.63
874.004	0.98
874.171	0.66
874.337	2.37
874.503	2.33
874.67	1.55
874.836	-0.65
875.002	3.98
875.169	1.38
875.335	2.08
875.501	1.01
875.668	3
875.834	1.37
876	0.47
876.166	2.62
876.332	1.1
876.499	4.1
876.665	1.37
876.831	4.06
876.997	4.58
877.163	2.38
877.329	1.69
877.495	1.47
877.662	2.11
877.828	1.93
877.994	2.22
878.16	-0.68
878.326	0.69
878.492	2.77
878.658	1.38
878.824	2.9
878.99	1.94
879.156	0.08
879.322	4.71
879.487	1.37
879.653	3.03
879.819	1.63
879.985	0.17
880.151	1.31
880.317	0.16
880.483	2.66
880.648	3.03
880.814	-2.07
880.98	4.22
881.146	-1.1
881.312	1.49
881.477	-0.18
881.643	1.38
881.809	2.06
881.974	2.92
882.14	-1.27
882.306	-0.37
882.471	4.41
882.637	1.13
882.803	2.27
882.968	3.69
883.134	4.57
883.299	1.11
883.465	1.95
883.63	1.96
883.796	3.19
883.961	3.77
884.127	2.61
884.292	-2.94
884.458	0.12
884.623	0.12
