Data from Apollo_Calib_20240827__AbsoluteIrradiance__351__05-00-02-363.txt Node

Date: Wed Aug 28 05:00:02 BST 2024
User: biology
Spectrometer: FLMT08252
Trigger mode: 0
Integration Time (sec): 5.000000E-1
Scans to average: 5
Electric dark correction enabled: true
Nonlinearity correction enabled: false
Boxcar width: 0
XAxis mode: Wavelengths
Number of Pixels in Spectrum: 3648
>>>>>Begin Spectral Data<<<<<
179.588	-0
179.809	-0
180.03	-0
180.251	-0
180.473	-0
180.694	0
180.915	0
181.136	-0
181.357	0
181.578	-0
181.799	-0
182.02	-0
182.241	0
182.462	0
182.683	0
182.904	-0
183.125	0
183.346	0
183.567	0
183.788	-0
184.009	-0
184.23	0
184.451	0
184.672	-0
184.892	-0
185.113	0
185.334	0
185.555	-0
185.776	-0
185.996	0
186.217	0
186.438	0
186.659	-0
186.879	0
187.1	0
187.321	-0
187.541	-0
187.762	0
187.983	0
188.203	0
188.424	0
188.644	-0
188.865	0
189.086	-0
189.306	0
189.527	0
189.747	0
189.968	-0
190.188	0
190.409	0
190.629	0
190.849	0
191.07	-0
191.29	0
191.511	0
191.731	0
191.951	-0
192.172	0
192.392	-0
192.612	0
192.833	0
193.053	0
193.273	0
193.493	0
193.714	0
193.934	0
194.154	0
194.374	0
194.594	0
194.815	0
195.035	0
195.255	0
195.475	-0
195.695	0
195.915	0
196.135	0
196.355	0
196.575	0
196.795	0
197.015	0
197.235	-0
197.455	-0
197.675	0
197.895	-0
198.115	-0
198.335	0
198.555	0
198.775	0
198.995	0
199.214	0
199.434	0
199.654	0
199.874	0
200.094	1.03
200.313	0.48
200.533	0.31
200.753	-0.45
200.973	1.21
201.192	0.59
201.412	0.37
201.632	-0.16
201.851	0.89
202.071	0.33
202.291	0.27
202.51	-0.24
202.73	1.05
202.95	0.19
203.169	-0.18
203.389	0.29
203.608	0.62
203.828	-0.21
204.047	0.05
204.267	0.82
204.486	0.54
204.706	0.4
204.925	0.26
205.145	-0.05
205.364	0.54
205.583	1.12
205.803	0.24
206.022	-0.14
206.242	0.32
206.461	-0.23
206.68	-0.3
206.9	0.13
207.119	0.76
207.338	1.04
207.557	-0.21
207.777	0.26
207.996	-0.15
208.215	0.68
208.434	-0.12
208.654	-0.38
208.873	0.48
209.092	0.85
209.311	0.08
209.53	0.15
209.749	0.39
209.968	0.03
210.187	0.17
210.407	-0.36
210.626	-0.06
210.845	0.45
211.064	0.14
211.283	-0.2
211.502	0.58
211.721	0.18
211.94	0.06
212.159	0.57
212.377	0.4
212.596	0.45
212.815	0.21
213.034	0.2
213.253	0.36
213.472	0.34
213.691	0.12
213.91	-0.17
214.128	0.04
214.347	0.57
214.566	-0.31
214.785	-0.23
215.003	0.41
215.222	0.2
215.441	0.15
215.66	-0.09
215.878	0.23
216.097	0.34
216.316	-0.22
216.534	-0.01
216.753	0.28
216.972	0.2
217.19	0.17
217.409	-0.07
217.627	-0.07
217.846	0.14
218.064	0.11
218.283	-0.02
218.501	0.52
218.72	0.46
218.938	-0.09
219.157	0.06
219.375	0.27
219.594	0.42
219.812	-0.16
220.031	-0.04
220.249	0.45
220.467	0.45
220.686	0.13
220.904	0
221.122	-0.01
221.341	0.42
221.559	0.13
221.777	-0.11
221.995	0.11
222.214	0.29
222.432	0.05
222.65	0.22
222.868	0.12
223.086	0.17
223.305	0.22
223.523	0.09
223.741	0.33
223.959	0.07
224.177	-0.15
224.395	0.06
224.613	0.19
224.831	0.23
225.049	-0.05
225.267	-0.04
225.485	0.06
225.703	0.16
225.921	0.12
226.139	0.06
226.357	0.22
226.575	0.25
226.793	0.02
227.011	0.67
227.229	0.27
227.447	0.29
227.665	-0.08
227.883	-0.04
228.1	0.16
228.318	0.15
228.536	-0.13
228.754	-0.01
228.972	0.24
229.189	0.23
229.407	0.02
229.625	0.18
229.843	0.27
230.06	0.27
230.278	0.02
230.496	0.12
230.713	0.24
230.931	0.3
231.149	0.03
231.366	0.01
231.584	0.15
231.801	0.51
232.019	0.08
232.236	-0.07
232.454	-0.08
232.671	0.2
232.889	0.06
233.106	0.07
233.324	0.09
233.541	0.04
233.759	0.12
233.976	0.08
234.194	0.1
234.411	0.08
234.628	0.06
234.846	0.06
235.063	0.2
235.28	0.15
235.498	0.08
235.715	-0.13
235.932	0.29
236.149	0.1
236.367	0.08
236.584	0.09
236.801	-0.06
237.018	0.25
237.236	0.11
237.453	-0.01
237.67	0.15
237.887	0.16
238.104	-0
238.321	-0.05
238.538	-0
238.755	0.28
238.973	-0.01
239.19	0.06
239.407	0.12
239.624	0.2
239.841	-0.1
240.058	0.02
240.275	0.05
240.492	0.17
240.709	0.09
240.925	0.02
241.142	0.12
241.359	-0.03
241.576	-0.06
241.793	-0.03
242.01	0.06
242.227	0.13
242.444	0.15
242.66	0.27
242.877	0.05
243.094	0.04
243.311	0.06
243.527	0.06
243.744	0.19
243.961	0.18
244.178	0.04
244.394	0.14
244.611	0.19
244.828	0.28
245.044	0.02
245.261	0.03
245.477	0.14
245.694	0.19
245.911	0.02
246.127	0.07
246.344	0.22
246.56	0.12
246.777	-0.01
246.993	0.09
247.21	0.1
247.426	0.23
247.643	0.06
247.859	-0.05
248.076	0.02
248.292	0.24
248.508	0.03
248.725	0.09
248.941	0.11
249.157	0.14
249.374	-0.05
249.59	0.03
249.806	0.04
250.023	0.21
250.239	-0.02
250.455	-0.01
250.671	0.09
250.888	0.16
251.104	0.13
251.32	0.02
251.536	0.15
251.752	0.07
251.969	0.04
252.185	0.08
252.401	0.27
252.617	0.16
252.833	0.08
253.049	0.09
253.265	0.12
253.481	0.1
253.697	0.04
253.913	0.09
254.129	0.09
254.345	0.07
254.561	0.06
254.777	0.05
254.993	0.12
255.209	0.03
255.425	0.09
255.641	-0.03
255.857	0.17
256.073	0.15
256.288	-0.11
256.504	0.1
256.72	0.18
256.936	0.19
257.152	0.07
257.367	-0
257.583	0.13
257.799	0.17
258.015	0.09
258.23	0.01
258.446	0.24
258.662	0.02
258.877	0.04
259.093	0.02
259.309	0.1
259.524	0.14
259.74	0.04
259.955	-0.05
260.171	0.06
260.387	0.08
260.602	0.14
260.818	0.12
261.033	-0
261.249	0.05
261.464	0
261.68	-0.07
261.895	0.07
262.11	0.16
262.326	0.05
262.541	-0.02
262.757	0.21
262.972	0.18
263.187	0.15
263.403	0.1
263.618	0.15
263.833	0.1
264.049	0.03
264.264	0.1
264.479	0.2
264.694	0.22
264.91	-0
265.125	0.03
265.34	0.13
265.555	0.25
265.77	0.1
265.986	0.06
266.201	0.12
266.416	0.16
266.631	0.06
266.846	0.04
267.061	0.1
267.276	0.17
267.491	-0.08
267.706	0.1
267.921	0.15
268.136	0.1
268.351	0.07
268.566	-0
268.781	0.18
268.996	0.17
269.211	0.09
269.426	0
269.641	0.08
269.856	0.12
270.071	0.04
270.285	0.02
270.5	0.15
270.715	0.1
270.93	0.11
271.145	0.08
271.359	0.17
271.574	0.05
271.789	0.13
272.004	0.01
272.218	0.02
272.433	0.15
272.648	0.04
272.862	0.14
273.077	0.06
273.292	0.07
273.506	0.03
273.721	0.07
273.936	0.11
274.15	0.16
274.365	0.08
274.579	0.16
274.794	0.16
275.008	0.16
275.223	-0.02
275.437	0.06
275.652	0.2
275.866	0.11
276.081	0.05
276.295	0.07
276.509	0.09
276.724	0.08
276.938	0.1
277.153	0.07
277.367	0.15
277.581	0.01
277.796	0.02
278.01	-0
278.224	0.14
278.438	0.18
278.653	0.01
278.867	-0.01
279.081	0.09
279.295	0.09
279.51	0.1
279.724	0.01
279.938	0.14
280.152	0.12
280.366	0.04
280.58	0.05
280.794	0.15
281.008	0.11
281.222	0.11
281.437	0.18
281.651	0.14
281.865	0.17
282.079	0.09
282.293	-0
282.507	0.04
282.721	0.08
282.935	0.08
283.148	-0.01
283.362	0.05
283.576	0.01
283.79	0.07
284.004	0.06
284.218	0.15
284.432	0.02
284.646	0.1
284.859	0.07
285.073	0.01
285.287	0.1
285.501	0.11
285.714	0.08
285.928	0.07
286.142	0.07
286.356	0.03
286.569	0.06
286.783	0.13
286.997	0.13
287.21	0.1
287.424	0.06
287.637	0.1
287.851	0.04
288.065	0.11
288.278	0.08
288.492	0.1
288.705	0.1
288.919	0.16
289.132	0.01
289.346	0.17
289.559	-0
289.773	0.03
289.986	0.05
290.2	0.06
290.413	0.14
290.626	0.07
290.84	0.03
291.053	0.01
291.267	0.16
291.48	0.05
291.693	0.06
291.906	-0
292.12	0.06
292.333	0.03
292.546	0.03
292.76	0.14
292.973	0.16
293.186	0.16
293.399	0.06
293.612	0.12
293.826	0.06
294.039	0.06
294.252	0.06
294.465	0.12
294.678	0.11
294.891	0.1
295.104	0.03
295.317	0.09
295.53	0.03
295.743	0.08
295.956	0.04
296.169	0.17
296.382	0.1
296.595	0.06
296.808	0.08
297.021	0.12
297.234	0.14
297.447	0.08
297.66	0.11
297.873	0.14
298.086	0.1
298.299	0.06
298.511	0
298.724	0.05
298.937	0.04
299.15	0.06
299.363	0.06
299.575	0.09
299.788	0.06
300.001	0.07
300.213	0.03
300.426	0.03
300.639	0.06
300.852	0.04
301.064	0.15
301.277	0.15
301.489	0.12
301.702	0.11
301.915	0.06
302.127	0.08
302.34	0.09
302.552	0.1
302.765	-0.02
302.977	0.13
303.19	0.07
303.402	0.06
303.615	0.08
303.827	0.06
304.04	0.09
304.252	0.11
304.464	0.07
304.677	0.21
304.889	0.14
305.102	0.05
305.314	0.09
305.526	0.17
305.739	0.11
305.951	0.04
306.163	0.05
306.375	0.19
306.588	0.06
306.8	0.04
307.012	-0.01
307.224	0.07
307.436	0.1
307.649	0.01
307.861	0.08
308.073	0.1
308.285	0.05
308.497	0.03
308.709	0.04
308.921	0.1
309.133	0.13
309.346	0.08
309.558	0.09
309.77	0.14
309.982	0.12
310.194	0.13
310.406	0.01
310.617	0.13
310.829	0.06
311.041	0.13
311.253	0.05
311.465	0.07
311.677	0.11
311.889	0.08
312.101	0.02
312.313	0.09
312.524	0.13
312.736	0.04
312.948	0.09
313.16	0.17
313.372	0.12
313.583	0.11
313.795	0.07
314.007	0.06
314.218	0.15
314.43	0.06
314.642	0.05
314.853	-0.01
315.065	0.12
315.277	0.09
315.488	0.05
315.7	0.14
315.912	0.09
316.123	0.04
316.335	0.08
316.546	0.18
316.758	0.06
316.969	0.06
317.181	0.08
317.392	0.1
317.604	0.14
317.815	0.05
318.026	0.06
318.238	0.06
318.449	0.13
318.661	-0.01
318.872	0.04
319.083	0.03
319.295	0.08
319.506	0.07
319.717	0.1
319.929	0.15
320.14	0.11
320.351	0.07
320.562	0.05
320.774	0.08
320.985	0.03
321.196	0.06
321.407	0.02
321.618	0.17
321.829	0.11
322.041	0.12
322.252	0.07
322.463	0.1
322.674	0.13
322.885	0.04
323.096	0.05
323.307	0.08
323.518	0.07
323.729	0.04
323.94	0.09
324.151	0.08
324.362	0.11
324.573	0.1
324.784	0.05
324.995	0.11
325.206	0.11
325.417	0.07
325.628	0.09
325.838	0.09
326.049	0.11
326.26	0.12
326.471	0.03
326.682	0.09
326.892	0.08
327.103	-0
327.314	0.04
327.525	0.11
327.735	0.13
327.946	0.1
328.157	0.06
328.368	0.11
328.578	0.08
328.789	0.12
328.999	0.06
329.21	0.08
329.421	0.11
329.631	0.05
329.842	0.03
330.052	0.07
330.263	0.11
330.473	0.12
330.684	0.09
330.894	0.05
331.105	0.06
331.315	0.06
331.526	0.04
331.736	0.17
331.947	0.12
332.157	0.14
332.367	0.04
332.578	0.12
332.788	0.14
332.999	0.13
333.209	0.12
333.419	0.05
333.629	0.11
333.84	0.09
334.05	0.06
334.26	0.1
334.47	0.08
334.681	0.16
334.891	0.09
335.101	0.12
335.311	0.17
335.521	0.08
335.732	0.05
335.942	0.13
336.152	0.11
336.362	0.12
336.572	0.11
336.782	0.09
336.992	0.07
337.202	0.05
337.412	0.03
337.622	0.09
337.832	0.07
338.042	0.08
338.252	-0
338.462	0.06
338.672	0.06
338.882	0.11
339.092	0.11
339.302	0.13
339.511	0.09
339.721	0.05
339.931	0.02
340.141	0.13
340.351	0.13
340.561	0.09
340.77	0.11
340.98	0.09
341.19	0.13
341.4	0.06
341.609	0.06
341.819	0.05
342.029	0.03
342.238	0.08
342.448	0.03
342.658	0.11
342.867	0.11
343.077	0.09
343.286	0.1
343.496	0.12
343.706	0.16
343.915	0.05
344.125	0.08
344.334	0.13
344.544	0.04
344.753	0.07
344.963	0.07
345.172	0.1
345.381	0.05
345.591	0.07
345.8	0.08
346.01	0.17
346.219	0.12
346.428	-0.05
346.638	0.13
346.847	0.05
347.056	0.15
347.266	0.04
347.475	0.08
347.684	0.12
347.893	0.1
348.103	0.12
348.312	0.1
348.521	0.07
348.73	0.1
348.94	0.07
349.149	0.08
349.358	0.08
349.567	0.05
349.776	0.03
349.985	0.05
350.194	0.15
350.403	0.11
350.612	0.02
350.821	0.05
351.03	0.09
351.239	-0
351.448	0.12
351.657	0.06
351.866	0.16
352.075	0.07
352.284	0.16
352.493	0.05
352.702	0.13
352.911	0.12
353.12	0.13
353.329	0.03
353.538	0.09
353.746	0.1
353.955	0.1
354.164	0.08
354.373	0.06
354.582	0.12
354.79	0.09
354.999	0.09
355.208	0.09
355.416	0.13
355.625	0.02
355.834	0.03
356.042	0.1
356.251	0.08
356.46	0.02
356.668	0.11
356.877	0.16
357.085	0.12
357.294	-0
357.503	0.1
357.711	0.06
357.92	0.2
358.128	0.1
358.337	0.04
358.545	0.09
358.754	0.12
358.962	0.12
359.17	0.06
359.379	0.1
359.587	0.16
359.796	0.08
360.004	0.13
360.212	0.13
360.421	0.14
360.629	0.05
360.837	0.03
361.046	0.09
361.254	0.14
361.462	0.06
361.67	0.07
361.879	0.09
362.087	0.15
362.295	0.1
362.503	0.08
362.711	0.04
362.92	0.04
363.128	0.04
363.336	0.02
363.544	-0
363.752	0.11
363.96	0.04
364.168	0.05
364.376	0.1
364.584	0.11
364.792	0.13
365	0.11
365.208	0.1
365.416	0.15
365.624	0.14
365.832	0.05
366.04	0.13
366.248	0.13
366.456	0.12
366.664	0.07
366.872	0.09
367.079	0.06
367.287	0.09
367.495	0.07
367.703	0.08
367.911	0.12
368.118	0.05
368.326	0.1
368.534	0.04
368.742	0.14
368.949	0.04
369.157	0.07
369.365	0.11
369.572	0.06
369.78	0.04
369.988	0.12
370.195	0.12
370.403	0.08
370.61	0.06
370.818	0.11
371.026	0.16
371.233	0.07
371.441	0.05
371.648	0.07
371.856	0.12
372.063	0.1
372.271	0.06
372.478	0.02
372.685	0.07
372.893	0.14
373.1	0.08
373.308	0.05
373.515	0.17
373.722	0.12
373.93	0.09
374.137	0.1
374.344	0.19
374.552	0.14
374.759	0.07
374.966	0.08
375.173	0.05
375.381	0.14
375.588	0.06
375.795	0
376.002	0.04
376.209	0.05
376.417	0.11
376.624	0.07
376.831	0.14
377.038	0.07
377.245	0.02
377.452	0.06
377.659	0.09
377.866	0.06
378.073	0.07
378.28	0.05
378.487	0.1
378.694	0.12
378.901	0.08
379.108	0.07
379.315	0.11
379.522	0.18
379.729	0.13
379.936	0.1
380.143	0.07
380.35	0.12
380.557	0.03
380.763	0.06
380.97	0.1
381.177	0.1
381.384	0.1
381.591	0.08
381.797	0.09
382.004	0.08
382.211	0.1
382.418	0.08
382.624	0.14
382.831	0.12
383.038	0.09
383.244	0.1
383.451	0.09
383.658	0.13
383.864	0.07
384.071	0.06
384.277	0.12
384.484	0.05
384.69	0.12
384.897	0.07
385.103	0.08
385.31	0.06
385.516	0.09
385.723	0.08
385.929	0.1
386.136	0.04
386.342	0.15
386.549	0.13
386.755	0.19
386.961	0.13
387.168	0.05
387.374	0.1
387.58	0.18
387.787	0.09
387.993	0.12
388.199	0.09
388.406	0.05
388.612	0.11
388.818	0.09
389.024	0.09
389.231	0.12
389.437	0.2
389.643	0.16
389.849	0.11
390.055	0.12
390.261	0.13
390.467	0.12
390.674	0.09
390.88	0.1
391.086	0.12
391.292	0.06
391.498	0.16
391.704	0.13
391.91	0.09
392.116	0.13
392.322	-0.03
392.528	0.16
392.734	0.08
392.94	0.08
393.146	0.08
393.352	0.16
393.557	0.09
393.763	0.1
393.969	0.14
394.175	0.07
394.381	0.09
394.587	0.09
394.792	0.12
394.998	0.18
395.204	0.16
395.41	0.09
395.615	0.12
395.821	0.06
396.027	0.14
396.233	0.09
396.438	0.14
396.644	0.2
396.85	0.14
397.055	0.13
397.261	0.14
397.466	0.12
397.672	0.09
397.878	0.13
398.083	0.14
398.289	0.1
398.494	0.16
398.7	0.17
398.905	0.08
399.111	0.22
399.316	0.04
399.522	0.13
399.727	0.09
399.932	0.12
400.138	0.13
400.343	0.19
400.549	0.11
400.754	0.15
400.959	0.15
401.165	0.15
401.37	0.13
401.575	0.22
401.78	0.14
401.986	0.15
402.191	0.11
402.396	0.17
402.601	0.19
402.807	0.2
403.012	0.18
403.217	0.2
403.422	0.13
403.627	0.15
403.832	0.15
404.037	0.16
404.243	0.17
404.448	0.12
404.653	0.16
404.858	0.16
405.063	0.19
405.268	0.1
405.473	0.17
405.678	0.14
405.883	0.33
406.088	0.19
406.293	0.16
406.498	0.19
406.703	0.22
406.907	0.17
407.112	0.13
407.317	0.18
407.522	0.21
407.727	0.14
407.932	0.19
408.136	0.32
408.341	0.18
408.546	0.19
408.751	0.19
408.956	0.19
409.16	0.27
409.365	0.25
409.57	0.21
409.774	0.24
409.979	0.27
410.184	0.25
410.388	0.24
410.593	0.32
410.798	0.27
411.002	0.23
411.207	0.34
411.411	0.32
411.616	0.28
411.82	0.27
412.025	0.38
412.229	0.26
412.434	0.4
412.638	0.35
412.843	0.29
413.047	0.38
413.252	0.29
413.456	0.43
413.66	0.44
413.865	0.4
414.069	0.49
414.273	0.4
414.478	0.43
414.682	0.45
414.886	0.45
415.091	0.47
415.295	0.47
415.499	0.57
415.703	0.56
415.908	0.56
416.112	0.5
416.316	0.68
416.52	0.65
416.724	0.62
416.929	0.72
417.133	0.91
417.337	0.73
417.541	0.75
417.745	0.78
417.949	0.87
418.153	0.88
418.357	0.87
418.561	1.1
418.765	0.99
418.969	1.07
419.173	1.18
419.377	1.06
419.581	1.25
419.785	1.24
419.989	1.22
420.193	1.32
420.397	1.35
420.601	1.46
420.804	1.54
421.008	1.5
421.212	1.66
421.416	1.66
421.62	1.68
421.823	1.67
422.027	1.86
422.231	1.84
422.435	1.82
422.638	1.84
422.842	1.97
423.046	1.98
423.249	2.17
423.453	2.12
423.657	2.27
423.86	2.27
424.064	2.41
424.268	2.59
424.471	2.61
424.675	2.73
424.878	2.83
425.082	2.9
425.285	3.14
425.489	3.05
425.692	3.21
425.896	3.18
426.099	3.41
426.303	3.51
426.506	3.53
426.71	3.81
426.913	3.98
427.116	4.05
427.32	4.07
427.523	4.23
427.726	4.49
427.93	4.49
428.133	4.74
428.336	4.92
428.54	5.01
428.743	5.17
428.946	5.43
429.149	5.47
429.353	5.54
429.556	5.53
429.759	5.67
429.962	5.76
430.165	5.95
430.368	5.67
430.571	5.74
430.775	5.92
430.978	5.91
431.181	5.97
431.384	6
431.587	6.15
431.79	6.39
431.993	6.44
432.196	6.7
432.399	7.07
432.602	7.16
432.805	7.23
433.008	7.73
433.211	7.63
433.414	7.98
433.616	8
433.819	8.01
434.022	8.12
434.225	8.28
434.428	8.32
434.631	8.78
434.833	8.64
435.036	8.87
435.239	9.03
435.442	9.15
435.645	9.28
435.847	9.44
436.05	9.82
436.253	10.05
436.455	10.17
436.658	10.17
436.861	10.41
437.063	10.56
437.266	10.64
437.468	11.03
437.671	11.38
437.874	11.46
438.076	11.49
438.279	11.86
438.481	12.09
438.684	12.93
438.886	12.65
439.089	12.97
439.291	13.14
439.494	13.62
439.696	13.87
439.899	14.37
440.101	15.12
440.303	15.42
440.506	16.29
440.708	16.01
440.91	16.42
441.113	16.88
441.315	17.28
441.517	17.21
441.72	17.86
441.922	17.73
442.124	17.76
442.326	18.34
442.529	18.87
442.731	19.11
442.933	19.52
443.135	19.29
443.337	19.74
443.539	20.51
443.742	20.19
443.944	21.17
444.146	21.04
444.348	21.23
444.55	21.31
444.752	21.69
444.954	21.86
445.156	22.01
445.358	22.66
445.56	23.09
445.762	23.1
445.964	23.67
446.166	23.5
446.368	23.75
446.57	23.85
446.772	23.55
446.974	23.42
447.175	23.84
447.377	23.68
447.579	24.34
447.781	23.9
447.983	23.83
448.184	23.31
448.386	23.99
448.588	23.51
448.79	23.19
448.991	23.79
449.193	24.03
449.395	23.06
449.597	22.49
449.798	22.42
450	21.87
450.202	21.77
450.403	21.86
450.605	21.82
450.806	21.2
451.008	21.05
451.21	20.79
451.411	20.19
451.613	19.15
451.814	19.42
452.016	19.26
452.217	18.17
452.419	18.22
452.62	17.85
452.821	17.46
453.023	17.16
453.224	16.74
453.426	16.06
453.627	15.06
453.828	15.18
454.03	15.23
454.231	15.24
454.432	14.84
454.634	14.41
454.835	14.07
455.036	13.88
455.238	13.29
455.439	12.94
455.64	12.52
455.841	12.43
456.042	12.31
456.244	11.93
456.445	11.59
456.646	11.24
456.847	11.06
457.048	10.94
457.249	10.86
457.45	10.5
457.651	9.96
457.852	9.7
458.054	9.25
458.255	9.14
458.456	9.23
458.657	9.19
458.858	8.54
459.058	8.37
459.259	8.43
459.46	8.04
459.661	8.03
459.862	8.01
460.063	7.89
460.264	7.8
460.465	7.41
460.666	7.51
460.866	7.15
461.067	6.66
461.268	6.76
461.469	6.73
461.67	6.54
461.87	6.36
462.071	6.31
462.272	6.21
462.473	6.08
462.673	6.36
462.874	6.12
463.075	6.1
463.275	6.04
463.476	5.98
463.676	5.94
463.877	5.73
464.078	5.68
464.278	5.77
464.479	5.5
464.679	5.39
464.88	5.3
465.08	5.12
465.281	4.99
465.481	4.69
465.682	4.52
465.882	4.44
466.083	4.4
466.283	4.3
466.483	4.1
466.684	3.92
466.884	3.79
467.085	3.78
467.285	3.78
467.485	3.58
467.686	3.54
467.886	3.37
468.086	3.33
468.286	3.19
468.487	3.4
468.687	3.04
468.887	2.96
469.087	3.1
469.287	2.92
469.488	2.72
469.688	2.87
469.888	2.83
470.088	2.69
470.288	2.66
470.488	2.53
470.688	2.41
470.888	2.33
471.088	2.2
471.288	2.28
471.488	2.2
471.688	2.21
471.888	2.08
472.088	2.23
472.288	2.07
472.488	1.94
472.688	1.88
472.888	1.88
473.088	1.86
473.288	1.79
473.488	1.76
473.688	1.82
473.887	1.68
474.087	1.62
474.287	1.66
474.487	1.57
474.687	1.57
474.886	1.51
475.086	1.45
475.286	1.46
475.486	1.39
475.685	1.38
475.885	1.34
476.085	1.31
476.284	1.3
476.484	1.27
476.684	1.29
476.883	1.3
477.083	1.21
477.282	1.16
477.482	1.22
477.681	1.17
477.881	1.06
478.08	1.07
478.28	1.01
478.479	1.07
478.679	1.06
478.878	0.99
479.078	0.94
479.277	0.92
479.477	0.92
479.676	0.94
479.875	0.9
480.075	0.82
480.274	0.88
480.473	0.9
480.673	0.81
480.872	0.86
481.071	0.82
481.271	0.82
481.47	0.76
481.669	0.75
481.868	0.7
482.067	0.7
482.267	0.62
482.466	0.66
482.665	0.64
482.864	0.59
483.063	0.6
483.262	0.7
483.461	0.68
483.661	0.64
483.86	0.6
484.059	0.59
484.258	0.59
484.457	0.53
484.656	0.51
484.855	0.54
485.054	0.46
485.253	0.45
485.452	0.46
485.651	0.48
485.849	0.47
486.048	0.42
486.247	0.44
486.446	0.47
486.645	0.4
486.844	0.39
487.043	0.38
487.241	0.43
487.44	0.34
487.639	0.35
487.838	0.38
488.037	0.36
488.235	0.42
488.434	0.35
488.633	0.28
488.831	0.34
489.03	0.37
489.229	0.32
489.427	0.31
489.626	0.33
489.825	0.31
490.023	0.28
490.222	0.27
490.42	0.32
490.619	0.32
490.817	0.28
491.016	0.25
491.214	0.29
491.413	0.23
491.611	0.24
491.81	0.25
492.008	0.25
492.207	0.26
492.405	0.25
492.604	0.2
492.802	0.21
493	0.26
493.199	0.22
493.397	0.22
493.595	0.21
493.794	0.19
493.992	0.24
494.19	0.18
494.388	0.18
494.587	0.16
494.785	0.22
494.983	0.16
495.181	0.19
495.379	0.19
495.578	0.15
495.776	0.18
495.974	0.2
496.172	0.16
496.37	0.15
496.568	0.12
496.766	0.17
496.964	0.19
497.162	0.15
497.36	0.12
497.558	0.17
497.756	0.17
497.954	0.15
498.152	0.11
498.35	0.15
498.548	0.12
498.746	0.14
498.944	0.09
499.142	0.12
499.34	0.1
499.538	0.13
499.736	0.09
499.933	0.16
500.131	0.16
500.329	0.12
500.527	0.15
500.725	0.15
500.922	0.13
501.12	0.14
501.318	0.12
501.516	0.11
501.713	0.12
501.911	0.11
502.109	0.07
502.306	0.11
502.504	0.11
502.701	0.09
502.899	0.12
503.097	0.15
503.294	0.11
503.492	0.1
503.689	0.09
503.887	0.13
504.084	0.16
504.282	0.11
504.479	0.04
504.677	0.11
504.874	0.07
505.072	0.08
505.269	0.08
505.466	0.1
505.664	0.14
505.861	0.05
506.059	0.08
506.256	0.11
506.453	0.08
506.651	0.11
506.848	0.09
507.045	0.09
507.242	0.1
507.44	0.08
507.637	0.09
507.834	0.08
508.031	0.11
508.229	0.07
508.426	0.08
508.623	0.07
508.82	0.06
509.017	0.06
509.214	0.05
509.411	0.08
509.608	0.05
509.805	0.1
510.003	0.06
510.2	0.06
510.397	0.11
510.594	0.06
510.791	0.06
510.988	0.05
511.184	0.09
511.381	0.09
511.578	0.04
511.775	0.1
511.972	0.06
512.169	0.06
512.366	0.08
512.563	0.07
512.76	0.07
512.956	0.05
513.153	0.05
513.35	0.07
513.547	0.06
513.744	0.05
513.94	0.02
514.137	0.07
514.334	0.07
514.53	0.06
514.727	0.06
514.924	0.12
515.12	0.03
515.317	0.04
515.514	0.03
515.71	0.04
515.907	0.06
516.103	0.04
516.3	0.07
516.497	0.07
516.693	0.08
516.89	0.07
517.086	0.03
517.283	0.1
517.479	0.06
517.676	0.05
517.872	0.03
518.068	0.03
518.265	0.02
518.461	0.04
518.658	0.02
518.854	0.07
519.05	0.06
519.247	0.05
519.443	0.05
519.639	0.06
519.836	0.05
520.032	0.06
520.228	0.05
520.424	0.09
520.621	0.07
520.817	0.05
521.013	0.06
521.209	0.07
521.405	0.09
521.601	0.06
521.798	0.05
521.994	0.09
522.19	0.02
522.386	0.02
522.582	0.04
522.778	0.04
522.974	0.05
523.17	0.05
523.366	0.06
523.562	0.07
523.758	0.03
523.954	0.02
524.15	0.02
524.346	0.08
524.542	0.05
524.738	0.04
524.934	0.05
525.129	0.03
525.325	0.05
525.521	0.04
525.717	0.07
525.913	0.06
526.109	0.03
526.304	0.04
526.5	0.05
526.696	0.07
526.892	0.03
527.087	0.05
527.283	0.03
527.479	0.06
527.674	0.03
527.87	0.03
528.066	0.04
528.261	0.06
528.457	0.04
528.653	0.05
528.848	0.03
529.044	0.03
529.239	0.03
529.435	0.09
529.63	0.06
529.826	0.09
530.021	0.06
530.217	0.06
530.412	0.03
530.608	0.02
530.803	0.02
530.999	0.05
531.194	-0.01
531.389	0.04
531.585	-0.02
531.78	0.04
531.975	0.05
532.171	0.07
532.366	0.03
532.561	0.03
532.757	0.01
532.952	0.05
533.147	0.06
533.342	0.05
533.538	0.03
533.733	0.06
533.928	0.06
534.123	0.03
534.318	0.01
534.513	0.03
534.709	0.04
534.904	0
535.099	0.01
535.294	0.03
535.489	0.06
535.684	0.04
535.879	0.02
536.074	0.03
536.269	0.01
536.464	0.03
536.659	0.04
536.854	0.03
537.049	0.04
537.244	0.03
537.439	0
537.634	0.05
537.828	0.05
538.023	0.01
538.218	-0.02
538.413	0.05
538.608	-0
538.803	0.06
538.997	0.01
539.192	0.07
539.387	0.04
539.582	0.05
539.776	0.04
539.971	-0
540.166	0.03
540.36	0.02
540.555	0.04
540.75	0.02
540.944	0.04
541.139	-0
541.334	0.02
541.528	0.06
541.723	0.06
541.917	0.03
542.112	0.01
542.306	0.02
542.501	0.04
542.695	0.03
542.89	0.01
543.084	0.04
543.279	0.03
543.473	0.04
543.668	0.02
543.862	0.03
544.056	0.04
544.251	0.05
544.445	0.03
544.64	0.02
544.834	0.01
545.028	0.04
545.222	0.05
545.417	0.05
545.611	0.02
545.805	0.02
546	0.02
546.194	0.02
546.388	0.02
546.582	0.04
546.776	0.03
546.97	0.06
547.165	0.04
547.359	0.06
547.553	0.03
547.747	0.03
547.941	0.04
548.135	0.04
548.329	0.06
548.523	0.05
548.717	0.01
548.911	0.03
549.105	0.04
549.299	0.03
549.493	0.07
549.687	0.04
549.881	0.02
550.075	0.02
550.269	0
550.463	0.08
550.657	0.01
550.85	0.02
551.044	0.02
551.238	0.04
551.432	0.01
551.626	0.01
551.82	0.01
552.013	0
552.207	0.05
552.401	0.04
552.594	0.04
552.788	0.01
552.982	0.02
553.176	0.02
553.369	0.06
553.563	0.06
553.756	-0.01
553.95	0
554.144	0.04
554.337	0.04
554.531	0.03
554.724	0.05
554.918	0.03
555.111	0.06
555.305	0.02
555.498	0.08
555.692	0.07
555.885	0.02
556.079	0.04
556.272	-0
556.466	0.06
556.659	0.03
556.852	0.02
557.046	0.03
557.239	0.05
557.432	0.01
557.626	0.02
557.819	0.05
558.012	0.04
558.206	0.04
558.399	0.03
558.592	0.05
558.785	0.05
558.979	0.06
559.172	0.03
559.365	0.06
559.558	0.03
559.751	0.02
559.944	0.02
560.138	0.01
560.331	0.02
560.524	0
560.717	0.03
560.91	0.05
561.103	0.03
561.296	0
561.489	0.05
561.682	0.03
561.875	0.06
562.068	0.05
562.261	0.04
562.454	0.04
562.647	0.04
562.84	0.04
563.032	0.03
563.225	0.03
563.418	0.02
563.611	0.02
563.804	0.02
563.997	-0
564.19	0.01
564.382	0.04
564.575	-0
564.768	0.03
564.961	0
565.153	-0
565.346	0.05
565.539	0.05
565.731	0.04
565.924	0.06
566.117	0.04
566.309	0.01
566.502	0.03
566.695	0.03
566.887	0.04
567.08	-0.01
567.272	0.05
567.465	0.01
567.657	0.02
567.85	0.05
568.042	0.05
568.235	0.07
568.427	0.02
568.62	0.04
568.812	0.02
569.005	0.02
569.197	-0.03
569.389	0.05
569.582	0.04
569.774	0.02
569.966	0
570.159	0
570.351	0.03
570.543	-0
570.736	0.02
570.928	0.01
571.12	0.02
571.312	0.01
571.505	0
571.697	0.05
571.889	-0.02
572.081	0.02
572.273	0
572.465	0.06
572.658	0.01
572.85	0.02
573.042	0.01
573.234	0.01
573.426	0.05
573.618	-0.01
573.81	0.05
574.002	0.06
574.194	0.05
574.386	-0.02
574.578	-0.07
574.77	0.01
574.962	0.02
575.154	-0
575.346	0.02
575.538	0.07
575.729	-0.02
575.921	0.03
576.113	-0.01
576.305	0.04
576.497	-0.01
576.689	0.01
576.88	-0
577.072	0.05
577.264	0.02
577.456	0.01
577.647	-0.06
577.839	0.02
578.031	0.06
578.223	-0.02
578.414	-0.03
578.606	0.03
578.798	0.03
578.989	-0.01
579.181	0.02
579.372	-0
579.564	0.02
579.755	0.02
579.947	0.02
580.139	0.04
580.33	-0.02
580.522	0
580.713	-0.03
580.905	0.03
581.096	0.04
581.287	0.03
581.479	0.03
581.67	0.06
581.862	0.01
582.053	-0.01
582.244	0.02
582.436	-0
582.627	0.03
582.818	0.02
583.01	-0.02
583.201	0.06
583.392	0.03
583.583	0.04
583.775	0.02
583.966	0.01
584.157	0.01
584.348	0.01
584.54	-0.02
584.731	0.03
584.922	0
585.113	0.01
585.304	0.03
585.495	0.03
585.686	0.06
585.877	0.03
586.068	0.04
586.259	0.07
586.45	0.04
586.641	0.02
586.832	-0.03
587.023	0.01
587.214	0.02
587.405	0.02
587.596	0
587.787	0.06
587.978	0.01
588.169	0
588.36	-0.01
588.551	0.04
588.742	0.02
588.932	0.04
589.123	0
589.314	0.05
589.505	0.03
589.696	0.03
589.886	-0
590.077	-0.03
590.268	0.02
590.458	-0.01
590.649	-0.03
590.84	0.06
591.03	0.03
591.221	-0.03
591.412	-0.01
591.602	0.03
591.793	0.07
591.984	-0.02
592.174	0
592.365	0.09
592.555	0.01
592.746	0.02
592.936	0.04
593.127	0.03
593.317	0.07
593.508	-0.01
593.698	0.02
593.889	0.02
594.079	0.02
594.269	0
594.46	0.02
594.65	-0.01
594.84	0.03
595.031	-0
595.221	-0.01
595.411	-0.02
595.602	0.04
595.792	0.01
595.982	-0.01
596.172	0.07
596.363	0.03
596.553	0.02
596.743	0.02
596.933	0.03
597.123	0.05
597.314	-0.01
597.504	0.01
597.694	0.05
597.884	0.03
598.074	0.01
598.264	0
598.454	0.03
598.644	0.02
598.834	0.01
599.024	-0.04
599.214	0
599.404	0.06
599.594	-0.01
599.784	-0.02
599.974	0.06
600.164	0.02
600.354	-0.01
600.544	-0.02
600.734	0.01
600.924	0.05
601.114	-0.03
601.303	-0.01
601.493	0.05
601.683	0.02
601.873	0.02
602.063	-0.02
602.252	0.05
602.442	-0.04
602.632	-0.04
602.821	-0.04
603.011	0.03
603.201	0.01
603.39	-0
603.58	-0.02
603.77	0.03
603.959	0.04
604.149	0.03
604.339	0.01
604.528	0.07
604.718	0.04
604.907	0.02
605.097	-0.01
605.286	-0.02
605.476	0.03
605.665	0
605.855	0.03
606.044	0.06
606.234	0.03
606.423	0.01
606.612	-0
606.802	0.02
606.991	0.02
607.181	0.02
607.37	-0
607.559	0.02
607.749	0.01
607.938	-0
608.127	0.01
608.316	0.01
608.506	0.04
608.695	0.01
608.884	-0.03
609.073	0.04
609.263	0.02
609.452	0.01
609.641	0.01
609.83	-0
610.019	0
610.208	-0.02
610.397	0.02
610.586	0.03
610.775	-0.01
610.965	0.01
611.154	-0.03
611.343	0.03
611.532	0.03
611.721	-0.02
611.91	0
612.099	0.05
612.287	-0
612.476	-0
612.665	0.02
612.854	-0.03
613.043	0.05
613.232	0.01
613.421	-0.04
613.61	0.05
613.798	0.01
613.987	0.04
614.176	0.02
614.365	0.05
614.554	0.02
614.742	0.05
614.931	-0.02
615.12	0.05
615.309	0.02
615.497	0.03
615.686	-0.01
615.875	0
616.063	0.03
616.252	-0.01
616.44	-0.02
616.629	0.03
616.818	0.03
617.006	-0.01
617.195	0.01
617.383	0.06
617.572	0.02
617.76	-0.01
617.949	-0.01
618.137	0.01
618.326	0.04
618.514	0
618.703	-0.02
618.891	0.07
619.079	-0.04
619.268	0.05
619.456	-0.02
619.644	0.05
619.833	0.01
620.021	0.02
620.209	-0.04
620.398	0.04
620.586	0.02
620.774	0.03
620.962	0.01
621.151	0.05
621.339	0.03
621.527	-0.02
621.715	-0.02
621.903	-0.02
622.092	-0.04
622.28	0.03
622.468	0
622.656	0.04
622.844	0.02
623.032	0
623.22	-0.07
623.408	0.02
623.596	0.03
623.784	0.07
623.972	-0.03
624.16	0.01
624.348	0.08
624.536	0.01
624.724	-0.01
624.912	0.06
625.1	0.08
625.288	-0.01
625.476	-0.02
625.664	0.02
625.851	-0
626.039	-0.01
626.227	0.04
626.415	-0
626.603	-0.03
626.79	0.02
626.978	-0
627.166	0.05
627.354	0.02
627.541	0
627.729	-0.04
627.917	0.05
628.104	0.03
628.292	0.03
628.48	-0.01
628.667	0.04
628.855	0.01
629.042	0.02
629.23	0.02
629.418	0.03
629.605	-0
629.793	-0.01
629.98	-0.02
630.168	0.01
630.355	0.01
630.543	-0
630.73	0.02
630.917	0.05
631.105	0.07
631.292	0.02
631.48	0.01
631.667	0.11
631.854	-0.01
632.042	0.02
632.229	-0.02
632.416	0.03
632.604	0.03
632.791	-0.06
632.978	0.03
633.165	0.02
633.353	0.09
633.54	0.02
633.727	-0.08
633.914	-0.01
634.101	-0.06
634.289	0.05
634.476	-0.04
634.663	0
634.85	0.03
635.037	-0
635.224	-0.03
635.411	0.04
635.598	0.09
635.785	0.02
635.972	-0.01
636.159	0.03
636.346	-0.02
636.533	0.01
636.72	0
636.907	-0
637.094	0.01
637.281	-0.02
637.468	0.01
637.655	0
637.842	0.01
638.029	-0.05
638.215	0.04
638.402	0.02
638.589	-0.02
638.776	-0.02
638.963	-0.02
639.149	0.07
639.336	0.1
639.523	0.01
639.709	0.03
639.896	0
640.083	0.07
640.27	0.02
640.456	-0.02
640.643	0.03
640.829	-0.02
641.016	0.01
641.203	-0.02
641.389	0.05
641.576	0.03
641.762	-0
641.949	-0.03
642.135	0.04
642.322	0.03
642.508	-0.02
642.695	-0.01
642.881	0.01
643.068	-0.03
643.254	-0.01
643.441	0.04
643.627	-0.01
643.813	-0.03
644	0.05
644.186	-0.03
644.372	0.03
644.559	0.04
644.745	0.03
644.931	-0
645.118	-0.02
645.304	0.01
645.49	0
645.676	-0.01
645.862	0.02
646.049	0.09
646.235	0.01
646.421	0.04
646.607	0.08
646.793	0
646.979	-0.02
647.165	0
647.352	0
647.538	0.03
647.724	0.05
647.91	0
648.096	0.04
648.282	0.03
648.468	0.03
648.654	0.01
648.84	0.01
649.026	-0
649.212	0.01
649.397	0.01
649.583	-0.03
649.769	0.03
649.955	0.02
650.141	0.02
650.327	0.06
650.513	-0.02
650.698	0.03
650.884	-0.07
651.07	0.06
651.256	0.02
651.442	0.02
651.627	0.01
651.813	0.01
651.999	0.02
652.184	0.02
652.37	0.01
652.556	-0
652.741	0.06
652.927	-0.04
653.113	-0
653.298	0.01
653.484	0
653.669	-0.04
653.855	0.01
654.04	0.03
654.226	0.05
654.412	-0.02
654.597	-0.02
654.782	0
654.968	0.03
655.153	0.04
655.339	-0.02
655.524	-0.05
655.71	0.02
655.895	-0.02
656.08	-0
656.266	0.07
656.451	0.01
656.636	-0.03
656.822	0.03
657.007	0.01
657.192	-0
657.378	-0.03
657.563	0.02
657.748	0.05
657.933	-0.01
658.118	0
658.304	-0
658.489	0.04
658.674	0.02
658.859	-0
659.044	0.03
659.229	0.03
659.414	0.03
659.599	0.02
659.785	-0.05
659.97	-0.01
660.155	0.07
660.34	0.04
660.525	0.01
660.71	0
660.895	0.07
661.08	-0.03
661.264	0
661.449	0.09
661.634	0.02
661.819	0.01
662.004	0.03
662.189	-0.07
662.374	-0.03
662.559	-0.01
662.743	-0.03
662.928	0.01
663.113	-0
663.298	-0.04
663.483	-0.01
663.667	0.03
663.852	-0.02
664.037	0.06
664.221	-0.03
664.406	0.03
664.591	0.02
664.775	0.04
664.96	0.02
665.145	0.02
665.329	0.06
665.514	-0.01
665.698	-0.02
665.883	-0.05
666.068	0.05
666.252	0.02
666.437	-0.08
666.621	-0.03
666.806	0.05
666.99	0.01
667.174	-0.06
667.359	0.07
667.543	-0.01
667.728	-0
667.912	-0.09
668.096	0.03
668.281	0.01
668.465	-0.03
668.649	0.02
668.834	0.03
669.018	0.01
669.202	0.01
669.387	-0.01
669.571	0.06
669.755	-0.03
669.939	0.02
670.124	0.03
670.308	0.06
670.492	0.07
670.676	-0
670.86	-0.02
671.044	-0.01
671.228	0.04
671.413	-0.05
671.597	-0.03
671.781	-0.01
671.965	0.04
672.149	0.02
672.333	-0.03
672.517	-0.05
672.701	0
672.885	-0.01
673.069	-0.06
673.253	0.06
673.437	-0.03
673.621	-0.06
673.804	-0
673.988	0.01
674.172	0
674.356	-0.05
674.54	-0
674.724	0.06
674.908	0.01
675.091	0.02
675.275	-0
675.459	0.04
675.643	0.09
675.826	0.03
676.01	-0.03
676.194	0.02
676.377	0.04
676.561	-0.01
676.745	0
676.928	0.06
677.112	0.08
677.296	-0.01
677.479	-0.02
677.663	-0
677.846	0.03
678.03	-0.04
678.213	0.03
678.397	0.03
678.58	0.01
678.764	-0.04
678.947	-0.05
679.131	0
679.314	0.07
679.498	-0.01
679.681	0.03
679.865	0.04
680.048	0.02
680.231	-0.02
680.415	0.02
680.598	-0.01
680.781	0.02
680.965	-0.03
681.148	0.05
681.331	-0.01
681.514	0.04
681.698	-0.04
681.881	0
682.064	0.02
682.247	0.03
682.43	-0.07
682.614	0.07
682.797	0.05
682.98	0.06
683.163	-0.05
683.346	0.02
683.529	-0.04
683.712	-0.04
683.895	0.04
684.078	-0.03
684.261	0.01
684.444	0.02
684.627	0.06
684.81	-0
684.993	-0.01
685.176	0
685.359	-0.04
685.542	-0.03
685.725	0.08
685.908	0.02
686.091	-0.01
686.274	0.05
686.457	0.08
686.639	0
686.822	0.03
687.005	0.02
687.188	0.06
687.371	0.11
687.553	0.03
687.736	0.06
687.919	0.13
688.102	0.14
688.284	-0.01
688.467	0.02
688.65	0.02
688.832	-0.01
689.015	-0.01
689.197	-0.08
689.38	0.08
689.563	0.09
689.745	-0.04
689.928	0.01
690.11	0.04
690.293	0.04
690.475	-0.04
690.658	0.04
690.84	0.02
691.023	0.01
691.205	-0.05
691.388	0.05
691.57	0.07
691.752	0.03
691.935	-0.05
692.117	-0.01
692.3	0.02
692.482	0.02
692.664	0.02
692.847	0.06
693.029	0.05
693.211	0.09
693.393	0.04
693.576	0
693.758	0.06
693.94	-0
694.122	-0.07
694.304	-0.02
694.487	0.02
694.669	0.04
694.851	-0.03
695.033	0.03
695.215	-0.07
695.397	-0.07
695.579	0.06
695.761	0.02
695.943	-0.04
696.125	0.08
696.308	-0.01
696.49	-0.06
696.671	0.13
696.853	0.02
697.035	0.15
697.217	0.03
697.399	0.08
697.581	-0.04
697.763	0.03
697.945	-0.05
698.127	-0.04
698.309	0.12
698.491	0.03
698.672	0.01
698.854	0.07
699.036	0.09
699.218	-0.02
699.399	0.03
699.581	0.07
699.763	0.08
699.945	-0.02
700.126	-0.05
700.308	0.04
700.49	0.03
700.671	-0.1
700.853	-0.04
701.035	-0.09
701.216	0.01
701.398	-0.05
701.579	-0.01
701.761	0.09
701.943	-0.03
702.124	-0.06
702.306	0.02
702.487	0.11
702.669	0.01
702.85	0
703.031	-0.04
703.213	0.13
703.394	0.08
703.576	-0.03
703.757	0.14
703.938	0.05
704.12	0.21
704.301	0.01
704.483	-0.03
704.664	0.04
704.845	0.16
705.026	0.08
705.208	-0.05
705.389	0.04
705.57	0.01
705.751	-0.04
705.933	-0.02
706.114	0.09
706.295	-0
706.476	-0.07
706.657	0.1
706.838	0.03
707.02	0.09
707.201	-0.03
707.382	0.03
707.563	0.09
707.744	0.01
707.925	-0.08
708.106	-0.02
708.287	0.02
708.468	0.13
708.649	0.02
708.83	0.05
709.011	-0.06
709.192	0.05
709.373	-0.06
709.554	0.03
709.734	0.12
709.915	0.07
710.096	0.01
710.277	-0.08
710.458	-0
710.639	0.06
710.819	-0.13
711	0.02
711.181	0.08
711.362	0.04
711.542	-0.02
711.723	0.02
711.904	0.09
712.085	0.04
712.265	0.07
712.446	0.01
712.627	-0.04
712.807	0.01
712.988	0.03
713.168	0.01
713.349	0.11
713.53	-0.08
713.71	-0.03
713.891	-0.03
714.071	-0.02
714.252	-0.04
714.432	-0.01
714.613	-0.13
714.793	0.02
714.974	0.13
715.154	0.05
715.334	0.03
715.515	0.13
715.695	-0
715.876	0.01
716.056	-0.01
716.236	-0.04
716.417	-0.04
716.597	-0.04
716.777	0.13
716.957	0.01
717.138	0.08
717.318	0.02
717.498	-0.08
717.678	0.02
717.859	0.08
718.039	-0.02
718.219	0.01
718.399	0.03
718.579	-0.02
718.759	-0.08
718.939	0.06
719.12	0.05
719.3	0.01
719.48	-0.14
719.66	-0.15
719.84	0.1
720.02	-0.05
720.2	-0.05
720.38	0.06
720.56	0.12
720.74	0.01
720.92	0.03
721.1	0.06
721.279	0.11
721.459	0
721.639	-0.08
721.819	0.04
721.999	0
722.179	0.02
722.359	-0.09
722.538	0.01
722.718	-0.02
722.898	-0.02
723.078	-0.02
723.257	0.03
723.437	-0.05
723.617	0.05
723.797	-0.08
723.976	0.02
724.156	0.06
724.336	0.12
724.515	0.13
724.695	-0.09
724.874	0.04
725.054	0.09
725.234	-0.03
725.413	0.01
725.593	0.02
725.772	-0.04
725.952	-0.01
726.131	0.02
726.311	0.04
726.49	0.06
726.67	-0.09
726.849	-0.04
727.028	0.02
727.208	-0.05
727.387	0.06
727.567	-0.02
727.746	-0.03
727.925	0
728.105	-0.12
728.284	-0.02
728.463	-0.06
728.643	0.1
728.822	-0.04
729.001	-0.02
729.18	0.05
729.359	0.08
729.539	-0.02
729.718	0.05
729.897	0.06
730.076	-0.04
730.255	-0.1
730.434	-0.02
730.614	0.04
730.793	0.1
730.972	-0.05
731.151	-0.02
731.33	0.07
731.509	0.1
731.688	0.07
731.867	0.01
732.046	-0.02
732.225	0.12
732.404	-0.06
732.583	-0.1
732.762	0.09
732.941	0.16
733.12	0.03
733.298	-0.01
733.477	0.05
733.656	-0.07
733.835	-0.13
734.014	0.07
734.193	-0.03
734.371	0.06
734.55	0.01
734.729	-0.16
734.908	-0.01
735.086	0.06
735.265	0.13
735.444	-0.12
735.623	-0.11
735.801	-0.01
735.98	-0.07
736.159	-0.07
736.337	0.14
736.516	0.04
736.694	-0.04
736.873	-0.06
737.052	0.2
737.23	0.16
737.409	0.04
737.587	0.19
737.766	-0.11
737.944	-0.05
738.123	0
738.301	-0.01
738.479	0.08
738.658	-0.01
738.836	-0.16
739.015	0.05
739.193	0.12
739.371	-0.08
739.55	0.02
739.728	-0.07
739.906	0.05
740.085	0.26
740.263	0.14
740.441	-0.22
740.62	0.2
740.798	0.09
740.976	-0.05
741.154	-0.04
741.332	0.21
741.511	0.01
741.689	0.12
741.867	0.14
742.045	0.08
742.223	-0.06
742.401	-0.05
742.579	-0.1
742.757	0.02
742.935	-0.14
743.114	-0
743.292	0.03
743.47	-0.03
743.648	-0.09
743.826	-0.12
744.004	0.06
744.181	0.04
744.359	-0.07
744.537	0.06
744.715	-0.06
744.893	0.03
745.071	0.1
745.249	0.05
745.427	0.06
745.605	0.01
745.782	0.06
745.96	0.15
746.138	-0
746.316	0.06
746.493	0.02
746.671	0.03
746.849	0.01
747.027	0.12
747.204	-0.06
747.382	0.11
747.56	-0.07
747.737	0.02
747.915	0.05
748.093	-0.05
748.27	-0.01
748.448	-0.03
748.625	-0.16
748.803	0.03
748.98	-0.08
749.158	0.01
749.335	0.07
749.513	0.11
749.69	0.02
749.868	0.05
750.045	0.03
750.223	-0.04
750.4	-0.22
750.578	0.14
750.755	0.08
750.932	-0.24
751.11	0.08
751.287	-0.17
751.464	0.22
751.642	-0.07
751.819	0.04
751.996	0.01
752.173	-0
752.351	-0.13
752.528	0.09
752.705	0.04
752.882	-0.03
753.06	0.05
753.237	0.06
753.414	0.14
753.591	0.12
753.768	0.03
753.945	-0.07
754.122	-0.03
754.299	0.09
754.476	-0.07
754.654	-0.03
754.831	-0.02
755.008	0.03
755.185	0.02
755.362	-0.1
755.539	0.09
755.716	-0.06
755.892	-0.02
756.069	0.03
756.246	0.03
756.423	0.1
756.6	0.1
756.777	-0.04
756.954	0.12
757.131	0.03
757.307	-0.07
757.484	-0.1
757.661	-0.01
757.838	0.03
758.015	-0.1
758.191	0.08
758.368	0.04
758.545	0.14
758.721	0.03
758.898	-0.09
759.075	0.05
759.251	0.2
759.428	0.11
759.605	-0.06
759.781	0
759.958	0.02
760.134	0.04
760.311	-0.12
760.488	0.13
760.664	0.17
760.841	0.15
761.017	-0.06
761.194	0.03
761.37	0.06
761.547	-0.05
761.723	0.07
761.899	0.2
762.076	-0.14
762.252	0.04
762.429	0.03
762.605	0.2
762.781	0.02
762.958	0.1
763.134	-0.05
763.31	-0.06
763.486	0.18
763.663	-0.19
763.839	0.08
764.015	-0.13
764.191	-0.08
764.368	-0.08
764.544	-0.1
764.72	0.02
764.896	0.09
765.072	-0.03
765.248	-0
765.425	-0.02
765.601	0.08
765.777	0.02
765.953	-0.15
766.129	-0.02
766.305	-0.11
766.481	0.1
766.657	0.11
766.833	0.22
767.009	-0.08
767.185	-0.01
767.361	-0.05
767.537	-0.18
767.713	0.24
767.889	0.06
768.065	0.03
768.24	0.19
768.416	0.13
768.592	-0.02
768.768	-0.05
768.944	0.07
769.12	-0.13
769.295	-0.01
769.471	-0.01
769.647	0.07
769.823	0.16
769.998	-0.11
770.174	-0.21
770.35	0.28
770.525	0.07
770.701	0.18
770.877	-0.07
771.052	0.01
771.228	0.19
771.403	-0.03
771.579	0.07
771.755	0.25
771.93	-0.04
772.106	-0.23
772.281	-0.13
772.457	0.02
772.632	0.23
772.808	-0.24
772.983	-0.07
773.159	-0.18
773.334	0.16
773.509	0.04
773.685	-0.08
773.86	0.37
774.036	0.12
774.211	-0.02
774.386	-0.09
774.562	0.17
774.737	0.22
774.912	-0.14
775.087	-0
775.263	0.07
775.438	0.06
775.613	-0.01
775.788	-0.01
775.964	0.2
776.139	0.41
776.314	-0.07
776.489	-0
776.664	0.06
776.839	-0.18
777.014	0.29
777.19	0.13
777.365	0.29
777.54	0.11
777.715	-0.1
777.89	0.03
778.065	-0.24
778.24	0
778.415	0.08
778.59	-0.06
778.765	-0.04
778.94	0.03
779.115	-0.13
779.289	-0.07
779.464	0.06
779.639	-0.02
779.814	-0.05
779.989	-0.05
780.164	0.27
780.339	0.16
780.513	-0.22
780.688	-0.14
780.863	0.06
781.038	0.07
781.212	-0.22
781.387	-0.01
781.562	0.28
781.737	-0.06
781.911	0.19
782.086	-0.06
782.261	-0.03
782.435	0.24
782.61	-0.14
782.784	-0.05
782.959	0.36
783.134	-0.23
783.308	-0.38
783.483	0.03
783.657	0.35
783.832	0.13
784.006	-0.4
784.181	-0.01
784.355	0.16
784.53	-0.13
784.704	-0.12
784.878	0.24
785.053	0.06
785.227	0.14
785.402	0.23
785.576	-0.23
785.75	-0.18
785.925	-0.05
786.099	-0.15
786.273	0.12
786.448	0.02
786.622	0.08
786.796	0.04
786.97	0.04
787.145	0.3
787.319	-0.06
787.493	-0.06
787.667	-0.43
787.841	-0.04
788.015	0.13
788.19	-0.08
788.364	0.02
788.538	0.19
788.712	0.28
788.886	-0.02
789.06	0.17
789.234	0.23
789.408	-0.02
789.582	-0.04
789.756	0.03
789.93	-0.21
790.104	0.02
790.278	-0.13
790.452	-0.19
790.626	0.07
790.8	-0.15
790.973	0.18
791.147	0.31
791.321	0.35
791.495	0.22
791.669	0.02
791.843	0.14
792.016	0.08
792.19	0.46
792.364	-0.09
792.538	0.45
792.711	0.47
792.885	-0
793.059	-0.27
793.233	-0.19
793.406	0.18
793.58	0.03
793.754	0.1
793.927	-0.02
794.101	0.26
794.274	-0.04
794.448	0.22
794.622	-0.01
794.795	0.21
794.969	-0.19
795.142	0.56
795.316	-0.01
795.489	-0.18
795.663	0.43
795.836	0.05
796.009	-0.17
796.183	0.29
796.356	0.08
796.53	0.03
796.703	-0.19
796.876	0.37
797.05	-0.3
797.223	0.02
797.396	0.13
797.57	-0.03
797.743	0.27
797.916	0.07
798.09	0.05
798.263	0.1
798.436	0.3
798.609	-0.15
798.782	0.02
798.956	0.12
799.129	-0.1
799.302	0.08
799.475	-0.23
799.648	-0.28
799.821	-0.06
799.994	0.14
800.167	-0.42
800.34	-0.1
800.514	0.22
800.687	-0.09
800.86	-0.23
801.033	0.37
801.206	0.22
801.379	-0.23
801.551	0.08
801.724	0.3
801.897	0.64
802.07	-0.17
802.243	-0.61
802.416	-0.12
802.589	-0.07
802.762	0.31
802.935	-0.03
803.107	-0.01
803.28	0.29
803.453	0.29
803.626	-0.33
803.798	0.31
803.971	-0.36
804.144	0.13
804.317	0.25
804.489	0.25
804.662	-0.04
804.835	0.22
805.007	-0.48
805.18	0.34
805.353	0.01
805.525	-0.1
805.698	-0.18
805.87	0.21
806.043	0.23
806.215	-0.26
806.388	-0.26
806.56	0.28
806.733	0.21
806.905	-0.11
807.078	-0.17
807.25	-0.08
807.423	-0.02
807.595	0.07
807.768	-0.09
807.94	0.5
808.112	0.34
808.285	-0.42
808.457	-0.21
808.629	0.07
808.802	0.17
808.974	-0.11
809.146	-0.08
809.318	-0.36
809.491	-0.07
809.663	0.26
809.835	-0.09
810.007	-0.11
810.18	-0.13
810.352	-0.45
810.524	-0.11
810.696	0.12
810.868	0.41
811.04	0.21
811.212	-0.06
811.384	0.56
811.556	0.41
811.728	-0.17
811.901	0.83
812.073	-0.1
812.245	0.23
812.417	-0.03
812.589	-0.28
812.76	0.11
812.932	0.05
813.104	0.22
813.276	0.29
813.448	0.02
813.62	0.17
813.792	0.27
813.964	-0.02
814.136	0.52
814.307	-0.4
814.479	-0.34
814.651	0.08
814.823	0.92
814.995	0.07
815.166	0.2
815.338	-0.23
815.51	-0.3
815.681	0.7
815.853	-0.16
816.025	0.12
816.196	0.51
816.368	0.33
816.54	-0.42
816.711	-0.57
816.883	0.43
817.054	1
817.226	-0.45
817.398	0.66
817.569	-0.21
817.741	0.45
817.912	0.12
818.084	0.13
818.255	0.23
818.426	0.07
818.598	0.09
818.769	-0.04
818.941	0.06
819.112	0.88
819.283	0.13
819.455	-0.6
819.626	0.19
819.798	0.04
819.969	-0.07
820.14	-0.04
820.311	-0.18
820.483	0.43
820.654	0.28
820.825	-0.03
820.996	0.27
821.168	-0.76
821.339	-0.05
821.51	-0.64
821.681	0.24
821.852	0.21
822.023	-0.52
822.195	-0.96
822.366	0.24
822.537	0.01
822.708	0.26
822.879	-0.44
823.05	1
823.221	0.1
823.392	0.59
823.563	0.22
823.734	0.48
823.905	-0.39
824.076	-0.14
824.247	-0.52
824.418	-0.03
824.589	0.6
824.759	-0.3
824.93	-0.09
825.101	-0.4
825.272	0.43
825.443	0.65
825.614	0.25
825.784	-1.13
825.955	0.81
826.126	0.56
826.297	-0.25
826.467	0.39
826.638	0.72
826.809	-0.87
826.98	0.05
827.15	0.24
827.321	-0.11
827.492	1.15
827.662	0.11
827.833	1.1
828.003	0.65
828.174	-0.8
828.345	-0.7
828.515	0.76
828.686	0.15
828.856	0.15
829.027	0.13
829.197	0.84
829.368	0.34
829.538	-0.68
829.709	-0.34
829.879	0.07
830.049	0.18
830.22	-0.3
830.39	-0.63
830.56	0.69
830.731	0.26
830.901	-0.28
831.072	0.25
831.242	0.51
831.412	0.2
831.582	0.18
831.753	-0.28
831.923	0.42
832.093	-0
832.263	-0.44
832.434	-1.07
832.604	-0.09
832.774	0.27
832.944	-0.01
833.114	0.24
833.284	0.3
833.454	-0.92
833.624	-0.74
833.795	0.27
833.965	0.73
834.135	0.37
834.305	-0.48
834.475	-0.42
834.645	0.22
834.815	-0.14
834.985	-0.81
835.155	-0.13
835.325	0.13
835.494	0.21
835.664	-0.48
835.834	-0.62
836.004	-0.07
836.174	1.05
836.344	-0.24
836.514	-1.14
836.684	-0.7
836.853	-0.45
837.023	0.09
837.193	0.16
837.363	0.61
837.532	0.75
837.702	-0.58
837.872	-0.61
838.041	0.68
838.211	1.18
838.381	-0.86
838.55	0.14
838.72	1.67
838.89	1.31
839.059	-0.63
839.229	-0.37
839.398	1.29
839.568	0.29
839.738	0.24
839.907	0.91
840.077	0.01
840.246	-0.54
840.416	-1.24
840.585	-0.83
840.755	1.48
840.924	0.79
841.093	-0.86
841.263	-0.18
841.432	-0.25
841.602	-0.06
841.771	-0.79
841.94	0.27
842.11	1.8
842.279	1.72
842.448	-0.93
842.617	-1.07
842.787	0.68
842.956	-1.12
843.125	-1.17
843.294	-0.24
843.464	1.22
843.633	0.25
843.802	-0.68
843.971	0.02
844.14	1.11
844.309	0.09
844.479	-0.78
844.648	-0.67
844.817	0.12
844.986	0.56
845.155	-1.2
845.324	-0.2
845.493	0.05
845.662	-1.24
845.831	0.34
846	-0.13
846.169	-0.46
846.338	1.23
846.507	0.09
846.676	0.15
846.844	-0.93
847.013	1.21
847.182	-0.17
847.351	0.01
847.52	0.3
847.689	-0.25
847.858	-0.78
848.026	-0.4
848.195	-0.06
848.364	-0.35
848.533	-0.88
848.701	0.31
848.87	0.64
849.039	0.74
849.207	0.96
849.376	1.99
849.545	0.89
849.713	-1.11
849.882	-0.64
850.051	-0.17
850.219	0.09
850.388	0.69
850.556	-0.9
850.725	-0.68
850.893	-0.52
851.062	-0.3
851.23	0.57
851.399	-1.33
851.567	-0.26
851.736	0.17
851.904	-1.35
852.073	0.42
852.241	0.35
852.41	-0.84
852.578	0.22
852.746	-1.04
852.915	0.58
853.083	0.03
853.251	-0.55
853.42	-0.59
853.588	0.82
853.756	-0.33
853.924	-0.93
854.093	-0.16
854.261	-0.9
854.429	-1.07
854.597	0.1
854.765	-0.83
854.934	0.45
855.102	1.16
855.27	-0.44
855.438	1.11
855.606	0.54
855.774	0.38
855.942	-1.36
856.11	-2.21
856.278	0.59
856.446	1.37
856.614	-0.03
856.782	-1.21
856.95	0.55
857.118	0.15
857.286	0.55
857.454	-1.41
857.622	1.6
857.79	1.32
857.958	-1.67
858.126	-0.83
858.294	-2.34
858.462	-0.02
858.629	-1.1
858.797	0.38
858.965	-0.02
859.133	0.09
859.301	-0.68
859.468	1.37
859.636	-0.2
859.804	1.52
859.971	0.48
860.139	-0.81
860.307	0.97
860.474	0.33
860.642	-0.77
860.81	-1.04
860.977	0.19
861.145	0.82
861.313	0.15
861.48	-0.18
861.648	1.67
861.815	-0.4
861.983	-1.7
862.15	-1.66
862.318	1.28
862.485	1.94
862.653	-0.69
862.82	-2.16
862.988	2.04
863.155	0.48
863.322	-0.89
863.49	-1.78
863.657	-1.57
863.824	1.37
863.992	1.79
864.159	1.59
864.326	1.49
864.494	-1.11
864.661	1.97
864.828	-1.87
864.996	1.7
865.163	2.34
865.33	-1.2
865.497	-3.99
865.664	-1.01
865.832	-1.63
865.999	-0.25
866.166	-1.39
866.333	-0.69
866.5	-2.06
866.667	-0.76
866.834	-0.15
867.001	2.16
867.168	-3.06
867.335	0.13
867.502	-1.84
867.669	0.75
867.836	2.6
868.003	-1.28
868.17	1.87
868.337	-0.33
868.504	2.97
868.671	-1.13
868.838	-0.85
869.005	0.71
869.172	0.45
869.339	0.72
869.505	-0.13
869.672	-1.43
869.839	1.54
870.006	-0.54
870.173	-3.16
870.339	-0.7
870.506	2.39
870.673	-2.41
870.84	-0.81
871.006	2.45
871.173	-0.72
871.34	1.4
871.506	-1.53
871.673	0.87
871.839	-1.16
872.006	-1.25
872.173	-0.5
872.339	0.59
872.506	2.93
872.672	-0.3
872.839	-1.09
873.005	0.51
873.172	3.7
873.338	1.81
873.505	0.06
873.671	-0.95
873.838	0.98
874.004	-1.37
874.171	-1.48
874.337	0.2
874.503	1.21
874.67	-1.71
874.836	-0.26
875.002	2.57
875.169	1.7
875.335	-0.34
875.501	-0.83
875.668	1.03
875.834	0.7
876	-0.02
876.166	1.84
876.332	0.78
876.499	2
876.665	-1.06
876.831	0.21
876.997	3.07
877.163	-1.02
877.329	-2.02
877.495	-0.13
877.662	1.28
877.828	0.62
877.994	-1.04
878.16	-1.69
878.326	-0.39
878.492	-0.91
878.658	-2.12
878.824	1.16
878.99	-0.04
879.156	-0.53
879.322	2.78
879.487	-1.03
879.653	0.22
879.819	0.81
879.985	-0.94
880.151	0.33
880.317	-0.59
880.483	-2.06
880.648	0.76
880.814	-2.86
880.98	1.23
881.146	-2.16
881.312	-1.11
881.477	-0.08
881.643	0.35
881.809	2.05
881.974	1.4
882.14	-2.77
882.306	-0.63
882.471	1.58
882.637	-2.17
882.803	0.07
882.968	1.53
883.134	4.91
883.299	-0.08
883.465	-0.47
883.63	0.98
883.796	1.82
883.961	1.63
884.127	1.11
884.292	-3.25
884.458	-1.89
884.623	-1.89
