Data from Apollo_Calib_20240827__AbsoluteIrradiance__418__06-07-01-410.txt Node

Date: Wed Aug 28 06:07:01 BST 2024
User: biology
Spectrometer: FLMT08252
Trigger mode: 0
Integration Time (sec): 5.000000E-1
Scans to average: 5
Electric dark correction enabled: true
Nonlinearity correction enabled: false
Boxcar width: 0
XAxis mode: Wavelengths
Number of Pixels in Spectrum: 3648
>>>>>Begin Spectral Data<<<<<
179.588	-0
179.809	-0
180.03	-0
180.251	-0
180.473	-0
180.694	0
180.915	0
181.136	-0
181.357	-0
181.578	-0
181.799	-0
182.02	0
182.241	0
182.462	0
182.683	0
182.904	-0
183.125	0
183.346	0
183.567	0
183.788	0
184.009	-0
184.23	0
184.451	0
184.672	0
184.892	0
185.113	0
185.334	0
185.555	-0
185.776	0
185.996	0
186.217	0
186.438	0
186.659	0
186.879	0
187.1	0
187.321	0
187.541	-0
187.762	0
187.983	0
188.203	0
188.424	0
188.644	0
188.865	0
189.086	0
189.306	0
189.527	0
189.747	0
189.968	0
190.188	0
190.409	0
190.629	0
190.849	-0
191.07	0
191.29	0
191.511	0
191.731	-0
191.951	0
192.172	0
192.392	0
192.612	0
192.833	0
193.053	0
193.273	0
193.493	0
193.714	0
193.934	0
194.154	0
194.374	0
194.594	0
194.815	0
195.035	0
195.255	0
195.475	0
195.695	0
195.915	0
196.135	0
196.355	0
196.575	0
196.795	0
197.015	-0
197.235	0
197.455	0
197.675	0
197.895	0
198.115	0
198.335	0
198.555	0
198.775	0
198.995	0
199.214	0
199.434	0
199.654	0
199.874	0
200.094	1.75
200.313	0.78
200.533	0.78
200.753	0.27
200.973	1.34
201.192	1.02
201.412	0.12
201.632	0.57
201.851	1.75
202.071	0.32
202.291	0.43
202.51	0.36
202.73	0.92
202.95	0.74
203.169	0.29
203.389	0.51
203.608	0.35
203.828	-0.06
204.047	0.41
204.267	1.2
204.486	0.26
204.706	0.83
204.925	0.71
205.145	0.28
205.364	1.07
205.583	1.45
205.803	0.15
206.022	-0.21
206.242	0.49
206.461	0.47
206.68	0.25
206.9	0.37
207.119	1.16
207.338	1.06
207.557	-0.17
207.777	0.41
207.996	0.49
208.215	0.76
208.434	0.36
208.654	-0.05
208.873	0.42
209.092	0.82
209.311	0.39
209.53	0.17
209.749	0.25
209.968	0.2
210.187	0.3
210.407	-0.01
210.626	0.36
210.845	0.53
211.064	0.54
211.283	0.1
211.502	0.68
211.721	0.42
211.94	0.24
212.159	0.46
212.377	0.51
212.596	0.46
212.815	0.48
213.034	0.68
213.253	0.39
213.472	0.5
213.691	0.16
213.91	0.24
214.128	0.16
214.347	0.61
214.566	-0.03
214.785	-0.06
215.003	0.44
215.222	0.32
215.441	0.16
215.66	-0.19
215.878	0.23
216.097	0.37
216.316	0.13
216.534	0.23
216.753	0.24
216.972	0.14
217.19	0.23
217.409	0.15
217.627	0.03
217.846	0.11
218.064	0.27
218.283	0.04
218.501	0.63
218.72	0.45
218.938	0.08
219.157	0.19
219.375	0.45
219.594	0.51
219.812	0.04
220.031	-0.03
220.249	0.49
220.467	0.61
220.686	0.19
220.904	0.18
221.122	-0.04
221.341	0.72
221.559	0.21
221.777	-0.05
221.995	0.24
222.214	0.08
222.432	-0.01
222.65	0.45
222.868	0.21
223.086	0.26
223.305	0.3
223.523	0.24
223.741	0.4
223.959	0.17
224.177	-0.08
224.395	-0.01
224.613	0.32
224.831	0.41
225.049	0.12
225.267	0.12
225.485	0.24
225.703	0.08
225.921	0.09
226.139	0.17
226.357	0.26
226.575	0.18
226.793	0.17
227.011	0.57
227.229	0.14
227.447	0.27
227.665	0.05
227.883	-0.07
228.1	0.06
228.318	0.31
228.536	-0.08
228.754	0.07
228.972	0.1
229.189	0.23
229.407	0.06
229.625	0.08
229.843	0.44
230.06	0.25
230.278	-0.07
230.496	0.11
230.713	0.26
230.931	0.42
231.149	0.22
231.366	0.03
231.584	0.17
231.801	0.44
232.019	-0.01
232.236	0.07
232.454	0.05
232.671	0.17
232.889	0.2
233.106	-0.05
233.324	0.17
233.541	0.18
233.759	0.12
233.976	0.13
234.194	0.2
234.411	0.14
234.628	0.01
234.846	0.17
235.063	0.14
235.28	0.15
235.498	0.13
235.715	0.08
235.932	0.21
236.149	0.12
236.367	-0.01
236.584	0.14
236.801	0.05
237.018	0.19
237.236	0.15
237.453	-0
237.67	0.23
237.887	0.12
238.104	0.12
238.321	0.08
238.538	0.01
238.755	0.33
238.973	0
239.19	0.19
239.407	0.18
239.624	0.21
239.841	0.04
240.058	0.01
240.275	0.16
240.492	0.19
240.709	0.15
240.925	0.13
241.142	0.18
241.359	0.08
241.576	0.02
241.793	0.16
242.01	0.2
242.227	0.18
242.444	0.2
242.66	0.27
242.877	0.09
243.094	0.1
243.311	0.19
243.527	0.07
243.744	0.24
243.961	0.19
244.178	0.03
244.394	0.1
244.611	0.26
244.828	0.2
245.044	0.12
245.261	0.07
245.477	0.08
245.694	0.12
245.911	0.08
246.127	0.25
246.344	0.31
246.56	0.18
246.777	0.07
246.993	0.13
247.21	0.21
247.426	0.17
247.643	0.14
247.859	0.06
248.076	0.04
248.292	0.38
248.508	0.04
248.725	0.12
248.941	0.17
249.157	0.21
249.374	0.04
249.59	0.12
249.806	0.09
250.023	0.31
250.239	0.06
250.455	-0.01
250.671	0.08
250.888	0.2
251.104	0.1
251.32	0.03
251.536	0.15
251.752	0.08
251.969	0.14
252.185	0.04
252.401	0.28
252.617	0.19
252.833	0.12
253.049	0.09
253.265	0.13
253.481	0.18
253.697	0.08
253.913	0.03
254.129	0.13
254.345	0.19
254.561	0.09
254.777	0.06
254.993	0.14
255.209	0.13
255.425	0.01
255.641	0.11
255.857	0.23
256.073	0.18
256.288	0.01
256.504	0.11
256.72	0.11
256.936	0.3
257.152	0.07
257.367	0.04
257.583	0.05
257.799	0.18
258.015	0.09
258.23	0.05
258.446	0.23
258.662	0.13
258.877	0.06
259.093	0.02
259.309	0.07
259.524	0.18
259.74	0.07
259.955	0.02
260.171	0.13
260.387	0.12
260.602	0.14
260.818	0.11
261.033	0.07
261.249	0.06
261.464	0.04
261.68	0.08
261.895	0.16
262.11	0.15
262.326	0.07
262.541	-0.02
262.757	0.24
262.972	0.13
263.187	0.1
263.403	0.06
263.618	0.18
263.833	0.09
264.049	0.06
264.264	0.11
264.479	0.12
264.694	0.18
264.91	0.03
265.125	0.1
265.34	0.17
265.555	0.2
265.77	0.11
265.986	0.08
266.201	0.16
266.416	0.19
266.631	0.04
266.846	0.13
267.061	0.15
267.276	0.17
267.491	0.03
267.706	0.13
267.921	0.2
268.136	0.09
268.351	0.12
268.566	0.05
268.781	0.12
268.996	0.14
269.211	0.14
269.426	0.02
269.641	0.06
269.856	0.19
270.071	0.04
270.285	0.11
270.5	0.26
270.715	0.22
270.93	0.12
271.145	0.12
271.359	0.16
271.574	0.07
271.789	0.09
272.004	0.05
272.218	0.07
272.433	0.16
272.648	0.03
272.862	0.19
273.077	0.07
273.292	0.07
273.506	0.04
273.721	0.11
273.936	0.12
274.15	0.19
274.365	0.05
274.579	0.15
274.794	0.08
275.008	0.17
275.223	0.05
275.437	0.14
275.652	0.2
275.866	0.15
276.081	0.06
276.295	0.19
276.509	0.15
276.724	0.15
276.938	0.15
277.153	0.17
277.367	0.14
277.581	0.08
277.796	0.03
278.01	0.03
278.224	0.16
278.438	0.2
278.653	0.06
278.867	0.07
279.081	-0.09
279.295	0.1
279.51	0.09
279.724	-0.02
279.938	0.18
280.152	0.12
280.366	0.09
280.58	0.11
280.794	0.17
281.008	0.14
281.222	0.14
281.437	0.27
281.651	0.11
281.865	0.17
282.079	0.07
282.293	0.03
282.507	0.01
282.721	0.13
282.935	0.04
283.148	0
283.362	0.05
283.576	0.06
283.79	0.1
284.004	0.04
284.218	0.15
284.432	0.03
284.646	0.08
284.859	0.1
285.073	0.09
285.287	0.12
285.501	0.04
285.714	0.11
285.928	0.11
286.142	0.08
286.356	0.05
286.569	0.05
286.783	0.19
286.997	0.11
287.21	0.13
287.424	0.12
287.637	0.07
287.851	0.11
288.065	0.13
288.278	0.05
288.492	0.07
288.705	0.05
288.919	0.13
289.132	0.06
289.346	0.1
289.559	0.03
289.773	-0
289.986	0.09
290.2	0.09
290.413	0.15
290.626	0.05
290.84	0.05
291.053	0.09
291.267	0.12
291.48	0.09
291.693	0.13
291.906	0.08
292.12	0.07
292.333	0.03
292.546	0.13
292.76	0.16
292.973	0.12
293.186	0.14
293.399	0.06
293.612	0.11
293.826	0.11
294.039	0.08
294.252	0.05
294.465	0.12
294.678	0.17
294.891	0.1
295.104	0.03
295.317	0.07
295.53	0.07
295.743	0.1
295.956	0.08
296.169	0.13
296.382	0.14
296.595	0.1
296.808	0
297.021	0.12
297.234	0.15
297.447	0.06
297.66	0.1
297.873	0.18
298.086	0.06
298.299	0.03
298.511	0.02
298.724	0.07
298.937	0.01
299.15	0.05
299.363	0.08
299.575	0.1
299.788	0.08
300.001	0.06
300.213	0.03
300.426	0.04
300.639	0.06
300.852	0.07
301.064	0.12
301.277	0.15
301.489	0.12
301.702	0.11
301.915	0.06
302.127	0.08
302.34	0.1
302.552	0.11
302.765	0.04
302.977	0.12
303.19	0.07
303.402	0.1
303.615	0.05
303.827	0.06
304.04	0.05
304.252	0.09
304.464	0.06
304.677	0.17
304.889	0.12
305.102	0.03
305.314	0.08
305.526	0.14
305.739	0.09
305.951	-0.01
306.163	0.08
306.375	0.15
306.588	0.04
306.8	0.08
307.012	0.07
307.224	0.06
307.436	0.09
307.649	0.05
307.861	0.09
308.073	0.1
308.285	0.07
308.497	-0
308.709	0.05
308.921	0.09
309.133	0.11
309.346	0.09
309.558	0.02
309.77	0.11
309.982	0.16
310.194	0.12
310.406	0.04
310.617	0.15
310.829	0.11
311.041	0.08
311.253	0.03
311.465	0.1
311.677	0.05
311.889	0.06
312.101	0.05
312.313	0.1
312.524	0.14
312.736	0.02
312.948	0.07
313.16	0.13
313.372	0.11
313.583	0.09
313.795	0.06
314.007	0.07
314.218	0.09
314.43	0.06
314.642	0.02
314.853	-0
315.065	0.09
315.277	0.09
315.488	0.1
315.7	0.11
315.912	0.07
316.123	0.11
316.335	0.07
316.546	0.19
316.758	0.09
316.969	0.04
317.181	0.08
317.392	0.08
317.604	0.14
317.815	0.04
318.026	0.09
318.238	0.06
318.449	0.08
318.661	-0.02
318.872	0
319.083	0.02
319.295	0.1
319.506	0.05
319.717	0.07
319.929	0.08
320.14	0.06
320.351	0.07
320.562	0.07
320.774	0.07
320.985	0.08
321.196	0.02
321.407	0.03
321.618	0.15
321.829	0.1
322.041	0.09
322.252	0.11
322.463	0.07
322.674	0.1
322.885	0.01
323.096	0.07
323.307	0.09
323.518	0.08
323.729	0.06
323.94	0.1
324.151	0.03
324.362	0.12
324.573	0.09
324.784	0.08
324.995	0.09
325.206	0.07
325.417	0.01
325.628	0.08
325.838	0.09
326.049	0.07
326.26	0.11
326.471	0.06
326.682	0.1
326.892	0.12
327.103	0.02
327.314	0.04
327.525	0.13
327.735	0.1
327.946	0.09
328.157	0.03
328.368	0.09
328.578	0.07
328.789	0.12
328.999	0.08
329.21	0.05
329.421	0.09
329.631	0.03
329.842	-0.01
330.052	0.06
330.263	0.09
330.473	0.09
330.684	0.06
330.894	0.06
331.105	0.08
331.315	0.09
331.526	0
331.736	0.13
331.947	0.1
332.157	0.09
332.367	-0.01
332.578	0.11
332.788	0.13
332.999	0.12
333.209	0.07
333.419	0.03
333.629	0.11
333.84	0.07
334.05	0.05
334.26	0.15
334.47	0.08
334.681	0.12
334.891	0.06
335.101	0.11
335.311	0.15
335.521	0.08
335.732	0.04
335.942	0.17
336.152	0.14
336.362	0.06
336.572	0.1
336.782	0.13
336.992	0.02
337.202	0.05
337.412	0.04
337.622	0.08
337.832	0.08
338.042	0.06
338.252	-0
338.462	0.05
338.672	0.03
338.882	0.09
339.092	0.06
339.302	0.12
339.511	0.1
339.721	0.06
339.931	0.04
340.141	0.12
340.351	0.12
340.561	0.07
340.77	0.1
340.98	0.02
341.19	0.11
341.4	0.02
341.609	0.07
341.819	0.04
342.029	-0.04
342.238	0.11
342.448	0.05
342.658	0.09
342.867	0.11
343.077	0.06
343.286	0.1
343.496	0.08
343.706	0.09
343.915	0.01
344.125	0.05
344.334	0.08
344.544	-0.01
344.753	0.07
344.963	0.03
345.172	0.03
345.381	0.07
345.591	-0
345.8	0.1
346.01	0.12
346.219	0.11
346.428	-0.06
346.638	0.09
346.847	0.08
347.056	0.14
347.266	0.08
347.475	0.06
347.684	0.11
347.893	0.07
348.103	0.1
348.312	0.07
348.521	0.11
348.73	0.07
348.94	0.08
349.149	0.08
349.358	0.05
349.567	0.05
349.776	0.04
349.985	0.03
350.194	0.1
350.403	0.11
350.612	0.02
350.821	0.06
351.03	0.05
351.239	0
351.448	0.07
351.657	0.05
351.866	0.14
352.075	0.08
352.284	0.1
352.493	0.02
352.702	0.1
352.911	0.07
353.12	0.09
353.329	0.05
353.538	0.11
353.746	0.06
353.955	0.05
354.164	0.12
354.373	0.08
354.582	0.11
354.79	0.09
354.999	0.11
355.208	0.06
355.416	0.13
355.625	0.02
355.834	0.05
356.042	0.08
356.251	0.07
356.46	0.08
356.668	0.07
356.877	0.14
357.085	0.11
357.294	-0.03
357.503	0.11
357.711	0.05
357.92	0.19
358.128	0.07
358.337	0.04
358.545	0.09
358.754	0.08
358.962	0.11
359.17	0.07
359.379	0.08
359.587	0.09
359.796	0.07
360.004	0.11
360.212	0.13
360.421	0.13
360.629	0.05
360.837	0.05
361.046	0.09
361.254	0.18
361.462	0.09
361.67	0.04
361.879	0.1
362.087	0.11
362.295	0.1
362.503	0.05
362.711	0.02
362.92	0.06
363.128	0.04
363.336	0.06
363.544	-0
363.752	0.04
363.96	0.04
364.168	0.06
364.376	0.08
364.584	0.09
364.792	0.13
365	0.12
365.208	0.05
365.416	0.09
365.624	0.09
365.832	0.04
366.04	0.17
366.248	0.08
366.456	0.1
366.664	0.09
366.872	0.09
367.079	0.05
367.287	0.09
367.495	0.08
367.703	0.04
367.911	0.02
368.118	0.06
368.326	0.07
368.534	0.04
368.742	0.16
368.949	0.01
369.157	0.06
369.365	0.1
369.572	0.05
369.78	0.07
369.988	0.1
370.195	0.11
370.403	0.08
370.61	0.08
370.818	0.08
371.026	0.14
371.233	0.03
371.441	0.07
371.648	0.05
371.856	0.1
372.063	0.07
372.271	0.07
372.478	0.02
372.685	0.03
372.893	0.15
373.1	0.04
373.308	0.05
373.515	0.16
373.722	0.07
373.93	0.09
374.137	0.11
374.344	0.15
374.552	0.12
374.759	0.1
374.966	0.04
375.173	0.05
375.381	0.13
375.588	0.06
375.795	0.04
376.002	0.09
376.209	0.06
376.417	0.05
376.624	0.07
376.831	0.11
377.038	0.04
377.245	-0.02
377.452	0.05
377.659	0.09
377.866	0.06
378.073	0.01
378.28	0.08
378.487	0.11
378.694	0.1
378.901	0.06
379.108	0.11
379.315	0.11
379.522	0.16
379.729	0.07
379.936	0.05
380.143	0.06
380.35	0.07
380.557	0.08
380.763	0.08
380.97	0.09
381.177	0.14
381.384	0.13
381.591	0.07
381.797	0.06
382.004	0.11
382.211	0.1
382.418	0.12
382.624	0.08
382.831	0.12
383.038	0.08
383.244	0.06
383.451	0.11
383.658	0.08
383.864	0.06
384.071	0.04
384.277	0.11
384.484	0.04
384.69	0.12
384.897	0.07
385.103	0.08
385.31	0.04
385.516	0.06
385.723	0.03
385.929	0.07
386.136	0.06
386.342	0.06
386.549	0.07
386.755	0.15
386.961	0.11
387.168	0.09
387.374	0.09
387.58	0.09
387.787	0.04
387.993	0.11
388.199	0.08
388.406	0.08
388.612	0.08
388.818	0.09
389.024	0.07
389.231	0.07
389.437	0.15
389.643	0.1
389.849	0.12
390.055	0.07
390.261	0.09
390.467	0.07
390.674	0.02
390.88	0.07
391.086	0.13
391.292	0.01
391.498	0.1
391.704	0.11
391.91	0.11
392.116	0.06
392.322	0.02
392.528	0.05
392.734	0.08
392.94	0.12
393.146	0.08
393.352	0.09
393.557	0.08
393.763	0.06
393.969	0.11
394.175	0.09
394.381	0.11
394.587	0.05
394.792	0.09
394.998	0.1
395.204	0.14
395.41	0.06
395.615	0.09
395.821	0.12
396.027	0.09
396.233	0.06
396.438	0.14
396.644	0.16
396.85	0.11
397.055	0.11
397.261	0.08
397.466	0.17
397.672	0.09
397.878	0.15
398.083	0.15
398.289	0.04
398.494	0.18
398.7	0.09
398.905	0.01
399.111	0.17
399.316	0.03
399.522	0.06
399.727	0.07
399.932	0.05
400.138	0.1
400.343	0.09
400.549	0.11
400.754	0.14
400.959	0.1
401.165	0.1
401.37	0.11
401.575	0.06
401.78	0.09
401.986	0.09
402.191	0.14
402.396	0.11
402.601	0.14
402.807	0.06
403.012	0.11
403.217	0.12
403.422	0.13
403.627	0.08
403.832	0.07
404.037	0.17
404.243	0.15
404.448	0.11
404.653	0.08
404.858	0.1
405.063	0.12
405.268	0.08
405.473	0.07
405.678	0.07
405.883	0.19
406.088	0.12
406.293	0.06
406.498	0.06
406.703	0.15
406.907	0.11
407.112	0.06
407.317	0.09
407.522	0.13
407.727	0.02
407.932	0.11
408.136	0.18
408.341	0.15
408.546	0.1
408.751	0.12
408.956	0.07
409.16	0.17
409.365	0.09
409.57	0.08
409.774	0.13
409.979	0.14
410.184	0.11
410.388	0.09
410.593	0.17
410.798	0.14
411.002	0.07
411.207	0.13
411.411	0.14
411.616	0.09
411.82	0.09
412.025	0.13
412.229	0.05
412.434	0.15
412.638	0.12
412.843	0.07
413.047	0.09
413.252	0.08
413.456	0.1
413.66	0.14
413.865	0.08
414.069	0.15
414.273	0.07
414.478	0.06
414.682	0.08
414.886	0.08
415.091	0.02
415.295	0.01
415.499	0.11
415.703	0.11
415.908	0.14
416.112	0.03
416.316	0.13
416.52	0.09
416.724	0.03
416.929	0.11
417.133	0.2
417.337	0.09
417.541	0.06
417.745	0.08
417.949	0.11
418.153	0.14
418.357	0.05
418.561	0.18
418.765	0.11
418.969	0.21
419.173	0.13
419.377	0.07
419.581	0.21
419.785	0.1
419.989	0.06
420.193	0.1
420.397	0.12
420.601	0.19
420.804	0.19
421.008	0.12
421.212	0.14
421.416	0.11
421.62	0.11
421.823	0.13
422.027	0.22
422.231	0.15
422.435	0.1
422.638	0.12
422.842	0.12
423.046	0.09
423.249	0.13
423.453	0.18
423.657	0.17
423.86	0.09
424.064	0.17
424.268	0.19
424.471	0.09
424.675	0.24
424.878	0.21
425.082	0.11
425.285	0.19
425.489	0.14
425.692	0.09
425.896	0.02
426.099	0.13
426.303	0.07
426.506	0.05
426.71	0.17
426.913	0.16
427.116	0.16
427.32	0.12
427.523	0.1
427.726	0.18
427.93	0.06
428.133	0.14
428.336	0.05
428.54	0.08
428.743	0.18
428.946	0.21
429.149	0.11
429.353	0.11
429.556	0.1
429.759	0.12
429.962	0.07
430.165	0.15
430.368	0.15
430.571	0.13
430.775	0.16
430.978	0.12
431.181	0.12
431.384	0.11
431.587	0.11
431.79	0.14
431.993	0.19
432.196	0.08
432.399	0.12
432.602	0.2
432.805	0.1
433.008	0.13
433.211	0.06
433.414	0.21
433.616	0.13
433.819	0.11
434.022	0.08
434.225	0.22
434.428	0.15
434.631	0.2
434.833	0.16
435.036	0.16
435.239	0.18
435.442	0.14
435.645	0.08
435.847	0.16
436.05	0.18
436.253	0.13
436.455	0.07
436.658	0.14
436.861	0.19
437.063	0.12
437.266	0.14
437.468	0.15
437.671	0.23
437.874	0.11
438.076	0.05
438.279	0.04
438.481	0.14
438.684	0.14
438.886	0.14
439.089	0.02
439.291	0.18
439.494	0.24
439.696	0.11
439.899	0.11
440.101	0.18
440.303	0.04
440.506	0.16
440.708	0.17
440.91	0.21
441.113	0.07
441.315	0.22
441.517	0.09
441.72	0.21
441.922	0.07
442.124	0.08
442.326	0.15
442.529	0.19
442.731	0.09
442.933	0.26
443.135	0.15
443.337	0.11
443.539	0.14
443.742	0.16
443.944	0.16
444.146	0.1
444.348	0.15
444.55	0.12
444.752	0.12
444.954	0.11
445.156	0.2
445.358	0.1
445.56	0.19
445.762	0.15
445.964	0.16
446.166	0.12
446.368	0.07
446.57	0.17
446.772	0.13
446.974	0.14
447.175	0.16
447.377	0.11
447.579	0.1
447.781	0.08
447.983	0.22
448.184	0.17
448.386	0.17
448.588	0.09
448.79	0.14
448.991	0.13
449.193	0.18
449.395	0.17
449.597	0.19
449.798	0.12
450	0.13
450.202	0.13
450.403	0.15
450.605	0.22
450.806	0.16
451.008	0.05
451.21	0.12
451.411	0.18
451.613	0.12
451.814	0.14
452.016	0.24
452.217	0.15
452.419	0.2
452.62	0.15
452.821	0.2
453.023	0.22
453.224	0.17
453.426	0.11
453.627	0.15
453.828	0.19
454.03	0.15
454.231	0.15
454.432	0.11
454.634	0.26
454.835	0.14
455.036	0.09
455.238	0.23
455.439	0.26
455.64	0.16
455.841	0.17
456.042	0.25
456.244	0.18
456.445	0.15
456.646	0.13
456.847	0.16
457.048	0.21
457.249	0.31
457.45	0.42
457.651	0.12
457.852	0.26
458.054	0.16
458.255	0.15
458.456	0.19
458.657	0.21
458.858	0.13
459.058	0.15
459.259	0.26
459.46	0.15
459.661	0.22
459.862	0.28
460.063	0.18
460.264	0.24
460.465	0.12
460.666	0.29
460.866	0.16
461.067	0.19
461.268	0.19
461.469	0.13
461.67	0.22
461.87	0.14
462.071	0.17
462.272	0.19
462.473	0.18
462.673	0.2
462.874	0.17
463.075	0.21
463.275	0.2
463.476	0.27
463.676	0.2
463.877	0.22
464.078	0.23
464.278	0.25
464.479	0.21
464.679	0.23
464.88	0.18
465.08	0.27
465.281	0.22
465.481	0.19
465.682	0.23
465.882	0.2
466.083	0.26
466.283	0.25
466.483	0.22
466.684	0.17
466.884	0.23
467.085	0.19
467.285	0.31
467.485	0.19
467.686	0.19
467.886	0.2
468.086	0.24
468.286	0.25
468.487	0.26
468.687	0.17
468.887	0.26
469.087	0.25
469.287	0.27
469.488	0.19
469.688	0.23
469.888	0.25
470.088	0.28
470.288	0.28
470.488	0.38
470.688	0.21
470.888	0.24
471.088	0.23
471.288	0.32
471.488	0.29
471.688	0.31
471.888	0.26
472.088	0.31
472.288	0.36
472.488	0.26
472.688	0.29
472.888	0.34
473.088	0.28
473.288	0.3
473.488	0.27
473.688	0.38
473.887	0.32
474.087	0.3
474.287	0.32
474.487	0.25
474.687	0.34
474.886	0.35
475.086	0.35
475.286	0.33
475.486	0.35
475.685	0.35
475.885	0.33
476.085	0.36
476.284	0.41
476.484	0.37
476.684	0.41
476.883	0.47
477.083	0.43
477.282	0.33
477.482	0.45
477.681	0.45
477.881	0.42
478.08	0.41
478.28	0.39
478.479	0.48
478.679	0.47
478.878	0.4
479.078	0.41
479.277	0.47
479.477	0.46
479.676	0.51
479.875	0.48
480.075	0.44
480.274	0.5
480.473	0.56
480.673	0.5
480.872	0.54
481.071	0.57
481.271	0.56
481.47	0.53
481.669	0.53
481.868	0.55
482.067	0.57
482.267	0.55
482.466	0.56
482.665	0.57
482.864	0.6
483.063	0.58
483.262	0.66
483.461	0.69
483.661	0.71
483.86	0.64
484.059	0.73
484.258	0.74
484.457	0.71
484.656	0.73
484.855	0.81
485.054	0.66
485.253	0.79
485.452	0.76
485.651	0.82
485.849	0.81
486.048	0.82
486.247	0.82
486.446	0.91
486.645	0.88
486.844	0.9
487.043	0.9
487.241	0.96
487.44	0.94
487.639	1
487.838	1.02
488.037	0.99
488.235	1.09
488.434	1.08
488.633	1.02
488.831	1.13
489.03	1.15
489.229	1.14
489.427	1.14
489.626	1.2
489.825	1.25
490.023	1.26
490.222	1.28
490.42	1.29
490.619	1.32
490.817	1.36
491.016	1.32
491.214	1.42
491.413	1.4
491.611	1.37
491.81	1.43
492.008	1.52
492.207	1.55
492.405	1.56
492.604	1.59
492.802	1.62
493	1.69
493.199	1.71
493.397	1.71
493.595	1.77
493.794	1.74
493.992	1.89
494.19	1.88
494.388	1.93
494.587	1.9
494.785	1.97
494.983	1.9
495.181	2.06
495.379	2.1
495.578	2.14
495.776	2.2
495.974	2.17
496.172	2.21
496.37	2.35
496.568	2.38
496.766	2.38
496.964	2.46
497.162	2.51
497.36	2.53
497.558	2.57
497.756	2.66
497.954	2.67
498.152	2.78
498.35	2.89
498.548	2.81
498.746	2.85
498.944	2.91
499.142	2.99
499.34	3.06
499.538	3.2
499.736	3.15
499.933	3.25
500.131	3.27
500.329	3.47
500.527	3.48
500.725	3.6
500.922	3.65
501.12	3.66
501.318	3.82
501.516	3.84
501.713	3.92
501.911	3.95
502.109	3.98
502.306	4.14
502.504	4.1
502.701	4.25
502.899	4.31
503.097	4.59
503.294	4.46
503.492	4.63
503.689	4.75
503.887	4.76
504.084	4.94
504.282	4.9
504.479	4.93
504.677	5.17
504.874	5.23
505.072	5.14
505.269	5.48
505.466	5.47
505.664	5.59
505.861	5.54
506.059	5.75
506.256	5.88
506.453	5.92
506.651	6.15
506.848	6.25
507.045	6.28
507.242	6.36
507.44	6.49
507.637	6.59
507.834	6.62
508.031	6.87
508.229	6.78
508.426	6.81
508.623	7.14
508.82	7.28
509.017	7.24
509.214	7.3
509.411	7.57
509.608	7.53
509.805	7.82
510.003	7.84
510.2	7.97
510.397	8.12
510.594	8.13
510.791	8.34
510.988	8.37
511.184	8.43
511.381	8.28
511.578	8.61
511.775	8.85
511.972	8.84
512.169	8.99
512.366	9.12
512.563	9.32
512.76	9.47
512.956	9.51
513.153	9.53
513.35	9.42
513.547	9.58
513.744	9.82
513.94	9.9
514.137	10.06
514.334	10.06
514.53	10.17
514.727	10.57
514.924	10.37
515.12	10.43
515.317	10.58
515.514	10.47
515.71	10.48
515.907	10.95
516.103	10.9
516.3	10.79
516.497	10.96
516.693	11.11
516.89	11.14
517.086	11.22
517.283	11.17
517.479	11.09
517.676	11.42
517.872	11.49
518.068	11.5
518.265	11.49
518.461	11.34
518.658	11.74
518.854	11.59
519.05	11.85
519.247	11.81
519.443	11.73
519.639	11.91
519.836	11.73
520.032	11.64
520.228	11.93
520.424	11.8
520.621	11.83
520.817	11.9
521.013	11.77
521.209	12.03
521.405	12
521.601	11.88
521.798	11.84
521.994	11.78
522.19	11.73
522.386	11.73
522.582	11.81
522.778	11.98
522.974	11.76
523.17	11.7
523.366	11.63
523.562	11.65
523.758	11.62
523.954	11.35
524.15	11.63
524.346	11.59
524.542	11.62
524.738	11.39
524.934	11.53
525.129	11.42
525.325	11.17
525.521	11.14
525.717	11.36
525.913	11.02
526.109	11.01
526.304	11.1
526.5	10.95
526.696	10.89
526.892	10.76
527.087	11
527.283	10.71
527.479	10.64
527.674	10.23
527.87	10.4
528.066	10.39
528.261	10.3
528.457	10.1
528.653	10.26
528.848	10.08
529.044	10.11
529.239	9.85
529.435	9.7
529.63	9.59
529.826	9.55
530.021	9.45
530.217	9.38
530.412	9.32
530.608	9.18
530.803	9.17
530.999	8.9
531.194	8.99
531.389	8.97
531.585	8.87
531.78	8.93
531.975	8.64
532.171	8.64
532.366	8.61
532.561	8.47
532.757	8.33
532.952	8.49
533.147	8.05
533.342	8.09
533.538	7.92
533.733	7.99
533.928	7.6
534.123	7.7
534.318	7.72
534.513	7.54
534.709	7.62
534.904	7.45
535.099	7.42
535.294	7.37
535.489	7.26
535.684	7.11
535.879	7.04
536.074	7.07
536.269	6.93
536.464	6.91
536.659	6.72
536.854	6.69
537.049	6.71
537.244	6.52
537.439	6.51
537.634	6.38
537.828	6.41
538.023	6.33
538.218	6.2
538.413	6.09
538.608	6.09
538.803	5.97
538.997	5.92
539.192	5.91
539.387	5.77
539.582	5.76
539.776	5.65
539.971	5.69
540.166	5.64
540.36	5.5
540.555	5.53
540.75	5.42
540.944	5.35
541.139	5.31
541.334	5.2
541.528	5.18
541.723	5.18
541.917	5.12
542.112	4.93
542.306	4.82
542.501	4.87
542.695	4.81
542.89	4.72
543.084	4.74
543.279	4.67
543.473	4.69
543.668	4.65
543.862	4.51
544.056	4.4
544.251	4.47
544.445	4.46
544.64	4.42
544.834	4.12
545.028	4.02
545.222	4.21
545.417	4.27
545.611	4.14
545.805	4.08
546	3.92
546.194	3.94
546.388	3.95
546.582	3.83
546.776	3.8
546.97	3.73
547.165	3.69
547.359	3.67
547.553	3.59
547.747	3.56
547.941	3.61
548.135	3.48
548.329	3.48
548.523	3.44
548.717	3.35
548.911	3.28
549.105	3.29
549.299	3.26
549.493	3.21
549.687	3.15
549.881	3.17
550.075	3.1
550.269	3.03
550.463	3.05
550.657	3
550.85	2.94
551.044	2.93
551.238	2.89
551.432	2.82
551.626	2.78
551.82	2.82
552.013	2.72
552.207	2.72
552.401	2.7
552.594	2.63
552.788	2.53
552.982	2.52
553.176	2.48
553.369	2.54
553.563	2.5
553.756	2.38
553.95	2.38
554.144	2.38
554.337	2.37
554.531	2.25
554.724	2.3
554.918	2.26
555.111	2.21
555.305	2.18
555.498	2.18
555.692	2.15
555.885	2.09
556.079	2.07
556.272	2.04
556.466	2
556.659	1.97
556.852	1.97
557.046	1.91
557.239	1.9
557.432	1.85
557.626	1.83
557.819	1.87
558.012	1.84
558.206	1.8
558.399	1.75
558.592	1.74
558.785	1.68
558.979	1.69
559.172	1.69
559.365	1.7
559.558	1.6
559.751	1.58
559.944	1.62
560.138	1.56
560.331	1.56
560.524	1.51
560.717	1.54
560.91	1.47
561.103	1.48
561.296	1.44
561.489	1.43
561.682	1.41
561.875	1.4
562.068	1.41
562.261	1.35
562.454	1.39
562.647	1.33
562.84	1.34
563.032	1.25
563.225	1.26
563.418	1.26
563.611	1.29
563.804	1.23
563.997	1.16
564.19	1.14
564.382	1.25
564.575	1.14
564.768	1.12
564.961	1.14
565.153	1.09
565.346	1.09
565.539	1.1
565.731	1.1
565.924	1.08
566.117	1.09
566.309	1.08
566.502	1
566.695	0.98
566.887	1.02
567.08	0.97
567.272	0.99
567.465	0.93
567.657	0.95
567.85	0.94
568.042	0.93
568.235	0.97
568.427	0.87
568.62	0.89
568.812	0.9
569.005	0.87
569.197	0.8
569.389	0.86
569.582	0.83
569.774	0.84
569.966	0.77
570.159	0.79
570.351	0.78
570.543	0.77
570.736	0.76
570.928	0.72
571.12	0.75
571.312	0.72
571.505	0.69
571.697	0.72
571.889	0.67
572.081	0.73
572.273	0.68
572.465	0.75
572.658	0.67
572.85	0.68
573.042	0.68
573.234	0.67
573.426	0.67
573.618	0.61
573.81	0.68
574.002	0.65
574.194	0.6
574.386	0.56
574.578	0.54
574.77	0.58
574.962	0.59
575.154	0.53
575.346	0.58
575.538	0.53
575.729	0.53
575.921	0.54
576.113	0.55
576.305	0.55
576.497	0.53
576.689	0.53
576.88	0.48
577.072	0.54
577.264	0.5
577.456	0.51
577.647	0.44
577.839	0.51
578.031	0.5
578.223	0.44
578.414	0.43
578.606	0.45
578.798	0.49
578.989	0.42
579.181	0.43
579.372	0.41
579.564	0.42
579.755	0.44
579.947	0.42
580.139	0.46
580.33	0.36
580.522	0.4
580.713	0.33
580.905	0.41
581.096	0.41
581.287	0.4
581.479	0.38
581.67	0.42
581.862	0.37
582.053	0.36
582.244	0.34
582.436	0.37
582.627	0.36
582.818	0.33
583.01	0.31
583.201	0.38
583.392	0.37
583.583	0.35
583.775	0.3
583.966	0.33
584.157	0.32
584.348	0.33
584.54	0.28
584.731	0.33
584.922	0.33
585.113	0.27
585.304	0.35
585.495	0.34
585.686	0.32
585.877	0.31
586.068	0.31
586.259	0.29
586.45	0.3
586.641	0.26
586.832	0.23
587.023	0.27
587.214	0.27
587.405	0.28
587.596	0.25
587.787	0.32
587.978	0.27
588.169	0.21
588.36	0.23
588.551	0.26
588.742	0.24
588.932	0.27
589.123	0.23
589.314	0.28
589.505	0.25
589.696	0.22
589.886	0.22
590.077	0.19
590.268	0.23
590.458	0.22
590.649	0.19
590.84	0.26
591.03	0.19
591.221	0.17
591.412	0.2
591.602	0.24
591.793	0.24
591.984	0.19
592.174	0.17
592.365	0.3
592.555	0.18
592.746	0.23
592.936	0.23
593.127	0.22
593.317	0.21
593.508	0.19
593.698	0.18
593.889	0.17
594.079	0.19
594.269	0.15
594.46	0.19
594.65	0.18
594.84	0.18
595.031	0.17
595.221	0.16
595.411	0.13
595.602	0.21
595.792	0.16
595.982	0.16
596.172	0.2
596.363	0.17
596.553	0.17
596.743	0.16
596.933	0.17
597.123	0.18
597.314	0.13
597.504	0.13
597.694	0.21
597.884	0.19
598.074	0.15
598.264	0.15
598.454	0.18
598.644	0.17
598.834	0.16
599.024	0.12
599.214	0.16
599.404	0.19
599.594	0.12
599.784	0.13
599.974	0.18
600.164	0.16
600.354	0.11
600.544	0.11
600.734	0.15
600.924	0.15
601.114	0.12
601.303	0.14
601.493	0.12
601.683	0.14
601.873	0.13
602.063	0.08
602.252	0.16
602.442	0.09
602.632	0.11
602.821	0.09
603.011	0.11
603.201	0.13
603.39	0.11
603.58	0.13
603.77	0.14
603.959	0.14
604.149	0.12
604.339	0.13
604.528	0.16
604.718	0.17
604.907	0.1
605.097	0.09
605.286	0.08
605.476	0.15
605.665	0.16
605.855	0.11
606.044	0.1
606.234	0.11
606.423	0.1
606.612	0.08
606.802	0.12
606.991	0.14
607.181	0.14
607.37	0.08
607.559	0.12
607.749	0.06
607.938	0.08
608.127	0.09
608.316	0.11
608.506	0.1
608.695	0.07
608.884	0.1
609.073	0.09
609.263	0.13
609.452	0.14
609.641	0.11
609.83	0.09
610.019	0.06
610.208	0.07
610.397	0.09
610.586	0.15
610.775	0.06
610.965	0.08
611.154	0.11
611.343	0.13
611.532	0.09
611.721	0.08
611.91	0.07
612.099	0.12
612.287	0.07
612.476	0.09
612.665	0.14
612.854	0.08
613.043	0.12
613.232	0.08
613.421	0.05
613.61	0.1
613.798	0.1
613.987	0.11
614.176	0.11
614.365	0.1
614.554	0.11
614.742	0.13
614.931	0.07
615.12	0.13
615.309	0.1
615.497	0.12
615.686	0.09
615.875	0.07
616.063	0.11
616.252	0.07
616.44	0.07
616.629	0.09
616.818	0.11
617.006	0.07
617.195	0.1
617.383	0.14
617.572	0.07
617.76	0.09
617.949	0.07
618.137	0.1
618.326	0.16
618.514	0.08
618.703	0.07
618.891	0.13
619.079	0.03
619.268	0.11
619.456	0.06
619.644	0.1
619.833	0.11
620.021	0.05
620.209	0.02
620.398	0.1
620.586	0.1
620.774	0.08
620.962	0.09
621.151	0.15
621.339	0.06
621.527	0.05
621.715	0.07
621.903	0.05
622.092	0.05
622.28	0.1
622.468	0.1
622.656	0.07
622.844	0.09
623.032	0.07
623.22	0
623.408	0.1
623.596	0.08
623.784	0.12
623.972	0.05
624.16	0.07
624.348	0.15
624.536	0.09
624.724	0.05
624.912	0.11
625.1	0.1
625.288	0.04
625.476	0.06
625.664	0.09
625.851	0.07
626.039	0.05
626.227	0.07
626.415	0.1
626.603	0.03
626.79	0.09
626.978	0.07
627.166	0.07
627.354	0.08
627.541	0.04
627.729	0.03
627.917	0.11
628.104	0.12
628.292	0.08
628.48	0.05
628.667	0.07
628.855	0.07
629.042	0.09
629.23	0.09
629.418	0.07
629.605	0.09
629.793	-0.02
629.98	0.02
630.168	0.05
630.355	0.08
630.543	0.08
630.73	0.06
630.917	0.11
631.105	0.13
631.292	0.05
631.48	0.07
631.667	0.14
631.854	0.08
632.042	0.05
632.229	0.02
632.416	0.07
632.604	0.06
632.791	0.04
632.978	0.11
633.165	0.09
633.353	0.14
633.54	0.11
633.727	0.02
633.914	0.04
634.101	0.03
634.289	0.11
634.476	0.05
634.663	0.04
634.85	0.08
635.037	-0
635.224	0.02
635.411	0.11
635.598	0.1
635.785	0.07
635.972	0.05
636.159	0.15
636.346	0.06
636.533	0.08
636.72	0.07
636.907	0.08
637.094	0.08
637.281	0.08
637.468	0.06
637.655	0.05
637.842	0.04
638.029	0.08
638.215	0.08
638.402	0.08
638.589	0.02
638.776	0.06
638.963	0.03
639.149	0.1
639.336	0.13
639.523	0.06
639.709	0.07
639.896	0.07
640.083	0.14
640.27	0.1
640.456	0.03
640.643	0.08
640.829	0.02
641.016	0.05
641.203	0.03
641.389	0.09
641.576	0.09
641.762	0.07
641.949	0.01
642.135	0.07
642.322	0.02
642.508	0.01
642.695	0.07
642.881	0.06
643.068	0.02
643.254	0.06
643.441	0.1
643.627	0.06
643.813	0.03
644	0.12
644.186	0.04
644.372	0.04
644.559	0.1
644.745	0.06
644.931	0.04
645.118	0.04
645.304	0.07
645.49	0.05
645.676	0.06
645.862	0.08
646.049	0.12
646.235	0.05
646.421	0.16
646.607	0.1
646.793	0.06
646.979	0.04
647.165	0.06
647.352	0.09
647.538	0.07
647.724	0.08
647.91	0.08
648.096	0.09
648.282	0.13
648.468	0.03
648.654	0.05
648.84	0.06
649.026	0.03
649.212	0.06
649.397	0.05
649.583	0.03
649.769	0.1
649.955	0.1
650.141	0.1
650.327	0.13
650.513	0.04
650.698	0.1
650.884	0.01
651.07	0.09
651.256	0.06
651.442	0.03
651.627	0.04
651.813	0.13
651.999	0.05
652.184	0.08
652.37	0.06
652.556	0.02
652.741	0.12
652.927	0
653.113	0.06
653.298	0.09
653.484	0.05
653.669	0.01
653.855	0.09
654.04	0.13
654.226	0.08
654.412	0.06
654.597	0.02
654.782	0.06
654.968	0.12
655.153	0.05
655.339	0.01
655.524	0.03
655.71	0.09
655.895	0.04
656.08	0.04
656.266	0.11
656.451	0.07
656.636	0
656.822	0.07
657.007	0.03
657.192	0.03
657.378	-0.02
657.563	0.1
657.748	0.11
657.933	0.08
658.118	0.02
658.304	0.07
658.489	0.1
658.674	0.08
658.859	0.02
659.044	0.08
659.229	0.04
659.414	0.04
659.599	0.07
659.785	-0.02
659.97	0.06
660.155	0.1
660.34	0.04
660.525	0.04
660.71	0.06
660.895	0.12
661.08	0.04
661.264	0.06
661.449	0.12
661.634	0.08
661.819	0.1
662.004	0.1
662.189	0.01
662.374	0.04
662.559	0.03
662.743	0.01
662.928	0.05
663.113	0.06
663.298	0.03
663.483	0.02
663.667	0.08
663.852	0
664.037	0.11
664.221	0.03
664.406	0.07
664.591	0.1
664.775	0.08
664.96	0.07
665.145	0.08
665.329	0.11
665.514	0.05
665.698	0.1
665.883	0
666.068	0.12
666.252	0.11
666.437	0.01
666.621	0.07
666.806	0.12
666.99	0.09
667.174	0.03
667.359	0.12
667.543	0.05
667.728	0.06
667.912	-0.02
668.096	0.08
668.281	0.04
668.465	0.06
668.649	0.09
668.834	0.05
669.018	0.08
669.202	0.09
669.387	0.05
669.571	0.13
669.755	0.06
669.939	0.08
670.124	0.07
670.308	0.14
670.492	0.09
670.676	0.07
670.86	0.07
671.044	0.04
671.228	0.14
671.413	0.02
671.597	0.06
671.781	0.02
671.965	0.09
672.149	0.09
672.333	0.07
672.517	0.04
672.701	0.14
672.885	0.07
673.069	0.03
673.253	0.09
673.437	0.09
673.621	0.03
673.804	0.1
673.988	0.09
674.172	0.07
674.356	-0.01
674.54	0.11
674.724	0.23
674.908	0.06
675.091	0.12
675.275	0.12
675.459	0.13
675.643	0.07
675.826	0.09
676.01	0.11
676.194	0.06
676.377	0.12
676.561	0.13
676.745	0.12
676.928	0.09
677.112	0.12
677.296	0.06
677.479	0.08
677.663	0.1
677.846	0.12
678.03	0.09
678.213	0.07
678.397	0.09
678.58	0.07
678.764	0.07
678.947	0.03
679.131	0.11
679.314	0.16
679.498	0.09
679.681	0.07
679.865	0.13
680.048	0.07
680.231	0.09
680.415	0.07
680.598	0.04
680.781	0.09
680.965	0.08
681.148	0.1
681.331	0.06
681.514	0.1
681.698	0.07
681.881	0.08
682.064	0.08
682.247	0.1
682.43	0
682.614	0.1
682.797	0.11
682.98	0.11
683.163	0.03
683.346	0.16
683.529	0.08
683.712	0.04
683.895	0.11
684.078	0.06
684.261	0.05
684.444	0.07
684.627	0.11
684.81	0.04
684.993	0.09
685.176	0.14
685.359	0.05
685.542	0.06
685.725	0.14
685.908	0.11
686.091	0.1
686.274	0.14
686.457	0.11
686.639	0.06
686.822	0.09
687.005	0.08
687.188	0.08
687.371	0.14
687.553	0.13
687.736	0.08
687.919	0.15
688.102	0.1
688.284	0.05
688.467	0.12
688.65	0.08
688.832	0.02
689.015	0.08
689.197	0.02
689.38	0.13
689.563	0.13
689.745	0.05
689.928	0.04
690.11	0.12
690.293	0.11
690.475	0.01
690.658	0.12
690.84	0.04
691.023	0.09
691.205	0.06
691.388	0.07
691.57	0.15
691.752	0.14
691.935	-0.02
692.117	0.03
692.3	0.09
692.482	0.08
692.664	0.07
692.847	0.09
693.029	0.09
693.211	0.11
693.393	0.08
693.576	0.12
693.758	0.09
693.94	0.07
694.122	0.13
694.304	0.07
694.487	0.01
694.669	0.16
694.851	0.03
695.033	0.15
695.215	0.02
695.397	-0.01
695.579	0.12
695.761	-0.02
695.943	0.04
696.125	0.15
696.308	0.11
696.49	-0.04
696.671	0.14
696.853	0.08
697.035	0.24
697.217	0.1
697.399	0.12
697.581	0.05
697.763	0.1
697.945	0.08
698.127	0.12
698.309	0.12
698.491	0.07
698.672	0.11
698.854	0.12
699.036	0.22
699.218	0.09
699.399	0.13
699.581	0.14
699.763	0.12
699.945	0.09
700.126	0.03
700.308	0.06
700.49	0.08
700.671	-0.03
700.853	0.05
701.035	0.06
701.216	0.1
701.398	-0.02
701.579	0.06
701.761	0.12
701.943	0.05
702.124	0.1
702.306	0.05
702.487	0.19
702.669	0.08
702.85	0.04
703.031	0.03
703.213	0.19
703.394	0.13
703.576	0.02
703.757	0.19
703.938	0.16
704.12	0.24
704.301	0.08
704.483	0.07
704.664	0.13
704.845	0.22
705.026	0.13
705.208	0.1
705.389	0.12
705.57	0.11
705.751	0.06
705.933	0.11
706.114	0.14
706.295	0.08
706.476	-0.02
706.657	0.17
706.838	0.08
707.02	0.18
707.201	0.03
707.382	0.02
707.563	0.12
707.744	0.05
707.925	0.05
708.106	0.04
708.287	0.14
708.468	0.17
708.649	0.14
708.83	0.11
709.011	0.07
709.192	0.09
709.373	-0.03
709.554	0.13
709.734	0.16
709.915	0.09
710.096	0.09
710.277	-0.06
710.458	0.09
710.639	0.14
710.819	0.01
711	0.04
711.181	0.21
711.362	0.17
711.542	0.12
711.723	0.06
711.904	0.08
712.085	0.09
712.265	0.07
712.446	0.04
712.627	0.11
712.807	0.09
712.988	0.09
713.168	-0.02
713.349	0.13
713.53	-0.04
713.71	0.03
713.891	0.01
714.071	0.07
714.252	0.03
714.432	0.06
714.613	-0.04
714.793	0.11
714.974	0.16
715.154	0.16
715.334	0.12
715.515	0.17
715.695	-0
715.876	0.02
716.056	0.07
716.236	0.07
716.417	0.12
716.597	0.02
716.777	0.25
716.957	0.07
717.138	0.13
717.318	0.13
717.498	0.04
717.678	0.15
717.859	0.12
718.039	0.01
718.219	0.06
718.399	0.06
718.579	0.01
718.759	0.01
718.939	0.13
719.12	0.09
719.3	0.08
719.48	-0.05
719.66	-0.03
719.84	0.16
720.02	0.07
720.2	0.06
720.38	0.09
720.56	0.15
720.74	0.07
720.92	0.12
721.1	0.18
721.279	0.2
721.459	0.09
721.639	-0.05
721.819	0.12
721.999	0.03
722.179	0.13
722.359	-0.01
722.538	0.13
722.718	0.11
722.898	0.07
723.078	0.07
723.257	0.04
723.437	0.13
723.617	0.18
723.797	0.04
723.976	0.13
724.156	0.13
724.336	0.18
724.515	0.27
724.695	0.02
724.874	0.04
725.054	0.13
725.234	0.04
725.413	0.07
725.593	0.09
725.772	0.1
725.952	0.06
726.131	0.16
726.311	0.11
726.49	0.17
726.67	0.02
726.849	0
727.028	0.09
727.208	0.04
727.387	0.13
727.567	-0.03
727.746	0.04
727.925	0.13
728.105	0
728.284	0.08
728.463	0.07
728.643	0.14
728.822	0.02
729.001	0.09
729.18	0.17
729.359	0.14
729.539	0.08
729.718	0.11
729.897	0.14
730.076	0.08
730.255	-0.04
730.434	0.03
730.614	0.16
730.793	0.22
730.972	0.12
731.151	0.11
731.33	0.1
731.509	0.11
731.688	0.07
731.867	0.08
732.046	-0.01
732.225	0.27
732.404	-0.01
732.583	0.02
732.762	0.2
732.941	0.26
733.12	0.11
733.298	-0.04
733.477	0.25
733.656	0.05
733.835	-0.05
734.014	0.12
734.193	0.11
734.371	0.12
734.55	0.13
734.729	-0.01
734.908	0.08
735.086	0.14
735.265	0.16
735.444	-0.01
735.623	-0.04
735.801	0.04
735.98	0.1
736.159	0.12
736.337	0.11
736.516	0.08
736.694	0.13
736.873	0.07
737.052	0.26
737.23	0.1
737.409	0
737.587	0.28
737.766	-0.09
737.944	0.01
738.123	0.17
738.301	0.11
738.479	0.1
738.658	0.2
738.836	-0.11
739.015	0.19
739.193	0.13
739.371	-0.02
739.55	0.1
739.728	-0.11
739.906	0.2
740.085	0.21
740.263	0.11
740.441	-0.07
740.62	0.22
740.798	0.24
740.976	-0.02
741.154	0.08
741.332	0.23
741.511	0.13
741.689	0.25
741.867	0.27
742.045	0.14
742.223	0.07
742.401	0.01
742.579	0.03
742.757	0.11
742.935	-0.02
743.114	0.02
743.292	0.08
743.47	0.04
743.648	0.19
743.826	0.16
744.004	0.07
744.181	0.16
744.359	0.04
744.537	0.14
744.715	0.11
744.893	0.12
745.071	0.19
745.249	0.04
745.427	-0.04
745.605	0.22
745.782	0.05
745.96	0.1
746.138	0.21
746.316	0.17
746.493	0.05
746.671	0.1
746.849	-0.02
747.027	0.22
747.204	-0.08
747.382	0.22
747.56	-0.01
747.737	-0.02
747.915	0.13
748.093	0.16
748.27	0.01
748.448	0.07
748.625	0.05
748.803	-0.01
748.98	0.02
749.158	0.15
749.335	0.19
749.513	0.13
749.69	0.1
749.868	0.05
750.045	0.11
750.223	-0.06
750.4	-0.03
750.578	0.33
750.755	0.05
750.932	-0.09
751.11	0.21
751.287	-0.06
751.464	0.2
751.642	-0.05
751.819	0.07
751.996	0.22
752.173	0.02
752.351	-0.01
752.528	0.13
752.705	0.06
752.882	0.08
753.06	0.16
753.237	0.19
753.414	0.3
753.591	0.28
753.768	0.12
753.945	0.05
754.122	0.06
754.299	0.19
754.476	0.05
754.654	0.09
754.831	0.08
755.008	0.06
755.185	-0.07
755.362	-0.04
755.539	0.15
755.716	-0.05
755.892	0.06
756.069	0.15
756.246	-0.01
756.423	0.16
756.6	0.2
756.777	0.08
756.954	0.13
757.131	0.08
757.307	0.05
757.484	-0.01
757.661	0.19
757.838	0.17
758.015	-0.04
758.191	0.12
758.368	0.16
758.545	0.19
758.721	0.15
758.898	0.01
759.075	0.11
759.251	0.22
759.428	0.13
759.605	-0.05
759.781	0.09
759.958	0.17
760.134	0.14
760.311	0.01
760.488	0.21
760.664	0.17
760.841	0.08
761.017	0.03
761.194	0.14
761.37	0.3
761.547	0.19
761.723	0.09
761.899	0.2
762.076	0.07
762.252	-0
762.429	0.08
762.605	0.18
762.781	0.01
762.958	0.15
763.134	0.02
763.31	0.06
763.486	0.19
763.663	-0.07
763.839	0.14
764.015	-0.04
764.191	-0.02
764.368	-0.04
764.544	0.02
764.72	0.13
764.896	0.26
765.072	0.05
765.248	0.08
765.425	0.1
765.601	0.19
765.777	0.24
765.953	-0.19
766.129	-0
766.305	0.04
766.481	0.26
766.657	0.15
766.833	0.28
767.009	-0.04
767.185	0.07
767.361	0.06
767.537	-0.04
767.713	0.32
767.889	0.14
768.065	0.07
768.24	0.33
768.416	0.21
768.592	-0
768.768	0.05
768.944	0.12
769.12	0.02
769.295	0.09
769.471	0.11
769.647	-0.03
769.823	0.17
769.998	0
770.174	-0.04
770.35	0.43
770.525	0.24
770.701	0.08
770.877	0.05
771.052	0.03
771.228	0.3
771.403	0.25
771.579	0.16
771.755	0.31
771.93	0.11
772.106	-0.09
772.281	-0.01
772.457	0.13
772.632	0.12
772.808	-0.17
772.983	-0
773.159	-0.06
773.334	0.13
773.509	0.09
773.685	0.05
773.86	0.3
774.036	0.23
774.211	0.03
774.386	0.1
774.562	0.08
774.737	0.26
774.912	0.03
775.087	0.13
775.263	0.28
775.438	0.01
775.613	-0.02
775.788	0.11
775.964	0.07
776.139	0.37
776.314	-0.08
776.489	0.13
776.664	0.02
776.839	-0.04
777.014	0.2
777.19	0.18
777.365	0.35
777.54	0.45
777.715	0.06
777.89	0.22
778.065	-0.05
778.24	0.1
778.415	0.25
778.59	-0.01
778.765	-0.07
778.94	0.2
779.115	-0.03
779.289	0.08
779.464	0.1
779.639	0.04
779.814	-0.17
779.989	-0.07
780.164	0.19
780.339	0.18
780.513	0.08
780.688	-0.03
780.863	0.18
781.038	0.36
781.212	0.18
781.387	0.07
781.562	0.47
781.737	0.03
781.911	0.26
782.086	0.05
782.261	-0.05
782.435	0.45
782.61	-0.01
782.784	0.25
782.959	0.31
783.134	-0.1
783.308	-0.05
783.483	0.13
783.657	0.56
783.832	0.32
784.006	-0.16
784.181	0.3
784.355	0.3
784.53	-0.23
784.704	-0.11
784.878	0.43
785.053	0.2
785.227	0.22
785.402	0.51
785.576	-0.13
785.75	-0.01
785.925	0.13
786.099	0.19
786.273	0.3
786.448	0.33
786.622	0.3
786.796	0.24
786.97	0.07
787.145	0.56
787.319	-0.29
787.493	0.12
787.667	-0.23
787.841	0.13
788.015	0.51
788.19	0.09
788.364	0.16
788.538	0.25
788.712	0.3
788.886	0.21
789.06	0.3
789.234	0.3
789.408	-0.19
789.582	0.06
789.756	-0.04
789.93	0.02
790.104	-0.02
790.278	0.05
790.452	-0.08
790.626	0.31
790.8	0.02
790.973	0.26
791.147	0.38
791.321	0.53
791.495	0.43
791.669	0.22
791.843	0.24
792.016	0.12
792.19	0.45
792.364	-0.26
792.538	0.59
792.711	0.35
792.885	0.14
793.059	-0.01
793.233	-0.45
793.406	0.27
793.58	0.13
793.754	0.28
793.927	0.17
794.101	0.26
794.274	0.16
794.448	0.34
794.622	-0.04
794.795	0.47
794.969	-0.19
795.142	0.47
795.316	0.07
795.489	-0.06
795.663	0.36
795.836	0.21
796.009	-0.07
796.183	0.4
796.356	0.24
796.53	0.4
796.703	0.06
796.876	1.02
797.05	-0.11
797.223	-0.08
797.396	0.48
797.57	0.24
797.743	0.41
797.916	0.03
798.09	0.17
798.263	0.12
798.436	0.23
798.609	-0.01
798.782	0.25
798.956	0.06
799.129	0
799.302	-0.11
799.475	-0.07
799.648	0.03
799.821	0.16
799.994	0.1
800.167	-0.25
800.34	0.14
800.514	0.04
800.687	0.16
800.86	0.12
801.033	0.07
801.206	0.12
801.379	-0.04
801.551	0.61
801.724	0.41
801.897	0.36
802.07	-0.01
802.243	-0.41
802.416	0.09
802.589	0.07
802.762	0.17
802.935	0.2
803.107	0.32
803.28	0.38
803.453	0.04
803.626	0.05
803.798	0.18
803.971	0.04
804.144	0.13
804.317	0.56
804.489	0.53
804.662	0.44
804.835	0.27
805.007	-0.12
805.18	0.64
805.353	0.68
805.525	-0.19
805.698	-0.18
805.87	0.43
806.043	0.42
806.215	0.01
806.388	0.08
806.56	0.21
806.733	0.38
806.905	-0.06
807.078	-0.04
807.25	-0.12
807.423	0.17
807.595	0.28
807.768	0.06
807.94	0.75
808.112	0.52
808.285	0.07
808.457	-0.03
808.629	0.54
808.802	0.23
808.974	0.28
809.146	0.1
809.318	-0.11
809.491	0.18
809.663	0.43
809.835	-0.06
810.007	0.37
810.18	0.54
810.352	-0.12
810.524	-0.18
810.696	0.16
810.868	0.8
811.04	-0.01
811.212	0.23
811.384	0.39
811.556	0.3
811.728	0.09
811.901	0.84
812.073	0.19
812.245	0.5
812.417	0.44
812.589	-0.54
812.76	0.12
812.932	0.4
813.104	0.54
813.276	0.28
813.448	0.59
813.62	0.05
813.792	0.05
813.964	0.1
814.136	0.36
814.307	-0.07
814.479	0.09
814.651	-0.07
814.823	1.02
814.995	0.17
815.166	0.45
815.338	-0.07
815.51	-0.3
815.681	1.22
815.853	0.61
816.025	0.4
816.196	0.93
816.368	0.81
816.54	-0.33
816.711	-0.06
816.883	0.64
817.054	1.28
817.226	-0.39
817.398	0.41
817.569	0.15
817.741	0.29
817.912	-0.01
818.084	0.11
818.255	0.68
818.426	0.09
818.598	0.28
818.769	0.13
818.941	0.7
819.112	0.96
819.283	0.38
819.455	0.1
819.626	0.06
819.798	0.65
819.969	-0
820.14	-0.12
820.311	-0.13
820.483	0.34
820.654	0.35
820.825	-0.12
820.996	0.06
821.168	-0.27
821.339	0
821.51	-0.51
821.681	-0.21
821.852	0.72
822.023	-0.48
822.195	0.39
822.366	0.22
822.537	0.63
822.708	-0.03
822.879	0.43
823.05	0.81
823.221	0.15
823.392	0.44
823.563	0.21
823.734	0.24
823.905	0.76
824.076	-0.35
824.247	-0.39
824.418	0.03
824.589	0.65
824.759	0.49
824.93	0.39
825.101	0.18
825.272	0.7
825.443	0.98
825.614	0.58
825.784	-1.32
825.955	1.28
826.126	1
826.297	0.14
826.467	1.22
826.638	0.85
826.809	-0.41
826.98	0.3
827.15	0.46
827.321	0.29
827.492	1.41
827.662	0.67
827.833	1.47
828.003	0.27
828.174	-0.18
828.345	-0.46
828.515	1.07
828.686	0.44
828.856	0.36
829.027	0.77
829.197	0.6
829.368	0.33
829.538	0.21
829.709	-0.24
829.879	0.01
830.049	0.72
830.22	-0.13
830.39	-0.03
830.56	0.36
830.731	-0.08
830.901	-0.65
831.072	0.5
831.242	0.23
831.412	0.42
831.582	0.36
831.753	-0.6
831.923	0.97
832.093	0.23
832.263	-0.28
832.434	-0.33
832.604	0.02
832.774	0.61
832.944	0.26
833.114	-0.38
833.284	0.88
833.454	-0.33
833.624	-0.25
833.795	0.04
833.965	0.21
834.135	0.81
834.305	-0.66
834.475	-0.18
834.645	0.45
834.815	-0.07
834.985	-0.56
835.155	0.19
835.325	0.35
835.494	0.68
835.664	0.3
835.834	0.13
836.004	0.15
836.174	1.01
836.344	-0.08
836.514	-0.34
836.684	0.38
836.853	0.68
837.023	0.24
837.193	0.07
837.363	0.61
837.532	1.24
837.702	-0.24
837.872	0.06
838.041	0.89
838.211	1.67
838.381	-0.41
838.55	0.36
838.72	1.46
838.89	1.71
839.059	-0.41
839.229	-0.23
839.398	2.07
839.568	-0.12
839.738	0.11
839.907	1.18
840.077	0.49
840.246	-0.03
840.416	-0.11
840.585	-0.5
840.755	1.16
840.924	1.63
841.093	-0.03
841.263	0.72
841.432	0.98
841.602	0.01
841.771	-0.1
841.94	0.42
842.11	1.65
842.279	1.69
842.448	-0.76
842.617	-0.32
842.787	1.31
842.956	-0.7
843.125	0.21
843.294	0.56
843.464	1.73
843.633	-0
843.802	-0.52
843.971	0.25
844.14	1.18
844.309	1.41
844.479	-0.87
844.648	-0.02
844.817	-0.31
844.986	0.71
845.155	-0.51
845.324	0.56
845.493	0
845.662	-1.38
845.831	0.59
846	0.78
846.169	0.01
846.338	0.86
846.507	1.31
846.676	0.21
846.844	0.36
847.013	-0.03
847.182	-0.43
847.351	-0.42
847.52	0.26
847.689	0.92
847.858	0.71
848.026	-0.65
848.195	-0.01
848.364	0.22
848.533	0.42
848.701	0.33
848.87	1.38
849.039	1.64
849.207	0.83
849.376	0.7
849.545	1.77
849.713	-0.26
849.882	-0.94
850.051	-0.82
850.219	0.79
850.388	1.41
850.556	-0.09
850.725	-0.42
850.893	0.69
851.062	0.06
851.23	1.34
851.399	-0.12
851.567	-0.02
851.736	0.18
851.904	0.35
852.073	0.89
852.241	0.78
852.41	0.37
852.578	0.66
852.746	-0.08
852.915	1.18
853.083	-0.6
853.251	-0.75
853.42	0.24
853.588	0.44
853.756	1.51
853.924	-0.52
854.093	-0.19
854.261	0.56
854.429	-1.32
854.597	0.61
854.765	-0.18
854.934	0.72
855.102	1.76
855.27	1.19
855.438	0.88
855.606	1.4
855.774	1.47
855.942	0.12
856.11	-1.84
856.278	1.08
856.446	-0.02
856.614	-0.15
856.782	-0.75
856.95	1.14
857.118	1.5
857.286	0.57
857.454	-0.16
857.622	2.27
857.79	0.48
857.958	0.5
858.126	0.63
858.294	-2.16
858.462	-0.76
858.629	0.04
858.797	0.34
858.965	1.11
859.133	1.23
859.301	0.03
859.468	0.15
859.636	-0.01
859.804	2.21
859.971	1.5
860.139	-0.59
860.307	0.6
860.474	-0.13
860.642	-0.61
860.81	0.43
860.977	0.8
861.145	0.69
861.313	1.04
861.48	0.69
861.648	0.73
861.815	0.57
861.983	-1.66
862.15	-0.27
862.318	0.79
862.485	1.1
862.653	-0.88
862.82	0.51
862.988	1.65
863.155	1.52
863.322	-0.42
863.49	-0.95
863.657	0.44
863.824	3.18
863.992	1.47
864.159	0.88
864.326	2.05
864.494	-0.99
864.661	2.27
864.828	-0.16
864.996	1.83
865.163	1.59
865.33	-1.38
865.497	-2.09
865.664	-0.32
865.832	-0.67
865.999	0.11
866.166	-0.85
866.333	-0.87
866.5	-0.35
866.667	-0.4
866.834	0.58
867.001	2.47
867.168	-0.97
867.335	0.07
867.502	-2.1
867.669	1.58
867.836	3
868.003	-0.56
868.17	1.12
868.337	-0.32
868.504	3
868.671	-1.07
868.838	0.57
869.005	0.24
869.172	0.04
869.339	0.07
869.505	-0.31
869.672	-0.51
869.839	2.37
870.006	2.35
870.173	-2.36
870.339	1.43
870.506	2.53
870.673	-0.56
870.84	1.81
871.006	0.09
871.173	0.93
871.34	0.41
871.506	-0.84
871.673	2.27
871.839	-1.4
872.006	0.19
872.173	0.01
872.339	0.52
872.506	3.35
872.672	1.72
872.839	-1.42
873.005	1.37
873.172	3.38
873.338	2.31
873.505	0.16
873.671	2.63
873.838	2.28
874.004	-1.23
874.171	-1.22
874.337	0.51
874.503	2.57
874.67	1.21
874.836	0.37
875.002	2.32
875.169	0.96
875.335	-0.41
875.501	-0.13
875.668	4.71
875.834	1.36
876	0.29
876.166	2.76
876.332	0.73
876.499	3.51
876.665	0.32
876.831	1.21
876.997	5.12
877.163	1.81
877.329	-0.34
877.495	-0.34
877.662	1.75
877.828	2.41
877.994	1.22
878.16	-1.27
878.326	-0.82
878.492	1.55
878.658	-0.84
878.824	1.42
878.99	1.09
879.156	-1.24
879.322	3.2
879.487	0.48
879.653	1.52
879.819	1.65
879.985	-0.53
880.151	1.3
880.317	3.08
880.483	2.19
880.648	2.92
880.814	-2.12
880.98	2.75
881.146	-1.66
881.312	-1.3
881.477	-0.76
881.643	-0.07
881.809	3.46
881.974	2.81
882.14	-1.08
882.306	1.36
882.471	4.04
882.637	0.16
882.803	2.86
882.968	2.29
883.134	6.7
883.299	1.97
883.465	2.25
883.63	3.12
883.796	2.38
883.961	1.23
884.127	0.03
884.292	-3.22
884.458	-1.6
884.623	-1.59
