Data from Apollo_Calib_20240827__AbsoluteIrradiance__715__11-04-01-531.txt Node

Date: Wed Aug 28 11:04:01 BST 2024
User: biology
Spectrometer: FLMT08252
Trigger mode: 0
Integration Time (sec): 5.000000E-1
Scans to average: 5
Electric dark correction enabled: true
Nonlinearity correction enabled: false
Boxcar width: 0
XAxis mode: Wavelengths
Number of Pixels in Spectrum: 3648
>>>>>Begin Spectral Data<<<<<
179.588	-0
179.809	-0
180.03	-0
180.251	-0
180.473	-0
180.694	0
180.915	0
181.136	-0
181.357	0
181.578	-0
181.799	-0
182.02	-0
182.241	-0
182.462	-0
182.683	0
182.904	-0
183.125	-0
183.346	0
183.567	0
183.788	-0
184.009	-0
184.23	0
184.451	0
184.672	-0
184.892	-0
185.113	0
185.334	0
185.555	-0
185.776	0
185.996	0
186.217	0
186.438	0
186.659	-0
186.879	0
187.1	-0
187.321	-0
187.541	-0
187.762	0
187.983	0
188.203	-0
188.424	-0
188.644	-0
188.865	-0
189.086	-0
189.306	0
189.527	-0
189.747	0
189.968	-0
190.188	0
190.409	-0
190.629	0
190.849	-0
191.07	-0
191.29	0
191.511	-0
191.731	-0
191.951	-0
192.172	-0
192.392	0
192.612	-0
192.833	0
193.053	0
193.273	0
193.493	-0
193.714	-0
193.934	0
194.154	0
194.374	0
194.594	-0
194.815	0
195.035	0
195.255	-0
195.475	-0
195.695	0
195.915	0
196.135	-0
196.355	0
196.575	0
196.795	-0
197.015	-0
197.235	-0
197.455	0
197.675	0
197.895	-0
198.115	-0
198.335	0
198.555	-0
198.775	0
198.995	-0
199.214	0
199.434	-0
199.654	-0
199.874	-0
200.094	0.9
200.313	-0.24
200.533	-0.4
200.753	-0.9
200.973	1.27
201.192	1.04
201.412	-0.8
201.632	-0.03
201.851	0.82
202.071	-0.43
202.291	0.09
202.51	-0.28
202.73	0.52
202.95	-0.02
203.169	-0.8
203.389	-0.04
203.608	0.02
203.828	-0.09
204.047	-0.36
204.267	0.29
204.486	0.15
204.706	0.26
204.925	0.1
205.145	-0.2
205.364	0.78
205.583	0.91
205.803	-0.32
206.022	-0.39
206.242	0.11
206.461	0.27
206.68	0.01
206.9	0.45
207.119	0.72
207.338	0.6
207.557	-0.12
207.777	-0.23
207.996	-0.16
208.215	0.5
208.434	-0.18
208.654	-0.41
208.873	-0.12
209.092	0.67
209.311	0.04
209.53	-0.13
209.749	-0.15
209.968	-0.18
210.187	-0.1
210.407	-0.59
210.626	-0.31
210.845	0.22
211.064	-0.08
211.283	-0.21
211.502	0.26
211.721	-0
211.94	-0.08
212.159	0.11
212.377	0.38
212.596	0.29
212.815	0.21
213.034	0.01
213.253	0.12
213.472	0.26
213.691	-0.11
213.91	-0.18
214.128	-0.18
214.347	0.48
214.566	-0.41
214.785	-0.3
215.003	0.16
215.222	0.37
215.441	0.04
215.66	-0.22
215.878	0.03
216.097	0.2
216.316	-0.18
216.534	-0.11
216.753	-0
216.972	-0.06
217.19	-0.08
217.409	-0.19
217.627	-0.27
217.846	-0.14
218.064	0.04
218.283	-0.1
218.501	0.49
218.72	0.34
218.938	-0.06
219.157	-0.24
219.375	0.2
219.594	0.13
219.812	-0.26
220.031	-0.21
220.249	0.25
220.467	0.27
220.686	0.05
220.904	-0.21
221.122	0.1
221.341	0.33
221.559	0.06
221.777	-0.12
221.995	0.13
222.214	0.13
222.432	-0.12
222.65	0.31
222.868	0.01
223.086	0.1
223.305	0.17
223.523	0.1
223.741	0.34
223.959	-0.17
224.177	-0.28
224.395	-0.14
224.613	0.18
224.831	0.15
225.049	-0.25
225.267	-0.03
225.485	-0.01
225.703	-0.1
225.921	0.12
226.139	-0.15
226.357	0.06
226.575	0.11
226.793	-0.01
227.011	0.58
227.229	0.15
227.447	0.13
227.665	0.14
227.883	-0.29
228.1	0.01
228.318	0.09
228.536	-0.17
228.754	-0.14
228.972	0.04
229.189	0.19
229.407	-0.15
229.625	-0.07
229.843	0.23
230.06	0.23
230.278	-0.02
230.496	0.06
230.713	0.06
230.931	0.2
231.149	0.01
231.366	-0.19
231.584	0.04
231.801	0.28
232.019	-0.04
232.236	-0.12
232.454	-0.13
232.671	-0.03
232.889	0.06
233.106	-0.18
233.324	0.06
233.541	-0.02
233.759	0.03
233.976	-0.06
234.194	0.04
234.411	-0.01
234.628	-0.1
234.846	0.02
235.063	0.06
235.28	-0.02
235.498	-0.05
235.715	-0.09
235.932	0.24
236.149	0.09
236.367	-0.1
236.584	-0
236.801	-0.13
237.018	0.11
237.236	-0.05
237.453	-0.05
237.67	0.18
237.887	0.05
238.104	-0.02
238.321	-0.18
238.538	-0.12
238.755	0.08
238.973	-0.18
239.19	0
239.407	0.1
239.624	-0.05
239.841	-0.1
240.058	-0.03
240.275	-0.07
240.492	-0.05
240.709	-0.02
240.925	-0.05
241.142	0.02
241.359	-0.04
241.576	-0.12
241.793	-0.06
242.01	0.03
242.227	0.14
242.444	0.04
242.66	0.11
242.877	0.11
243.094	0
243.311	-0.07
243.527	-0.08
243.744	0.07
243.961	0.1
244.178	-0.09
244.394	-0.02
244.611	0.1
244.828	0.2
245.044	-0.09
245.261	-0.03
245.477	0.04
245.694	0.01
245.911	-0.04
246.127	0.02
246.344	0.16
246.56	0.1
246.777	-0.02
246.993	0.04
247.21	0.05
247.426	0.03
247.643	0.01
247.859	-0.13
248.076	-0.07
248.292	0.23
248.508	-0.02
248.725	-0.04
248.941	0.07
249.157	0.12
249.374	-0.04
249.59	-0.02
249.806	0.04
250.023	0.13
250.239	-0.06
250.455	0.02
250.671	0.04
250.888	0.01
251.104	0.07
251.32	-0.02
251.536	-0.01
251.752	0.02
251.969	0.01
252.185	0.03
252.401	0.16
252.617	-0.05
252.833	-0.04
253.049	0.01
253.265	-0.07
253.481	0.09
253.697	-0.02
253.913	-0.08
254.129	0.02
254.345	0.04
254.561	-0.02
254.777	0.04
254.993	0.07
255.209	0.06
255.425	-0.01
255.641	-0.07
255.857	0.07
256.073	0.01
256.288	-0.06
256.504	-0.01
256.72	0
256.936	0.11
257.152	-0
257.367	-0.09
257.583	0.03
257.799	0.17
258.015	-0.04
258.23	-0.03
258.446	0.17
258.662	-0.04
258.877	-0.09
259.093	-0.05
259.309	0.04
259.524	0.04
259.74	0.04
259.955	-0.08
260.171	0.05
260.387	-0.02
260.602	0.09
260.818	0.01
261.033	-0.04
261.249	-0.01
261.464	-0.05
261.68	-0.07
261.895	0.09
262.11	0.11
262.326	-0.02
262.541	-0.11
262.757	0.11
262.972	0.05
263.187	0.03
263.403	0.02
263.618	0.07
263.833	0
264.049	0.02
264.264	-0.01
264.479	-0.01
264.694	0.19
264.91	-0.03
265.125	0.05
265.34	0.07
265.555	0.11
265.77	0.03
265.986	-0.02
266.201	-0.01
266.416	0.12
266.631	-0.01
266.846	0.06
267.061	0.05
267.276	0.08
267.491	-0.1
267.706	0.04
267.921	0.05
268.136	0.06
268.351	-0.04
268.566	-0.06
268.781	0.12
268.996	0.03
269.211	-0.01
269.426	-0.01
269.641	-0.05
269.856	0.04
270.071	-0.02
270.285	-0.02
270.5	0.11
270.715	0.1
270.93	0.08
271.145	0.03
271.359	0.08
271.574	-0.06
271.789	-0.07
272.004	-0.04
272.218	-0.03
272.433	0.08
272.648	0.01
272.862	0.08
273.077	-0.01
273.292	-0
273.506	-0.01
273.721	-0.05
273.936	0.06
274.15	0.13
274.365	-0.02
274.579	0.07
274.794	0.05
275.008	0.11
275.223	-0.06
275.437	-0.01
275.652	0.07
275.866	0.04
276.081	0.04
276.295	0.05
276.509	0.04
276.724	0.01
276.938	0.03
277.153	0.06
277.367	0.09
277.581	-0.04
277.796	-0.05
278.01	-0.04
278.224	0.07
278.438	0.13
278.653	-0.04
278.867	0.01
279.081	-0.19
279.295	-0.04
279.51	0.07
279.724	-0.06
279.938	0.01
280.152	0.03
280.366	0.01
280.58	0.05
280.794	0.12
281.008	0.04
281.222	0.05
281.437	0.15
281.651	0.03
281.865	0.13
282.079	0.03
282.293	-0.1
282.507	-0.06
282.721	-0.04
282.935	0.02
283.148	-0.09
283.362	-0.04
283.576	-0.01
283.79	0.02
284.004	-0.04
284.218	0.08
284.432	-0.03
284.646	0.07
284.859	-0
285.073	-0.02
285.287	0.03
285.501	0.01
285.714	0.04
285.928	0.01
286.142	0
286.356	0.04
286.569	-0.03
286.783	0.13
286.997	0.11
287.21	0.03
287.424	0.04
287.637	-0.01
287.851	0.01
288.065	0.02
288.278	0.02
288.492	0.03
288.705	0.05
288.919	0.07
289.132	-0.07
289.346	0.07
289.559	-0.08
289.773	-0.04
289.986	0.01
290.2	-0.01
290.413	0.02
290.626	-0.06
290.84	-0.02
291.053	-0.01
291.267	0.04
291.48	0.01
291.693	0.05
291.906	-0.04
292.12	0.02
292.333	0.01
292.546	0.01
292.76	0.1
292.973	-0.02
293.186	0.01
293.399	0
293.612	0.08
293.826	0.05
294.039	0.04
294.252	0.05
294.465	0.02
294.678	0.04
294.891	0.03
295.104	-0.03
295.317	-0
295.53	0.06
295.743	0.01
295.956	0.02
296.169	0.09
296.382	0.04
296.595	0.02
296.808	-0.03
297.021	0.07
297.234	0.08
297.447	0.03
297.66	0.03
297.873	0.07
298.086	0.03
298.299	-0
298.511	-0.06
298.724	-0.03
298.937	-0.02
299.15	0
299.363	0.03
299.575	0.03
299.788	0.06
300.001	0.01
300.213	-0.08
300.426	0.02
300.639	0.03
300.852	-0.04
301.064	0.08
301.277	0.06
301.489	0.08
301.702	0.01
301.915	0.02
302.127	0.02
302.34	0.02
302.552	0.01
302.765	0.02
302.977	0.07
303.19	-0.03
303.402	0.02
303.615	0.02
303.827	0.01
304.04	0.02
304.252	0.03
304.464	-0.03
304.677	0.11
304.889	0.06
305.102	-0.03
305.314	-0.01
305.526	0.01
305.739	0.04
305.951	-0.05
306.163	-0
306.375	0.06
306.588	-0.04
306.8	-0.01
307.012	-0.02
307.224	0.02
307.436	0.09
307.649	-0.07
307.861	0
308.073	0.04
308.285	-0
308.497	-0.05
308.709	0.01
308.921	0.01
309.133	0.07
309.346	0.01
309.558	0.02
309.77	0.06
309.982	0.11
310.194	0.05
310.406	-0.06
310.617	0.11
310.829	0.02
311.041	0.02
311.253	-0.02
311.465	-0.02
311.677	0.02
311.889	0.02
312.101	-0.04
312.313	0.07
312.524	0.04
312.736	-0.02
312.948	0.01
313.16	0.06
313.372	0.05
313.583	0.01
313.795	-0.01
314.007	0.02
314.218	0.04
314.43	0.03
314.642	-0.01
314.853	-0.05
315.065	-0.02
315.277	0.04
315.488	0
315.7	0.07
315.912	0.07
316.123	-0
316.335	-0
316.546	0.07
316.758	0
316.969	0.04
317.181	-0.02
317.392	0.01
317.604	0.06
317.815	-0.01
318.026	-0
318.238	0.04
318.449	0.03
318.661	-0.07
318.872	-0.05
319.083	-0.02
319.295	0.04
319.506	-0.02
319.717	0.03
319.929	0.03
320.14	0.04
320.351	0
320.562	-0.01
320.774	0
320.985	0
321.196	-0.04
321.407	-0.05
321.618	0.05
321.829	0.03
322.041	0.04
322.252	0.02
322.463	0.05
322.674	0.04
322.885	-0.03
323.096	-0
323.307	-0.01
323.518	0.04
323.729	-0.06
323.94	-0.04
324.151	-0.03
324.362	0.03
324.573	0.01
324.784	-0.03
324.995	0.1
325.206	0.02
325.417	0.02
325.628	0.02
325.838	0.03
326.049	0.03
326.26	0.03
326.471	-0.01
326.682	0.07
326.892	-0.02
327.103	-0.03
327.314	-0.03
327.525	0.06
327.735	0.02
327.946	0.04
328.157	-0.01
328.368	0
328.578	0
328.789	0.04
328.999	-0
329.21	0
329.421	0.03
329.631	-0.06
329.842	0.02
330.052	0.05
330.263	0.03
330.473	0.06
330.684	-0
330.894	0.07
331.105	0.04
331.315	0.01
331.526	-0.05
331.736	0.08
331.947	0.02
332.157	0.04
332.367	-0.02
332.578	0.03
332.788	0.05
332.999	0.02
333.209	0.04
333.419	-0.02
333.629	0.05
333.84	0.04
334.05	0
334.26	0.06
334.47	0.02
334.681	0.05
334.891	-0.01
335.101	0.01
335.311	0.1
335.521	0.02
335.732	0
335.942	0.07
336.152	0.06
336.362	0.01
336.572	0.03
336.782	0.05
336.992	0.01
337.202	-0
337.412	-0.02
337.622	0.01
337.832	0.01
338.042	-0.02
338.252	-0.05
338.462	-0.01
338.672	0.02
338.882	-0.03
339.092	0.03
339.302	0.09
339.511	0.04
339.721	-0.01
339.931	-0.03
340.141	0.04
340.351	0.08
340.561	0.04
340.77	-0
340.98	0.08
341.19	0.07
341.4	0.03
341.609	-0.04
341.819	-0.02
342.029	-0.05
342.238	0.03
342.448	0
342.658	-0
342.867	0.01
343.077	0.02
343.286	0.07
343.496	0.05
343.706	0.07
343.915	-0.03
344.125	-0
344.334	-0
344.544	-0.06
344.753	-0.02
344.963	0.03
345.172	-0.03
345.381	-0.01
345.591	0
345.8	0.04
346.01	0.07
346.219	0.08
346.428	-0.13
346.638	-0.01
346.847	0.05
347.056	0.04
347.266	-0.01
347.475	0.02
347.684	0.06
347.893	0.03
348.103	0.04
348.312	0
348.521	0
348.73	-0
348.94	0.03
349.149	-0.01
349.358	-0.01
349.567	-0.06
349.776	-0.04
349.985	-0.04
350.194	0.03
350.403	0.05
350.612	-0.02
350.821	0
351.03	-0.01
351.239	-0.02
351.448	0
351.657	-0
351.866	0.06
352.075	0
352.284	0.04
352.493	0.02
352.702	0.07
352.911	0.05
353.12	0.04
353.329	0.02
353.538	0.03
353.746	0.01
353.955	0.01
354.164	0.05
354.373	0.03
354.582	0.03
354.79	0.03
354.999	0.08
355.208	0.01
355.416	0.07
355.625	-0.02
355.834	0.01
356.042	0.03
356.251	0
356.46	-0.03
356.668	0.04
356.877	0.09
357.085	0.06
357.294	-0.06
357.503	0.02
357.711	-0.01
357.92	0.11
358.128	-0
358.337	-0.03
358.545	0.03
358.754	-0.03
358.962	0.05
359.17	0.01
359.379	0.02
359.587	0.06
359.796	0
360.004	0.04
360.212	0.04
360.421	0.09
360.629	0.02
360.837	-0.01
361.046	0.04
361.254	0.08
361.462	0.03
361.67	-0.07
361.879	0.06
362.087	0.07
362.295	0.02
362.503	-0.02
362.711	-0.03
362.92	-0.05
363.128	-0.01
363.336	-0.01
363.544	-0.04
363.752	-0.02
363.96	-0.04
364.168	-0.04
364.376	0.04
364.584	0.01
364.792	0.06
365	0.01
365.208	0.01
365.416	0.05
365.624	0.05
365.832	-0.01
366.04	0.08
366.248	0.06
366.456	0.05
366.664	0.04
366.872	-0.04
367.079	-0.01
367.287	0.02
367.495	0.02
367.703	0.03
367.911	0.01
368.118	0.03
368.326	0.02
368.534	-0
368.742	0.05
368.949	-0.07
369.157	0.02
369.365	0.04
369.572	-0.01
369.78	-0.02
369.988	0.01
370.195	0.05
370.403	0.04
370.61	0.02
370.818	0.02
371.026	0.05
371.233	-0.03
371.441	0.04
371.648	-0.03
371.856	0.03
372.063	0.02
372.271	-0.03
372.478	-0.02
372.685	0
372.893	0.04
373.1	-0.01
373.308	-0.02
373.515	0.07
373.722	0.06
373.93	0.03
374.137	0.07
374.344	0.08
374.552	0.07
374.759	0.05
374.966	0.03
375.173	-0.02
375.381	0.06
375.588	0.01
375.795	-0.05
376.002	-0.01
376.209	0.01
376.417	0.01
376.624	0.03
376.831	0.04
377.038	0
377.245	-0.06
377.452	-0.03
377.659	0
377.866	-0.03
378.073	-0.02
378.28	0.05
378.487	0.07
378.694	0.04
378.901	-0.02
379.108	0.02
379.315	0.05
379.522	0.09
379.729	0.03
379.936	0.01
380.143	0.05
380.35	-0
380.557	-0
380.763	0.04
380.97	-0.01
381.177	0.02
381.384	0.02
381.591	-0
381.797	0.02
382.004	0.05
382.211	0.07
382.418	-0.03
382.624	0.06
382.831	0.05
383.038	0.02
383.244	0.04
383.451	0.02
383.658	0
383.864	0.01
384.071	-0.05
384.277	0.09
384.484	-0
384.69	0.07
384.897	-0.01
385.103	0.02
385.31	-0.03
385.516	-0.03
385.723	-0.05
385.929	0.04
386.136	-0.02
386.342	0.03
386.549	-0.01
386.755	0.07
386.961	0.05
387.168	-0.02
387.374	0.01
387.58	0.06
387.787	0.01
387.993	0.02
388.199	0.01
388.406	0.04
388.612	-0.02
388.818	-0.03
389.024	0.03
389.231	0
389.437	0.08
389.643	0.03
389.849	0.01
390.055	-0
390.261	0.06
390.467	0.03
390.674	-0.05
390.88	0.01
391.086	0.02
391.292	-0.03
391.498	0.07
391.704	-0.01
391.91	0.01
392.116	-0.02
392.322	-0.09
392.528	0.03
392.734	0
392.94	0.06
393.146	0.01
393.352	0.03
393.557	0.01
393.763	-0
393.969	0.05
394.175	-0
394.381	0.03
394.587	-0.01
394.792	-0.02
394.998	0.04
395.204	0.08
395.41	-0
395.615	0.05
395.821	0.04
396.027	0.06
396.233	-0.01
396.438	0.03
396.644	0.05
396.85	0.03
397.055	-0
397.261	0.07
397.466	0.09
397.672	0.05
397.878	0.05
398.083	0.03
398.289	0.02
398.494	0.05
398.7	0.08
398.905	-0.02
399.111	0.09
399.316	-0.06
399.522	0.01
399.727	0
399.932	0.02
400.138	0.02
400.343	0.07
400.549	0.03
400.754	-0.01
400.959	0.05
401.165	0.02
401.37	0.03
401.575	0.1
401.78	0.01
401.986	-0.03
402.191	-0.04
402.396	0.01
402.601	0.08
402.807	0.04
403.012	0.03
403.217	0.05
403.422	0.04
403.627	0.03
403.832	0.03
404.037	0.06
404.243	0.06
404.448	0.02
404.653	-0.02
404.858	-0
405.063	0.08
405.268	0.02
405.473	-0.02
405.678	0.01
405.883	0.13
406.088	0.07
406.293	-0.04
406.498	0.03
406.703	0.06
406.907	0.04
407.112	0.01
407.317	0.07
407.522	-0
407.727	-0.03
407.932	0.05
408.136	0.11
408.341	0
408.546	0.04
408.751	-0
408.956	0.01
409.16	0.06
409.365	0.04
409.57	0.05
409.774	0.08
409.979	0.06
410.184	0.03
410.388	0.01
410.593	0.07
410.798	0.03
411.002	-0.02
411.207	0.07
411.411	0.06
411.616	-0
411.82	0.06
412.025	0.06
412.229	-0.02
412.434	0.13
412.638	0.07
412.843	0.02
413.047	0.06
413.252	-0.01
413.456	0.05
413.66	0.06
413.865	0
414.069	0.09
414.273	0.03
414.478	0.02
414.682	0.05
414.886	0.04
415.091	0.04
415.295	0.01
415.499	0.05
415.703	0.05
415.908	0.09
416.112	0.02
416.316	0.1
416.52	0.06
416.724	-0.01
416.929	0.07
417.133	0.14
417.337	0.07
417.541	0.06
417.745	0.06
417.949	0.07
418.153	0.08
418.357	0.06
418.561	0.19
418.765	0.05
418.969	0.22
419.173	0.15
419.377	0.13
419.581	0.2
419.785	0.14
419.989	0.1
420.193	0.13
420.397	0.12
420.601	0.16
420.804	0.19
421.008	0.16
421.212	0.23
421.416	0.16
421.62	0.09
421.823	0.13
422.027	0.23
422.231	0.19
422.435	0.12
422.638	0.18
422.842	0.18
423.046	0.16
423.249	0.22
423.453	0.19
423.657	0.24
423.86	0.23
424.064	0.17
424.268	0.28
424.471	0.2
424.675	0.31
424.878	0.31
425.082	0.27
425.285	0.29
425.489	0.22
425.692	0.25
425.896	0.21
426.099	0.33
426.303	0.21
426.506	0.17
426.71	0.33
426.913	0.31
427.116	0.34
427.32	0.3
427.523	0.35
427.726	0.38
427.93	0.28
428.133	0.32
428.336	0.25
428.54	0.29
428.743	0.36
428.946	0.34
429.149	0.32
429.353	0.43
429.556	0.36
429.759	0.34
429.962	0.31
430.165	0.38
430.368	0.38
430.571	0.33
430.775	0.39
430.978	0.33
431.181	0.39
431.384	0.4
431.587	0.42
431.79	0.41
431.993	0.34
432.196	0.39
432.399	0.41
432.602	0.51
432.805	0.39
433.008	0.42
433.211	0.34
433.414	0.54
433.616	0.53
433.819	0.46
434.022	0.35
434.225	0.52
434.428	0.46
434.631	0.65
434.833	0.46
435.036	0.47
435.239	0.5
435.442	0.52
435.645	0.52
435.847	0.55
436.05	0.67
436.253	0.58
436.455	0.52
436.658	0.53
436.861	0.63
437.063	0.56
437.266	0.57
437.468	0.62
437.671	0.74
437.874	0.6
438.076	0.58
438.279	0.55
438.481	0.64
438.684	0.63
438.886	0.73
439.089	0.59
439.291	0.65
439.494	0.74
439.696	0.67
439.899	0.69
440.101	0.79
440.303	0.73
440.506	0.84
440.708	0.83
440.91	0.89
441.113	0.77
441.315	0.91
441.517	0.8
441.72	0.9
441.922	0.84
442.124	0.77
442.326	0.89
442.529	0.95
442.731	0.91
442.933	0.99
443.135	0.94
443.337	0.94
443.539	0.92
443.742	0.92
443.944	1.02
444.146	0.94
444.348	0.96
444.55	0.93
444.752	0.95
444.954	0.9
445.156	1.05
445.358	1
445.56	1.12
445.762	1.01
445.964	1.02
446.166	1.04
446.368	1
446.57	1.12
446.772	1.06
446.974	1.02
447.175	1.06
447.377	1.02
447.579	1.05
447.781	0.97
447.983	1.05
448.184	1.03
448.386	1.09
448.588	0.92
448.79	0.97
448.991	0.97
449.193	0.99
449.395	0.94
449.597	1.04
449.798	0.97
450	0.97
450.202	0.96
450.403	0.88
450.605	0.98
450.806	0.92
451.008	0.79
451.21	0.82
451.411	0.85
451.613	0.78
451.814	0.79
452.016	0.86
452.217	0.76
452.419	0.77
452.62	0.75
452.821	0.73
453.023	0.78
453.224	0.76
453.426	0.62
453.627	0.62
453.828	0.68
454.03	0.6
454.231	0.69
454.432	0.62
454.634	0.66
454.835	0.56
455.036	0.52
455.238	0.58
455.439	0.59
455.64	0.47
455.841	0.46
456.042	0.55
456.244	0.51
456.445	0.42
456.646	0.39
456.847	0.42
457.048	0.49
457.249	0.45
457.45	0.64
457.651	0.39
457.852	0.47
458.054	0.4
458.255	0.33
458.456	0.41
458.657	0.38
458.858	0.34
459.058	0.34
459.259	0.34
459.46	0.32
459.661	0.29
459.862	0.46
460.063	0.31
460.264	0.36
460.465	0.19
460.666	0.42
460.866	0.25
461.067	0.3
461.268	0.32
461.469	0.21
461.67	0.25
461.87	0.25
462.071	0.29
462.272	0.21
462.473	0.25
462.673	0.26
462.874	0.17
463.075	0.27
463.275	0.23
463.476	0.29
463.676	0.31
463.877	0.27
464.078	0.25
464.278	0.27
464.479	0.22
464.679	0.18
464.88	0.2
465.08	0.28
465.281	0.19
465.481	0.19
465.682	0.2
465.882	0.26
466.083	0.2
466.283	0.2
466.483	0.13
466.684	0.12
466.884	0.15
467.085	0.18
467.285	0.19
467.485	0.16
467.686	0.15
467.886	0.14
468.086	0.16
468.286	0.15
468.487	0.23
468.687	0.13
468.887	0.16
469.087	0.21
469.287	0.14
469.488	0.08
469.688	0.19
469.888	0.22
470.088	0.15
470.288	0.2
470.488	0.17
470.688	0.08
470.888	0.15
471.088	0.1
471.288	0.15
471.488	0.17
471.688	0.13
471.888	0.09
472.088	0.16
472.288	0.17
472.488	0.15
472.688	0.13
472.888	0.14
473.088	0.12
473.288	0.12
473.488	0.1
473.688	0.2
473.887	0.16
474.087	0.11
474.287	0.14
474.487	0.1
474.687	0.12
474.886	0.1
475.086	0.07
475.286	0.12
475.486	0.1
475.685	0.14
475.885	0.12
476.085	0.11
476.284	0.14
476.484	0.09
476.684	0.1
476.883	0.18
477.083	0.13
477.282	0.09
477.482	0.13
477.681	0.14
477.881	0.11
478.08	0.09
478.28	0.07
478.479	0.13
478.679	0.19
478.878	0.09
479.078	0.11
479.277	0.09
479.477	0.1
479.676	0.14
479.875	0.09
480.075	0.08
480.274	0.1
480.473	0.11
480.673	0.08
480.872	0.13
481.071	0.11
481.271	0.09
481.47	0.09
481.669	0.09
481.868	0.1
482.067	0.05
482.267	0.08
482.466	0.05
482.665	0.07
482.864	0.04
483.063	0.07
483.262	0.12
483.461	0.1
483.661	0.12
483.86	0.08
484.059	0.09
484.258	0.11
484.457	0.07
484.656	0.12
484.855	0.13
485.054	0.05
485.253	0.05
485.452	0.06
485.651	0.09
485.849	0.14
486.048	0.09
486.247	0.08
486.446	0.08
486.645	0.08
486.844	0.08
487.043	0.06
487.241	0.11
487.44	0.1
487.639	0.1
487.838	0.13
488.037	0.12
488.235	0.16
488.434	0.1
488.633	0.07
488.831	0.13
489.03	0.14
489.229	0.12
489.427	0.13
489.626	0.15
489.825	0.17
490.023	0.12
490.222	0.09
490.42	0.16
490.619	0.14
490.817	0.14
491.016	0.1
491.214	0.15
491.413	0.1
491.611	0.09
491.81	0.12
492.008	0.14
492.207	0.15
492.405	0.11
492.604	0.09
492.802	0.14
493	0.11
493.199	0.12
493.397	0.12
493.595	0.12
493.794	0.11
493.992	0.18
494.19	0.14
494.388	0.17
494.587	0.12
494.785	0.13
494.983	0.08
495.181	0.13
495.379	0.16
495.578	0.16
495.776	0.17
495.974	0.18
496.172	0.15
496.37	0.15
496.568	0.12
496.766	0.15
496.964	0.19
497.162	0.19
497.36	0.17
497.558	0.19
497.756	0.19
497.954	0.17
498.152	0.15
498.35	0.18
498.548	0.17
498.746	0.17
498.944	0.16
499.142	0.18
499.34	0.15
499.538	0.21
499.736	0.17
499.933	0.24
500.131	0.2
500.329	0.21
500.527	0.23
500.725	0.22
500.922	0.21
501.12	0.22
501.318	0.22
501.516	0.2
501.713	0.23
501.911	0.21
502.109	0.21
502.306	0.22
502.504	0.22
502.701	0.23
502.899	0.22
503.097	0.28
503.294	0.21
503.492	0.24
503.689	0.24
503.887	0.24
504.084	0.31
504.282	0.27
504.479	0.21
504.677	0.24
504.874	0.22
505.072	0.24
505.269	0.25
505.466	0.3
505.664	0.27
505.861	0.22
506.059	0.21
506.256	0.26
506.453	0.24
506.651	0.3
506.848	0.3
507.045	0.3
507.242	0.28
507.44	0.24
507.637	0.28
507.834	0.28
508.031	0.31
508.229	0.25
508.426	0.28
508.623	0.3
508.82	0.27
509.017	0.27
509.214	0.27
509.411	0.31
509.608	0.27
509.805	0.31
510.003	0.29
510.2	0.29
510.397	0.34
510.594	0.3
510.791	0.29
510.988	0.29
511.184	0.34
511.381	0.31
511.578	0.3
511.775	0.34
511.972	0.3
512.169	0.32
512.366	0.33
512.563	0.36
512.76	0.32
512.956	0.35
513.153	0.32
513.35	0.36
513.547	0.34
513.744	0.32
513.94	0.32
514.137	0.38
514.334	0.36
514.53	0.34
514.727	0.37
514.924	0.39
515.12	0.35
515.317	0.34
515.514	0.33
515.71	0.33
515.907	0.37
516.103	0.37
516.3	0.38
516.497	0.38
516.693	0.38
516.89	0.36
517.086	0.35
517.283	0.39
517.479	0.36
517.676	0.34
517.872	0.37
518.068	0.36
518.265	0.37
518.461	0.36
518.658	0.35
518.854	0.4
519.05	0.36
519.247	0.37
519.443	0.41
519.639	0.41
519.836	0.38
520.032	0.39
520.228	0.4
520.424	0.42
520.621	0.42
520.817	0.38
521.013	0.42
521.209	0.42
521.405	0.44
521.601	0.4
521.798	0.41
521.994	0.46
522.19	0.38
522.386	0.37
522.582	0.41
522.778	0.42
522.974	0.38
523.17	0.42
523.366	0.38
523.562	0.43
523.758	0.42
523.954	0.4
524.15	0.39
524.346	0.44
524.542	0.39
524.738	0.4
524.934	0.42
525.129	0.41
525.325	0.44
525.521	0.4
525.717	0.43
525.913	0.42
526.109	0.43
526.304	0.43
526.5	0.43
526.696	0.46
526.892	0.42
527.087	0.44
527.283	0.43
527.479	0.45
527.674	0.37
527.87	0.45
528.066	0.4
528.261	0.43
528.457	0.45
528.653	0.41
528.848	0.44
529.044	0.44
529.239	0.4
529.435	0.46
529.63	0.45
529.826	0.47
530.021	0.44
530.217	0.44
530.412	0.44
530.608	0.43
530.803	0.43
530.999	0.42
531.194	0.4
531.389	0.43
531.585	0.38
531.78	0.43
531.975	0.43
532.171	0.45
532.366	0.43
532.561	0.42
532.757	0.43
532.952	0.42
533.147	0.46
533.342	0.45
533.538	0.42
533.733	0.47
533.928	0.44
534.123	0.44
534.318	0.44
534.513	0.45
534.709	0.45
534.904	0.43
535.099	0.44
535.294	0.45
535.489	0.48
535.684	0.45
535.879	0.4
536.074	0.45
536.269	0.45
536.464	0.46
536.659	0.44
536.854	0.44
537.049	0.49
537.244	0.48
537.439	0.43
537.634	0.48
537.828	0.44
538.023	0.45
538.218	0.42
538.413	0.43
538.608	0.43
538.803	0.47
538.997	0.4
539.192	0.51
539.387	0.46
539.582	0.46
539.776	0.43
539.971	0.44
540.166	0.46
540.36	0.44
540.555	0.46
540.75	0.43
540.944	0.43
541.139	0.41
541.334	0.45
541.528	0.46
541.723	0.45
541.917	0.45
542.112	0.39
542.306	0.43
542.501	0.43
542.695	0.45
542.89	0.41
543.084	0.45
543.279	0.45
543.473	0.48
543.668	0.46
543.862	0.46
544.056	0.45
544.251	0.47
544.445	0.48
544.64	0.45
544.834	0.4
545.028	0.43
545.222	0.46
545.417	0.47
545.611	0.49
545.805	0.46
546	0.42
546.194	0.45
546.388	0.43
546.582	0.47
546.776	0.47
546.97	0.45
547.165	0.5
547.359	0.45
547.553	0.43
547.747	0.47
547.941	0.49
548.135	0.47
548.329	0.47
548.523	0.44
548.717	0.43
548.911	0.47
549.105	0.43
549.299	0.47
549.493	0.48
549.687	0.48
549.881	0.46
550.075	0.45
550.269	0.4
550.463	0.48
550.657	0.43
550.85	0.47
551.044	0.43
551.238	0.47
551.432	0.43
551.626	0.42
551.82	0.47
552.013	0.44
552.207	0.47
552.401	0.5
552.594	0.43
552.788	0.46
552.982	0.43
553.176	0.46
553.369	0.49
553.563	0.47
553.756	0.43
553.95	0.45
554.144	0.47
554.337	0.46
554.531	0.45
554.724	0.46
554.918	0.45
555.111	0.51
555.305	0.46
555.498	0.49
555.692	0.48
555.885	0.44
556.079	0.48
556.272	0.44
556.466	0.48
556.659	0.44
556.852	0.46
557.046	0.45
557.239	0.49
557.432	0.43
557.626	0.44
557.819	0.47
558.012	0.49
558.206	0.49
558.399	0.47
558.592	0.48
558.785	0.46
558.979	0.47
559.172	0.47
559.365	0.49
559.558	0.47
559.751	0.46
559.944	0.46
560.138	0.43
560.331	0.44
560.524	0.45
560.717	0.46
560.91	0.43
561.103	0.47
561.296	0.45
561.489	0.48
561.682	0.47
561.875	0.49
562.068	0.52
562.261	0.47
562.454	0.5
562.647	0.49
562.84	0.47
563.032	0.44
563.225	0.47
563.418	0.46
563.611	0.47
563.804	0.47
563.997	0.44
564.19	0.4
564.382	0.43
564.575	0.47
564.768	0.46
564.961	0.45
565.153	0.43
565.346	0.46
565.539	0.48
565.731	0.48
565.924	0.49
566.117	0.48
566.309	0.44
566.502	0.46
566.695	0.45
566.887	0.47
567.08	0.45
567.272	0.45
567.465	0.44
567.657	0.47
567.85	0.46
568.042	0.45
568.235	0.49
568.427	0.45
568.62	0.47
568.812	0.5
569.005	0.47
569.197	0.39
569.389	0.47
569.582	0.46
569.774	0.44
569.966	0.43
570.159	0.41
570.351	0.48
570.543	0.43
570.736	0.45
570.928	0.43
571.12	0.47
571.312	0.43
571.505	0.4
571.697	0.48
571.889	0.43
572.081	0.46
572.273	0.43
572.465	0.49
572.658	0.44
572.85	0.46
573.042	0.42
573.234	0.45
573.426	0.46
573.618	0.43
573.81	0.45
574.002	0.49
574.194	0.48
574.386	0.41
574.578	0.37
574.77	0.44
574.962	0.43
575.154	0.39
575.346	0.42
575.538	0.45
575.729	0.41
575.921	0.44
576.113	0.47
576.305	0.47
576.497	0.44
576.689	0.43
576.88	0.42
577.072	0.49
577.264	0.42
577.456	0.45
577.647	0.4
577.839	0.47
578.031	0.45
578.223	0.41
578.414	0.4
578.606	0.44
578.798	0.46
578.989	0.44
579.181	0.43
579.372	0.45
579.564	0.43
579.755	0.45
579.947	0.45
580.139	0.48
580.33	0.41
580.522	0.42
580.713	0.36
580.905	0.44
581.096	0.43
581.287	0.42
581.479	0.44
581.67	0.46
581.862	0.44
582.053	0.44
582.244	0.39
582.436	0.44
582.627	0.43
582.818	0.41
583.01	0.37
583.201	0.45
583.392	0.45
583.583	0.41
583.775	0.42
583.966	0.38
584.157	0.41
584.348	0.42
584.54	0.37
584.731	0.46
584.922	0.42
585.113	0.4
585.304	0.46
585.495	0.46
585.686	0.45
585.877	0.47
586.068	0.43
586.259	0.47
586.45	0.45
586.641	0.4
586.832	0.38
587.023	0.44
587.214	0.4
587.405	0.41
587.596	0.39
587.787	0.45
587.978	0.43
588.169	0.39
588.36	0.37
588.551	0.44
588.742	0.39
588.932	0.45
589.123	0.39
589.314	0.45
589.505	0.43
589.696	0.42
589.886	0.43
590.077	0.37
590.268	0.41
590.458	0.38
590.649	0.34
590.84	0.42
591.03	0.4
591.221	0.38
591.412	0.39
591.602	0.45
591.793	0.47
591.984	0.37
592.174	0.38
592.365	0.46
592.555	0.36
592.746	0.41
592.936	0.45
593.127	0.42
593.317	0.44
593.508	0.38
593.698	0.38
593.889	0.41
594.079	0.4
594.269	0.38
594.46	0.41
594.65	0.4
594.84	0.37
595.031	0.37
595.221	0.37
595.411	0.35
595.602	0.4
595.792	0.37
595.982	0.36
596.172	0.45
596.363	0.38
596.553	0.37
596.743	0.39
596.933	0.39
597.123	0.39
597.314	0.36
597.504	0.37
597.694	0.41
597.884	0.39
598.074	0.36
598.264	0.37
598.454	0.37
598.644	0.39
598.834	0.36
599.024	0.29
599.214	0.35
599.404	0.4
599.594	0.38
599.784	0.37
599.974	0.39
600.164	0.38
600.354	0.34
600.544	0.35
600.734	0.39
600.924	0.41
601.114	0.33
601.303	0.36
601.493	0.35
601.683	0.34
601.873	0.36
602.063	0.3
602.252	0.37
602.442	0.31
602.632	0.33
602.821	0.33
603.011	0.38
603.201	0.31
603.39	0.32
603.58	0.31
603.77	0.34
603.959	0.39
604.149	0.35
604.339	0.34
604.528	0.37
604.718	0.37
604.907	0.33
605.097	0.34
605.286	0.3
605.476	0.34
605.665	0.39
605.855	0.33
606.044	0.4
606.234	0.38
606.423	0.31
606.612	0.32
606.802	0.36
606.991	0.36
607.181	0.38
607.37	0.29
607.559	0.32
607.749	0.31
607.938	0.36
608.127	0.32
608.316	0.31
608.506	0.32
608.695	0.32
608.884	0.3
609.073	0.33
609.263	0.35
609.452	0.34
609.641	0.34
609.83	0.3
610.019	0.38
610.208	0.32
610.397	0.35
610.586	0.35
610.775	0.29
610.965	0.27
611.154	0.29
611.343	0.35
611.532	0.33
611.721	0.3
611.91	0.3
612.099	0.32
612.287	0.31
612.476	0.29
612.665	0.35
612.854	0.29
613.043	0.33
613.232	0.31
613.421	0.26
613.61	0.31
613.798	0.27
613.987	0.34
614.176	0.32
614.365	0.33
614.554	0.33
614.742	0.34
614.931	0.26
615.12	0.33
615.309	0.27
615.497	0.29
615.686	0.29
615.875	0.27
616.063	0.3
616.252	0.32
616.44	0.27
616.629	0.33
616.818	0.32
617.006	0.27
617.195	0.28
617.383	0.31
617.572	0.27
617.76	0.26
617.949	0.26
618.137	0.29
618.326	0.31
618.514	0.28
618.703	0.27
618.891	0.35
619.079	0.21
619.268	0.31
619.456	0.26
619.644	0.31
619.833	0.25
620.021	0.21
620.209	0.22
620.398	0.27
620.586	0.27
620.774	0.29
620.962	0.27
621.151	0.33
621.339	0.28
621.527	0.23
621.715	0.22
621.903	0.25
622.092	0.21
622.28	0.27
622.468	0.27
622.656	0.21
622.844	0.26
623.032	0.21
623.22	0.21
623.408	0.29
623.596	0.26
623.784	0.28
623.972	0.25
624.16	0.24
624.348	0.28
624.536	0.24
624.724	0.22
624.912	0.29
625.1	0.26
625.288	0.19
625.476	0.18
625.664	0.27
625.851	0.22
626.039	0.26
626.227	0.28
626.415	0.24
626.603	0.21
626.79	0.24
626.978	0.26
627.166	0.27
627.354	0.22
627.541	0.21
627.729	0.14
627.917	0.27
628.104	0.24
628.292	0.21
628.48	0.23
628.667	0.22
628.855	0.26
629.042	0.24
629.23	0.23
629.418	0.2
629.605	0.22
629.793	0.2
629.98	0.2
630.168	0.22
630.355	0.22
630.543	0.24
630.73	0.19
630.917	0.27
631.105	0.26
631.292	0.2
631.48	0.21
631.667	0.28
631.854	0.23
632.042	0.2
632.229	0.14
632.416	0.24
632.604	0.21
632.791	0.16
632.978	0.26
633.165	0.21
633.353	0.27
633.54	0.25
633.727	0.17
633.914	0.2
634.101	0.23
634.289	0.25
634.476	0.18
634.663	0.18
634.85	0.24
635.037	0.18
635.224	0.16
635.411	0.24
635.598	0.23
635.785	0.2
635.972	0.18
636.159	0.21
636.346	0.19
636.533	0.21
636.72	0.17
636.907	0.16
637.094	0.18
637.281	0.19
637.468	0.17
637.655	0.18
637.842	0.18
638.029	0.16
638.215	0.23
638.402	0.17
638.589	0.15
638.776	0.14
638.963	0.17
639.149	0.22
639.336	0.26
639.523	0.18
639.709	0.18
639.896	0.13
640.083	0.24
640.27	0.2
640.456	0.16
640.643	0.2
640.829	0.11
641.016	0.13
641.203	0.12
641.389	0.2
641.576	0.2
641.762	0.2
641.949	0.13
642.135	0.21
642.322	0.16
642.508	0.1
642.695	0.18
642.881	0.18
643.068	0.17
643.254	0.14
643.441	0.2
643.627	0.14
643.813	0.12
644	0.17
644.186	0.15
644.372	0.11
644.559	0.22
644.745	0.16
644.931	0.13
645.118	0.16
645.304	0.16
645.49	0.13
645.676	0.16
645.862	0.16
646.049	0.16
646.235	0.16
646.421	0.24
646.607	0.19
646.793	0.12
646.979	0.11
647.165	0.17
647.352	0.15
647.538	0.16
647.724	0.15
647.91	0.14
648.096	0.18
648.282	0.17
648.468	0.13
648.654	0.16
648.84	0.16
649.026	0.14
649.212	0.13
649.397	0.11
649.583	0.1
649.769	0.16
649.955	0.13
650.141	0.19
650.327	0.17
650.513	0.12
650.698	0.15
650.884	0.07
651.07	0.12
651.256	0.12
651.442	0.09
651.627	0.13
651.813	0.14
651.999	0.11
652.184	0.15
652.37	0.13
652.556	0.1
652.741	0.18
652.927	0.08
653.113	0.13
653.298	0.1
653.484	0.14
653.669	0.08
653.855	0.13
654.04	0.15
654.226	0.13
654.412	0.09
654.597	0.09
654.782	0.14
654.968	0.17
655.153	0.13
655.339	0.11
655.524	0.08
655.71	0.12
655.895	0.07
656.08	0.13
656.266	0.19
656.451	0.11
656.636	0.09
656.822	0.11
657.007	0.07
657.192	0.12
657.378	0.06
657.563	0.06
657.748	0.15
657.933	0.1
658.118	0.08
658.304	0.11
658.489	0.14
658.674	0.13
658.859	0.06
659.044	0.13
659.229	0.11
659.414	0.1
659.599	0.11
659.785	0.06
659.97	0.08
660.155	0.13
660.34	0.11
660.525	0.09
660.71	0.09
660.895	0.14
661.08	0.08
661.264	0.07
661.449	0.12
661.634	0.17
661.819	0.12
662.004	0.12
662.189	0.01
662.374	0.07
662.559	0.09
662.743	0.05
662.928	0.1
663.113	0.09
663.298	0.06
663.483	0.08
663.667	0.12
663.852	0.05
664.037	0.13
664.221	0.06
664.406	0.15
664.591	0.14
664.775	0.12
664.96	0.04
665.145	0.1
665.329	0.1
665.514	0.09
665.698	0.04
665.883	-0
666.068	0.17
666.252	0.11
666.437	0.06
666.621	0.1
666.806	0.08
666.99	0.09
667.174	0.05
667.359	0.14
667.543	0.06
667.728	0.06
667.912	0.05
668.096	0.08
668.281	0.08
668.465	0.06
668.649	0.05
668.834	0.06
669.018	0.07
669.202	0.07
669.387	0.06
669.571	0.11
669.755	0.05
669.939	0.07
670.124	0.09
670.308	0.14
670.492	0.1
670.676	0.1
670.86	0.07
671.044	0.04
671.228	0.15
671.413	0.03
671.597	0.06
671.781	0.03
671.965	0.09
672.149	0.09
672.333	0.09
672.517	0.07
672.701	0.09
672.885	0.04
673.069	0.03
673.253	0.12
673.437	0.08
673.621	0.05
673.804	0.1
673.988	0.08
674.172	0.06
674.356	0.05
674.54	0.05
674.724	0.15
674.908	0.09
675.091	0.11
675.275	0.05
675.459	0.09
675.643	0.15
675.826	0.09
676.01	0.05
676.194	0.08
676.377	0.12
676.561	0.09
676.745	0.09
676.928	0.07
677.112	0.13
677.296	0.04
677.479	0.05
677.663	0.05
677.846	0.07
678.03	0.02
678.213	0.04
678.397	0.13
678.58	0.04
678.764	0.02
678.947	0.02
679.131	0.02
679.314	0.11
679.498	0.05
679.681	0.1
679.865	0.1
680.048	0.04
680.231	0.07
680.415	0.06
680.598	0.01
680.781	0.03
680.965	0.07
681.148	0.08
681.331	0.03
681.514	0.1
681.698	0.01
681.881	0.1
682.064	0.07
682.247	0.1
682.43	-0.03
682.614	0.08
682.797	0.1
682.98	0.08
683.163	-0
683.346	0.08
683.529	0.02
683.712	-0
683.895	0.1
684.078	0.04
684.261	0.04
684.444	0.1
684.627	0.11
684.81	0.04
684.993	0.05
685.176	0.09
685.359	0.04
685.542	0.03
685.725	0.1
685.908	0.09
686.091	0.09
686.274	0.05
686.457	0.11
686.639	0.05
686.822	0.07
687.005	0.03
687.188	0.1
687.371	0.12
687.553	0.06
687.736	0.05
687.919	0.12
688.102	0.14
688.284	0.02
688.467	0.05
688.65	0.02
688.832	-0.01
689.015	0.1
689.197	-0.02
689.38	0.17
689.563	0.14
689.745	0.03
689.928	0.02
690.11	0.11
690.293	0.09
690.475	0.01
690.658	0.06
690.84	0.03
691.023	0.06
691.205	0.06
691.388	0.01
691.57	0.1
691.752	0.05
691.935	0.01
692.117	0.07
692.3	0.07
692.482	0.03
692.664	0.02
692.847	0.01
693.029	0.1
693.211	0.1
693.393	0.05
693.576	0.02
693.758	0.05
693.94	0.02
694.122	0.04
694.304	0.02
694.487	0.06
694.669	0.12
694.851	0.02
695.033	0.05
695.215	0
695.397	0
695.579	0.1
695.761	-0
695.943	-0.01
696.125	0.08
696.308	0.05
696.49	-0.09
696.671	0.14
696.853	0.05
697.035	0.16
697.217	0.08
697.399	0.07
697.581	0.05
697.763	0.05
697.945	-0.03
698.127	0.08
698.309	0.07
698.491	0.04
698.672	0.04
698.854	0.14
699.036	0.13
699.218	0.04
699.399	0.06
699.581	0.05
699.763	0.04
699.945	0.01
700.126	-0.02
700.308	0.05
700.49	0.05
700.671	-0.05
700.853	-0.01
701.035	0.02
701.216	0.09
701.398	0.01
701.579	-0.02
701.761	0.06
701.943	-0.07
702.124	0.01
702.306	0.02
702.487	0.14
702.669	0.04
702.85	0.02
703.031	0.03
703.213	0.15
703.394	0.11
703.576	0.04
703.757	0.07
703.938	0.09
704.12	0.17
704.301	0.02
704.483	0.02
704.664	0.07
704.845	0.15
705.026	0.06
705.208	0.01
705.389	0.07
705.57	0.08
705.751	-0.04
705.933	0.1
706.114	0.13
706.295	0.04
706.476	-0.02
706.657	0.1
706.838	0.11
707.02	0.04
707.201	-0.03
707.382	0.03
707.563	0.05
707.744	0.06
707.925	-0.01
708.106	-0.04
708.287	0.12
708.468	0.13
708.649	0.06
708.83	0.12
709.011	0.03
709.192	0.09
709.373	-0.02
709.554	0.06
709.734	0.09
709.915	0.11
710.096	0.01
710.277	-0.03
710.458	0.03
710.639	0
710.819	-0.05
711	-0.01
711.181	0.12
711.362	0.1
711.542	0.09
711.723	0.01
711.904	0.04
712.085	0.06
712.265	0.02
712.446	-0.05
712.627	0.04
712.807	0.03
712.988	0.06
713.168	0.01
713.349	0.05
713.53	-0.11
713.71	-0.08
713.891	-0.03
714.071	-0.05
714.252	-0
714.432	-0.03
714.613	-0.05
714.793	0
714.974	0.09
715.154	0.12
715.334	0.14
715.515	0.11
715.695	-0.03
715.876	0.03
716.056	-0.01
716.236	0.03
716.417	-0.05
716.597	-0.02
716.777	0.15
716.957	0.01
717.138	0.05
717.318	0.08
717.498	-0.07
717.678	0.06
717.859	-0.02
718.039	-0.14
718.219	0.03
718.399	0.02
718.579	-0.07
718.759	-0.07
718.939	0.01
719.12	-0.04
719.3	0.07
719.48	-0.12
719.66	-0.07
719.84	0.1
720.02	-0
720.2	-0.06
720.38	0.05
720.56	0.12
720.74	0.04
720.92	0.05
721.1	0.12
721.279	0.11
721.459	0.02
721.639	-0.07
721.819	0.03
721.999	-0.04
722.179	0.1
722.359	-0.06
722.538	0.04
722.718	0.04
722.898	-0.01
723.078	0
723.257	0.01
723.437	0.01
723.617	0.07
723.797	-0.04
723.976	0.02
724.156	-0.01
724.336	0.04
724.515	0.15
724.695	-0.09
724.874	0.06
725.054	0.14
725.234	-0.03
725.413	-0
725.593	0.01
725.772	0.02
725.952	0.03
726.131	-0
726.311	0.04
726.49	-0.01
726.67	-0.11
726.849	-0.01
727.028	-0.01
727.208	-0.03
727.387	0.01
727.567	-0.03
727.746	0.08
727.925	-0.02
728.105	-0.09
728.284	-0.02
728.463	0.05
728.643	0.04
728.822	-0.06
729.001	-0.06
729.18	0.06
729.359	0.03
729.539	-0
729.718	0.07
729.897	0.1
730.076	0.06
730.255	-0.02
730.434	0.02
730.614	0.01
730.793	0.01
730.972	-0.02
731.151	0.03
731.33	0.06
731.509	-0.04
731.688	-0
731.867	0.05
732.046	-0.08
732.225	0.2
732.404	-0.01
732.583	-0.06
732.762	0.01
732.941	0.11
733.12	0.05
733.298	-0.09
733.477	0.15
733.656	0.01
733.835	0.08
734.014	0.11
734.193	0.05
734.371	0.11
734.55	0.07
734.729	-0.07
734.908	0.07
735.086	0.06
735.265	0.11
735.444	-0.12
735.623	-0.01
735.801	-0.08
735.98	0.05
736.159	0.02
736.337	0.04
736.516	0.12
736.694	0
736.873	0.05
737.052	0.28
737.23	0.16
737.409	0.11
737.587	0.11
737.766	-0.14
737.944	-0.08
738.123	0.17
738.301	0.03
738.479	-0.02
738.658	0.14
738.836	-0.22
739.015	0.01
739.193	0.14
739.371	-0.08
739.55	-0.06
739.728	-0.05
739.906	0.03
740.085	0.08
740.263	0.02
740.441	-0.08
740.62	0.15
740.798	0.07
740.976	-0.03
741.154	-0.05
741.332	0.24
741.511	-0
741.689	0.11
741.867	0.11
742.045	-0.07
742.223	-0.02
742.401	0
742.579	-0.01
742.757	0.09
742.935	-0.15
743.114	-0.03
743.292	-0.06
743.47	0.03
743.648	0.06
743.826	0.01
744.004	0
744.181	0.18
744.359	-0.01
744.537	0.11
744.715	-0.01
744.893	-0.03
745.071	0.04
745.249	0.03
745.427	-0.06
745.605	0.1
745.782	0.03
745.96	0.05
746.138	0.03
746.316	0.17
746.493	-0.01
746.671	0.03
746.849	-0.03
747.027	0.12
747.204	-0.06
747.382	0.14
747.56	-0.09
747.737	-0.12
747.915	-0.04
748.093	0
748.27	-0.1
748.448	0.05
748.625	-0.06
748.803	-0.04
748.98	-0.11
749.158	0.02
749.335	0.1
749.513	-0.07
749.69	0.04
749.868	-0.03
750.045	0.06
750.223	-0.02
750.4	-0.22
750.578	0.17
750.755	-0.06
750.932	-0.17
751.11	0.19
751.287	-0.13
751.464	0.12
751.642	-0.11
751.819	0.1
751.996	0.04
752.173	-0.11
752.351	-0.08
752.528	0.13
752.705	-0.01
752.882	-0.09
753.06	0.09
753.237	-0.01
753.414	0.16
753.591	0.05
753.768	-0.02
753.945	-0
754.122	-0.01
754.299	0.07
754.476	-0.09
754.654	0.02
754.831	0.1
755.008	0.04
755.185	0.01
755.362	-0.12
755.539	0.01
755.716	-0.06
755.892	-0.05
756.069	0.01
756.246	0.05
756.423	0.02
756.6	0.1
756.777	-0.09
756.954	0.02
757.131	-0.01
757.307	-0.01
757.484	-0.17
757.661	0.06
757.838	0.05
758.015	-0.04
758.191	0.05
758.368	0.15
758.545	0.14
758.721	0.02
758.898	-0.09
759.075	0.12
759.251	0.1
759.428	0.08
759.605	-0.13
759.781	0.12
759.958	0.03
760.134	0.09
760.311	-0.02
760.488	0.17
760.664	0.14
760.841	-0.02
761.017	0.01
761.194	0.1
761.37	0.12
761.547	0.02
761.723	0.06
761.899	0.1
762.076	-0
762.252	0.02
762.429	-0.12
762.605	0.15
762.781	0.04
762.958	0.14
763.134	0.01
763.31	-0.06
763.486	0.1
763.663	-0.07
763.839	0.12
764.015	-0.09
764.191	0.04
764.368	0.02
764.544	-0.04
764.72	0.1
764.896	0.1
765.072	-0.04
765.248	0.07
765.425	0.05
765.601	-0.07
765.777	0.06
765.953	-0.14
766.129	-0.05
766.305	-0.14
766.481	0.06
766.657	0.12
766.833	0.2
767.009	-0.08
767.185	-0.07
767.361	-0.01
767.537	-0.07
767.713	0.15
767.889	-0.16
768.065	0.16
768.24	-0.29
768.416	0.11
768.592	0.07
768.768	0.06
768.944	0.07
769.12	-0.08
769.295	-0.12
769.471	-0.03
769.647	0.03
769.823	0.17
769.998	-0.16
770.174	-0.02
770.35	0.26
770.525	0.29
770.701	0.05
770.877	-0.04
771.052	-0.08
771.228	0.02
771.403	0.06
771.579	0.11
771.755	0.31
771.93	0.02
772.106	-0.11
772.281	-0.14
772.457	0.11
772.632	0.03
772.808	-0.01
772.983	-0.09
773.159	-0.12
773.334	0.17
773.509	-0.02
773.685	-0.05
773.86	0.42
774.036	0.14
774.211	-0
774.386	-0.08
774.562	0.15
774.737	0.06
774.912	-0.06
775.087	0.15
775.263	-0.1
775.438	0.02
775.613	-0.05
775.788	-0.02
775.964	0.09
776.139	0.22
776.314	-0.23
776.489	0.08
776.664	0.17
776.839	-0.13
777.014	0.13
777.19	0.11
777.365	0.21
777.54	0.2
777.715	-0.18
777.89	-0.03
778.065	-0.02
778.24	-0.02
778.415	0.21
778.59	-0.15
778.765	-0.1
778.94	0.05
779.115	-0.03
779.289	-0.12
779.464	-0
779.639	0.02
779.814	-0.02
779.989	-0.17
780.164	0.29
780.339	-0.04
780.513	-0.11
780.688	-0.24
780.863	0.04
781.038	0.14
781.212	-0.13
781.387	0.06
781.562	0.3
781.737	-0.17
781.911	0.24
782.086	-0.19
782.261	0.12
782.435	0.28
782.61	-0.03
782.784	0.12
782.959	0.3
783.134	-0.05
783.308	-0.13
783.483	0.06
783.657	0.49
783.832	0.2
784.006	-0.05
784.181	0.13
784.355	0.05
784.53	-0.18
784.704	-0.1
784.878	0.24
785.053	0.03
785.227	0.11
785.402	0.41
785.576	-0.1
785.75	-0
785.925	0.17
786.099	-0.03
786.273	0.3
786.448	0.11
786.622	0.16
786.796	0.08
786.97	-0.35
787.145	0.41
787.319	-0.26
787.493	-0.01
787.667	-0.26
787.841	0.05
788.015	0.16
788.19	-0.05
788.364	-0.05
788.538	0.19
788.712	0.26
788.886	-0.12
789.06	-0.02
789.234	0.22
789.408	-0.19
789.582	-0
789.756	-0.05
789.93	-0.2
790.104	-0
790.278	-0.3
790.452	-0.16
790.626	0.14
790.8	-0.01
790.973	0.08
791.147	0.22
791.321	0.01
791.495	0.06
791.669	-0.06
791.843	0.14
792.016	0.21
792.19	0.35
792.364	-0.13
792.538	0.54
792.711	0.34
792.885	-0.08
793.059	-0.29
793.233	-0.59
793.406	0.27
793.58	0.07
793.754	-0.11
793.927	-0.08
794.101	0.31
794.274	-0.04
794.448	0.15
794.622	-0.2
794.795	0.38
794.969	-0.24
795.142	0.42
795.316	-0.09
795.489	-0.21
795.663	0.46
795.836	0.11
796.009	-0.14
796.183	0.49
796.356	0.19
796.53	0.11
796.703	0.04
796.876	0.57
797.05	0.01
797.223	0.14
797.396	0.11
797.57	0.04
797.743	0.28
797.916	0.14
798.09	-0.14
798.263	0.41
798.436	0.14
798.609	0.2
798.782	-0.19
798.956	0.07
799.129	0.12
799.302	0.14
799.475	-0.17
799.648	-0.14
799.821	-0.21
799.994	0.22
800.167	-0.31
800.34	-0.11
800.514	-0.13
800.687	-0.28
800.86	-0.3
801.033	0.17
801.206	0.2
801.379	-0.15
801.551	0.5
801.724	0.17
801.897	0.33
802.07	0.05
802.243	-0.41
802.416	0.16
802.589	-0.07
802.762	0.24
802.935	-0.06
803.107	0.49
803.28	0.25
803.453	0.21
803.626	0.31
803.798	-0.05
803.971	-0.02
804.144	0.21
804.317	0.21
804.489	0.52
804.662	-0
804.835	-0.09
805.007	-0.05
805.18	0.71
805.353	0.35
805.525	-0.08
805.698	-0.24
805.87	0.18
806.043	0.25
806.215	-0.24
806.388	-0.31
806.56	0.02
806.733	0.2
806.905	-0
807.078	-0.4
807.25	-0.16
807.423	0.15
807.595	0.04
807.768	-0.12
807.94	0.18
808.112	0.18
808.285	0.07
808.457	-0.12
808.629	-0.1
808.802	0.47
808.974	-0.03
809.146	-0.38
809.318	-0.57
809.491	0.04
809.663	0.04
809.835	-0.11
810.007	0.01
810.18	0.08
810.352	-0.3
810.524	-0.18
810.696	0.08
810.868	0.61
811.04	-0.08
811.212	0.11
811.384	0.24
811.556	0.22
811.728	-0.25
811.901	0.51
812.073	0.32
812.245	0.18
812.417	0.19
812.589	-0.51
812.76	-0.43
812.932	0.39
813.104	0.18
813.276	0.06
813.448	0.76
813.62	0.19
813.792	0.33
813.964	-0.1
814.136	0.22
814.307	-0.32
814.479	-0.3
814.651	-0.06
814.823	0.75
814.995	-0.02
815.166	0.23
815.338	-0.33
815.51	-0.19
815.681	0.8
815.853	-0.12
816.025	-0.23
816.196	0.45
816.368	0.53
816.54	-0.63
816.711	0.02
816.883	0.05
817.054	1.1
817.226	-0.44
817.398	0.25
817.569	-0.15
817.741	0.09
817.912	0.23
818.084	-0.2
818.255	0.18
818.426	0.01
818.598	-0.05
818.769	-0.39
818.941	0.63
819.112	0.61
819.283	0.18
819.455	-0.33
819.626	-0.03
819.798	0.14
819.969	-0.15
820.14	0.06
820.311	-0.16
820.483	0.07
820.654	0.21
820.825	0.14
820.996	-0.03
821.168	-0.39
821.339	-0.08
821.51	-0.43
821.681	1.23
821.852	-0.23
822.023	-0.41
822.195	-0.5
822.366	0.72
822.537	0.16
822.708	0.43
822.879	-0.33
823.05	0.34
823.221	0.15
823.392	0.19
823.563	-0.01
823.734	0.37
823.905	-0.36
824.076	-0.19
824.247	-0.23
824.418	-0.73
824.589	0.51
824.759	0.26
824.93	0.16
825.101	0.33
825.272	0.47
825.443	0.35
825.614	0.4
825.784	-0.71
825.955	1.03
826.126	0.83
826.297	0.14
826.467	1.05
826.638	1.08
826.809	-1.25
826.98	0.11
827.15	-0.05
827.321	-0.42
827.492	0.59
827.662	-0.08
827.833	1.04
828.003	0.18
828.174	-0.34
828.345	-0.4
828.515	0.71
828.686	0.54
828.856	-0.55
829.027	0.5
829.197	0.22
829.368	0.36
829.538	-0.45
829.709	-0.22
829.879	0.51
830.049	-0.39
830.22	0.02
830.39	0.19
830.56	0.48
830.731	-0
830.901	-0.04
831.072	-0.27
831.242	0.79
831.412	0.33
831.582	0.17
831.753	-0.81
831.923	0.51
832.093	-0.38
832.263	0.04
832.434	-0.3
832.604	-0.3
832.774	0.22
832.944	-0
833.114	-0.88
833.284	0.91
833.454	-0.54
833.624	-0.32
833.795	0.06
833.965	1.18
834.135	0.57
834.305	-0.74
834.475	-0.79
834.645	0.14
834.815	-0.92
834.985	-0.42
835.155	-0.22
835.325	0.8
835.494	0.43
835.664	0.1
835.834	-0.49
836.004	0.16
836.174	0.27
836.344	0.29
836.514	-0.6
836.684	-0.18
836.853	0.39
837.023	-0.18
837.193	-0.88
837.363	0.9
837.532	0.8
837.702	-0.01
837.872	-0.29
838.041	1.43
838.211	1.45
838.381	-1.02
838.55	0.03
838.72	1.72
838.89	1.04
839.059	-0.27
839.229	-0.51
839.398	1.18
839.568	0.14
839.738	-0.2
839.907	0.93
840.077	0.36
840.246	-0.15
840.416	-0.24
840.585	-0.88
840.755	1.33
840.924	0.86
841.093	-0.31
841.263	0.25
841.432	0.21
841.602	-0.05
841.771	-0.58
841.94	-0.25
842.11	2.16
842.279	1.07
842.448	-0.05
842.617	-0.15
842.787	1.24
842.956	-0.39
843.125	-0.33
843.294	0.87
843.464	1.57
843.633	0.14
843.802	-0.79
843.971	0.11
844.14	1.22
844.309	1.16
844.479	-1.68
844.648	-0.42
844.817	0.36
844.986	0.64
845.155	-0.26
845.324	-0.4
845.493	-0.33
845.662	-0.27
845.831	0.71
846	0.14
846.169	-0.07
846.338	0.8
846.507	-0.25
846.676	1.02
846.844	-1.03
847.013	0.65
847.182	0.34
847.351	-0.99
847.52	0.43
847.689	0.18
847.858	0.35
848.026	-0.38
848.195	0.17
848.364	-0.24
848.533	-0.75
848.701	-0.35
848.87	0.33
849.039	0.76
849.207	1.38
849.376	0.57
849.545	1.19
849.713	0.45
849.882	-0.75
850.051	0.77
850.219	0.53
850.388	0.6
850.556	-0.41
850.725	-0.97
850.893	0.26
851.062	0.07
851.23	0.19
851.399	-0.77
851.567	-1.39
851.736	0.37
851.904	0.3
852.073	-0.61
852.241	0.59
852.41	-0.34
852.578	-0.22
852.746	-0.29
852.915	0.78
853.083	0.14
853.251	-1.26
853.42	0.19
853.588	0.3
853.756	0.85
853.924	0.39
854.093	0.67
854.261	-0.76
854.429	0.02
854.597	0.93
854.765	0.29
854.934	-0.78
855.102	1.51
855.27	0.05
855.438	0.19
855.606	0.71
855.774	1.39
855.942	-1.64
856.11	-1.48
856.278	0.87
856.446	1.42
856.614	-0.22
856.782	-0.11
856.95	0.44
857.118	0.25
857.286	0.03
857.454	-1.3
857.622	0.57
857.79	1.14
857.958	-0.27
858.126	-0.89
858.294	-2.16
858.462	0.13
858.629	0.03
858.797	-1.15
858.965	1.29
859.133	-0
859.301	-0.13
859.468	0.4
859.636	-0.92
859.804	2.31
859.971	0.7
860.139	-1.55
860.307	0.92
860.474	0.35
860.642	-0.96
860.81	-0.43
860.977	0.09
861.145	0.45
861.313	-0.86
861.48	0.4
861.648	0.76
861.815	-0.19
861.983	-2.34
862.15	-1.57
862.318	0.24
862.485	1.04
862.653	-0.25
862.82	-1.04
862.988	1.49
863.155	0.45
863.322	-0.71
863.49	-1.87
863.657	1.03
863.824	0.69
863.992	0.16
864.159	0.07
864.326	1.84
864.494	-0.99
864.661	2.54
864.828	-2.95
864.996	1.65
865.163	3.23
865.33	-0.5
865.497	-1.17
865.664	0.31
865.832	-1.59
865.999	0.12
866.166	-1.15
866.333	-0.84
866.5	-1.08
866.667	0.75
866.834	-1.39
867.001	3.73
867.168	-1.67
867.335	0.83
867.502	-2.18
867.669	0.47
867.836	2.83
868.003	-1.29
868.17	0.92
868.337	-0.82
868.504	2.42
868.671	-1.18
868.838	-0.41
869.005	1.71
869.172	1.28
869.339	0.64
869.505	0.68
869.672	1.17
869.839	0.41
870.006	0.53
870.173	-2.33
870.339	0.44
870.506	2.22
870.673	-1.93
870.84	0.76
871.006	0.9
871.173	-0.08
871.34	-0.51
871.506	0.11
871.673	1.43
871.839	-2.39
872.006	1.08
872.173	-0.03
872.339	-0.5
872.506	1.59
872.672	-0
872.839	-1.73
873.005	-0.1
873.172	2.43
873.338	1.33
873.505	0.15
873.671	2.17
873.838	0.41
874.004	-1.57
874.171	-0.6
874.337	-0.21
874.503	2.34
874.67	-0.69
874.836	0.81
875.002	4.98
875.169	1.11
875.335	-0.16
875.501	-0.46
875.668	1.78
875.834	0.03
876	-0.32
876.166	1.46
876.332	2.22
876.499	4.18
876.665	-0.36
876.831	0.14
876.997	3.29
877.163	1.45
877.329	0.49
877.495	1.9
877.662	0.49
877.828	1.21
877.994	-0.15
878.16	-1.63
878.326	-0.87
878.492	0.13
878.658	0.55
878.824	0.44
878.99	0.15
879.156	-0.71
879.322	2.37
879.487	1.55
879.653	0.63
879.819	1.25
879.985	-2.19
880.151	1.01
880.317	0.48
880.483	1.46
880.648	3.02
880.814	-2.78
880.98	2.19
881.146	-2.85
881.312	-0.79
881.477	-0.1
881.643	0.26
881.809	0.28
881.974	1.15
882.14	-1.15
882.306	0.75
882.471	3.97
882.637	-0.92
882.803	1.31
882.968	1.92
883.134	3.68
883.299	0.34
883.465	-0.26
883.63	1.29
883.796	1.49
883.961	1.82
884.127	1.04
884.292	-2.97
884.458	-0.54
884.623	-0.54
