Data from Apollo_Calib_20240827__AbsoluteIrradiance__719__11-08-01-523.txt Node

Date: Wed Aug 28 11:08:01 BST 2024
User: biology
Spectrometer: FLMT08252
Trigger mode: 0
Integration Time (sec): 5.000000E-1
Scans to average: 5
Electric dark correction enabled: true
Nonlinearity correction enabled: false
Boxcar width: 0
XAxis mode: Wavelengths
Number of Pixels in Spectrum: 3648
>>>>>Begin Spectral Data<<<<<
179.588	-0
179.809	-0
180.03	-0
180.251	-0
180.473	-0
180.694	0
180.915	0
181.136	-0
181.357	0
181.578	-0
181.799	-0
182.02	-0
182.241	-0
182.462	-0
182.683	0
182.904	-0
183.125	0
183.346	0
183.567	0
183.788	0
184.009	-0
184.23	0
184.451	0
184.672	-0
184.892	-0
185.113	0
185.334	0
185.555	-0
185.776	-0
185.996	0
186.217	0
186.438	0
186.659	-0
186.879	0
187.1	0
187.321	-0
187.541	-0
187.762	0
187.983	0
188.203	0
188.424	0
188.644	0
188.865	-0
189.086	-0
189.306	0
189.527	0
189.747	0
189.968	-0
190.188	0
190.409	0
190.629	0
190.849	-0
191.07	-0
191.29	0
191.511	0
191.731	-0
191.951	-0
192.172	0
192.392	0
192.612	0
192.833	0
193.053	0
193.273	0
193.493	0
193.714	-0
193.934	0
194.154	0
194.374	0
194.594	0
194.815	0
195.035	0
195.255	0
195.475	0
195.695	0
195.915	0
196.135	-0
196.355	0
196.575	0
196.795	0
197.015	-0
197.235	-0
197.455	-0
197.675	0
197.895	-0
198.115	0
198.335	0
198.555	-0
198.775	0
198.995	0
199.214	0
199.434	0
199.654	-0
199.874	0
200.094	0.8
200.313	0.36
200.533	0.25
200.753	-0.14
200.973	1.51
201.192	0.46
201.412	-0.71
201.632	-0.04
201.851	1.18
202.071	0.09
202.291	-0.19
202.51	-0.01
202.73	0.5
202.95	0.02
203.169	-0.55
203.389	0.27
203.608	0.11
203.828	-0.19
204.047	0.05
204.267	0.41
204.486	0.6
204.706	0.66
204.925	0.3
205.145	-0.16
205.364	0.27
205.583	0.78
205.803	-0.11
206.022	-0.47
206.242	-0.09
206.461	0.2
206.68	0.21
206.9	0.18
207.119	0.65
207.338	0.46
207.557	-0.15
207.777	0.17
207.996	0.09
208.215	0.65
208.434	0.02
208.654	-0.61
208.873	0.48
209.092	0.56
209.311	0.17
209.53	-0.01
209.749	-0.01
209.968	-0.22
210.187	-0.05
210.407	-0.34
210.626	0.09
210.845	0.52
211.064	-0.14
211.283	-0.13
211.502	0.28
211.721	0.2
211.94	-0.06
212.159	0.16
212.377	0.48
212.596	0.39
212.815	0.02
213.034	0.05
213.253	0.63
213.472	0.32
213.691	-0.17
213.91	-0.06
214.128	-0.07
214.347	0.56
214.566	-0.19
214.785	-0.23
215.003	0.21
215.222	0.09
215.441	-0.01
215.66	-0.08
215.878	0.38
216.097	0.2
216.316	-0.13
216.534	-0.01
216.753	0.11
216.972	0.12
217.19	0.09
217.409	-0.1
217.627	-0.09
217.846	-0.11
218.064	-0.03
218.283	-0.14
218.501	0.57
218.72	0.35
218.938	-0.24
219.157	-0.02
219.375	0.2
219.594	0.22
219.812	-0.15
220.031	-0.15
220.249	0.41
220.467	0.39
220.686	0.05
220.904	-0.15
221.122	0.05
221.341	0.5
221.559	0.19
221.777	-0.05
221.995	0.14
222.214	0.11
222.432	0.06
222.65	0.27
222.868	0.15
223.086	0.19
223.305	0.16
223.523	0.07
223.741	0.46
223.959	-0.12
224.177	-0.08
224.395	0.04
224.613	0.22
224.831	0.17
225.049	-0.12
225.267	-0.02
225.485	0.15
225.703	0.06
225.921	0.1
226.139	-0.09
226.357	0.1
226.575	0.1
226.793	-0.07
227.011	0.61
227.229	0.26
227.447	0.21
227.665	0.01
227.883	-0.14
228.1	-0.01
228.318	0.14
228.536	-0.32
228.754	-0.05
228.972	0.17
229.189	0.17
229.407	-0.15
229.625	-0.13
229.843	0.22
230.06	0.05
230.278	-0.08
230.496	-0.03
230.713	0.2
230.931	0.26
231.149	0.03
231.366	-0.11
231.584	-0.02
231.801	0.43
232.019	0.03
232.236	-0.13
232.454	-0.05
232.671	0.16
232.889	0.13
233.106	-0.09
233.324	0.11
233.541	0.02
233.759	0.09
233.976	-0.08
234.194	0.07
234.411	-0.03
234.628	-0.07
234.846	0.04
235.063	0.1
235.28	0.07
235.498	0.13
235.715	-0.05
235.932	0.14
236.149	0.1
236.367	0.02
236.584	0.06
236.801	-0.03
237.018	0.12
237.236	0.13
237.453	-0.13
237.67	0.16
237.887	0.14
238.104	0.02
238.321	-0.11
238.538	-0.02
238.755	0.18
238.973	-0.19
239.19	0.09
239.407	0.04
239.624	0.09
239.841	-0.03
240.058	-0.05
240.275	0.04
240.492	0.02
240.709	0.08
240.925	-0.04
241.142	0.07
241.359	0.01
241.576	-0.02
241.793	0.01
242.01	-0.03
242.227	0.1
242.444	0.08
242.66	0.15
242.877	0.1
243.094	-0.03
243.311	0.07
243.527	0.04
243.744	0.02
243.961	0.12
244.178	0.02
244.394	0
244.611	0.18
244.828	0.17
245.044	-0.05
245.261	0.05
245.477	0.07
245.694	-0
245.911	-0.03
246.127	0.05
246.344	0.21
246.56	0.16
246.777	0.01
246.993	0.16
247.21	0.14
247.426	0.12
247.643	0.01
247.859	-0.06
248.076	0.02
248.292	0.17
248.508	0.03
248.725	0.14
248.941	0.03
249.157	0.13
249.374	-0.08
249.59	0.12
249.806	0.05
250.023	0.17
250.239	-0
250.455	-0
250.671	0.05
250.888	0.12
251.104	0.11
251.32	-0.01
251.536	0.11
251.752	0.06
251.969	0.08
252.185	0.06
252.401	0.16
252.617	0.07
252.833	0.04
253.049	0.01
253.265	0.1
253.481	0.1
253.697	-0.02
253.913	-0.09
254.129	0.05
254.345	0.05
254.561	-0.04
254.777	0
254.993	0.05
255.209	0.1
255.425	-0.01
255.641	-0
255.857	0.13
256.073	0.07
256.288	-0.05
256.504	0.03
256.72	0.05
256.936	0.18
257.152	0.03
257.367	0.01
257.583	0.02
257.799	0.16
258.015	-0.01
258.23	0
258.446	0.2
258.662	0.06
258.877	-0
259.093	-0.02
259.309	0.12
259.524	0.1
259.74	-0.03
259.955	-0.03
260.171	0.07
260.387	0.02
260.602	0.14
260.818	0.16
261.033	-0.01
261.249	0
261.464	0.03
261.68	-0.05
261.895	0.08
262.11	0.03
262.326	0.02
262.541	-0.06
262.757	0.04
262.972	0.13
263.187	0.02
263.403	0.03
263.618	0.05
263.833	0.06
264.049	0
264.264	0.05
264.479	0.03
264.694	0.16
264.91	-0.08
265.125	0.02
265.34	0.16
265.555	0.23
265.77	0.06
265.986	0
266.201	0.02
266.416	0.13
266.631	0.04
266.846	0.02
267.061	0.03
267.276	0.06
267.491	-0.08
267.706	0.09
267.921	0.01
268.136	0.06
268.351	0.08
268.566	-0.01
268.781	0.07
268.996	0.11
269.211	0.06
269.426	-0.01
269.641	-0.02
269.856	0.15
270.071	0.01
270.285	-0.03
270.5	0.14
270.715	0.09
270.93	0.02
271.145	0.11
271.359	0.09
271.574	-0
271.789	0.03
272.004	-0.03
272.218	0.06
272.433	0.05
272.648	-0.01
272.862	0.13
273.077	0.07
273.292	0.07
273.506	0.04
273.721	0.06
273.936	0.12
274.15	0.15
274.365	0.07
274.579	0.08
274.794	0.1
275.008	0.11
275.223	0.01
275.437	0.05
275.652	0.1
275.866	0.07
276.081	0.03
276.295	0.06
276.509	0.03
276.724	0.04
276.938	0.05
277.153	0.07
277.367	0.09
277.581	0
277.796	0.02
278.01	-0.02
278.224	0.12
278.438	0.18
278.653	-0.02
278.867	-0.06
279.081	-0.11
279.295	0.05
279.51	0.06
279.724	-0.03
279.938	0.06
280.152	0.03
280.366	0
280.58	0.01
280.794	0.11
281.008	0.06
281.222	0.13
281.437	0.14
281.651	0.06
281.865	0.11
282.079	0.06
282.293	-0.06
282.507	-0.02
282.721	0.02
282.935	0.02
283.148	-0.08
283.362	0.04
283.576	-0.01
283.79	0.02
284.004	0.02
284.218	0.06
284.432	0
284.646	0.05
284.859	0.04
285.073	-0.04
285.287	0.07
285.501	0.02
285.714	0.03
285.928	0.1
286.142	0.04
286.356	0
286.569	0.04
286.783	0.1
286.997	0.05
287.21	0.03
287.424	0.11
287.637	-0.06
287.851	0
288.065	0.06
288.278	0.02
288.492	0.03
288.705	-0.02
288.919	0.07
289.132	-0.05
289.346	0.11
289.559	-0.02
289.773	-0.06
289.986	0.01
290.2	0.03
290.413	0.1
290.626	-0.01
290.84	0.04
291.053	0.05
291.267	0.13
291.48	0.05
291.693	0.05
291.906	0.03
292.12	0.03
292.333	-0.03
292.546	0.06
292.76	0.11
292.973	0.05
293.186	0.07
293.399	-0.03
293.612	0.09
293.826	0.04
294.039	-0
294.252	0.03
294.465	0.05
294.678	0.03
294.891	0.07
295.104	0.01
295.317	0.03
295.53	0.02
295.743	0.04
295.956	0.02
296.169	0.1
296.382	0.09
296.595	0.01
296.808	-0.02
297.021	0.11
297.234	0.06
297.447	0.03
297.66	0.07
297.873	0.09
298.086	0.02
298.299	0.02
298.511	-0.01
298.724	0.04
298.937	0.03
299.15	-0.01
299.363	0.02
299.575	0.06
299.788	0.06
300.001	0.01
300.213	0.03
300.426	0.03
300.639	-0.01
300.852	0.06
301.064	0.09
301.277	0.1
301.489	0.08
301.702	0.1
301.915	0.02
302.127	0.05
302.34	0.05
302.552	0.06
302.765	0.04
302.977	0.04
303.19	0.03
303.402	0.03
303.615	0.03
303.827	0.03
304.04	0.03
304.252	0.09
304.464	0.01
304.677	0.18
304.889	0.09
305.102	-0.02
305.314	-0.01
305.526	0.06
305.739	0.08
305.951	-0.02
306.163	0.01
306.375	0.1
306.588	-0.04
306.8	0.04
307.012	0.02
307.224	0.02
307.436	0.08
307.649	0
307.861	0.04
308.073	0.1
308.285	0.02
308.497	0.01
308.709	-0.02
308.921	0.04
309.133	0.1
309.346	0.03
309.558	0.01
309.77	0.08
309.982	0.08
310.194	0.07
310.406	0.01
310.617	0.1
310.829	0.02
311.041	0.06
311.253	0.02
311.465	0.01
311.677	0.06
311.889	0.05
312.101	-0.02
312.313	0.07
312.524	0.08
312.736	-0.04
312.948	-0.01
313.16	0.11
313.372	0.06
313.583	0.07
313.795	0.03
314.007	-0.01
314.218	0.06
314.43	0.07
314.642	0
314.853	0.06
315.065	0.05
315.277	0.04
315.488	0.07
315.7	0.07
315.912	0.05
316.123	0.03
316.335	0.02
316.546	0.13
316.758	-0.01
316.969	0
317.181	0.04
317.392	0.03
317.604	0.09
317.815	0.02
318.026	0.02
318.238	-0
318.449	0.08
318.661	-0.03
318.872	-0.01
319.083	0.01
319.295	0.09
319.506	-0.02
319.717	0.05
319.929	0.06
320.14	0.06
320.351	0.09
320.562	0.02
320.774	0.03
320.985	0.06
321.196	-0.01
321.407	-0.02
321.618	0.03
321.829	0.06
322.041	0.05
322.252	0.04
322.463	0.03
322.674	0.05
322.885	-0
323.096	-0.01
323.307	0.02
323.518	0.05
323.729	-0
323.94	-0.02
324.151	0.03
324.362	0.08
324.573	0.06
324.784	-0.01
324.995	0.08
325.206	0.06
325.417	0.01
325.628	0.03
325.838	0.04
326.049	0.05
326.26	0.04
326.471	0.01
326.682	0.12
326.892	0.07
327.103	-0.02
327.314	-0.01
327.525	0.07
327.735	0.01
327.946	0.01
328.157	0.03
328.368	0.06
328.578	0.05
328.789	0.07
328.999	0.04
329.21	-0
329.421	0.01
329.631	0.03
329.842	0.03
330.052	0.06
330.263	0.05
330.473	0.06
330.684	0.01
330.894	0.02
331.105	0.01
331.315	0.03
331.526	-0.06
331.736	0.13
331.947	0.04
332.157	0.05
332.367	-0.04
332.578	0.07
332.788	0.09
332.999	0.1
333.209	0.03
333.419	-0.01
333.629	0.03
333.84	0.08
334.05	0.03
334.26	0.11
334.47	0.07
334.681	0.11
334.891	0.01
335.101	0.1
335.311	0.12
335.521	0.05
335.732	-0
335.942	0.06
336.152	0.05
336.362	0.05
336.572	0.03
336.782	0.1
336.992	0.04
337.202	0.05
337.412	-0.02
337.622	0.03
337.832	0.02
338.042	0.05
338.252	0.02
338.462	-0.01
338.672	0.02
338.882	0.01
339.092	0.04
339.302	0.12
339.511	0.07
339.721	-0
339.931	-0.04
340.141	0.07
340.351	0.09
340.561	0.06
340.77	0.07
340.98	0.05
341.19	0.06
341.4	0.02
341.609	-0.04
341.819	0.03
342.029	-0.01
342.238	0.07
342.448	0.04
342.658	0.07
342.867	0.05
343.077	0.05
343.286	0.04
343.496	0.06
343.706	0.1
343.915	-0.02
344.125	0.05
344.334	0.05
344.544	-0
344.753	-0.03
344.963	0.06
345.172	0.01
345.381	0.03
345.591	0.01
345.8	0.02
346.01	0.09
346.219	0.13
346.428	-0.13
346.638	-0.04
346.847	0.01
347.056	0.1
347.266	0.03
347.475	0.03
347.684	0.05
347.893	0.02
348.103	0.02
348.312	0.01
348.521	0
348.73	0.06
348.94	0.04
349.149	0.04
349.358	0.04
349.567	0.02
349.776	0.02
349.985	0.04
350.194	0.06
350.403	0.1
350.612	-0.01
350.821	0.04
351.03	0.05
351.239	-0.01
351.448	0.04
351.657	-0.03
351.866	0.12
352.075	0.06
352.284	0.08
352.493	-0.01
352.702	0.08
352.911	0.02
353.12	0.02
353.329	0.02
353.538	0.04
353.746	0.07
353.955	0.02
354.164	0.04
354.373	0.03
354.582	0.12
354.79	0.07
354.999	0.05
355.208	0.06
355.416	0.1
355.625	0.01
355.834	-0.03
356.042	0.06
356.251	0.03
356.46	-0.01
356.668	0.09
356.877	0.11
357.085	0.07
357.294	-0.05
357.503	0.06
357.711	0.02
357.92	0.15
358.128	0.06
358.337	0
358.545	0.03
358.754	0.01
358.962	0.04
359.17	-0.02
359.379	0.05
359.587	0.07
359.796	0.04
360.004	0.11
360.212	0.07
360.421	0.1
360.629	0.02
360.837	0.03
361.046	0.07
361.254	0.15
361.462	0.02
361.67	0.01
361.879	0.1
362.087	0.13
362.295	0.04
362.503	0.05
362.711	-0.04
362.92	0.01
363.128	-0.02
363.336	0
363.544	-0.01
363.752	0.03
363.96	-0.02
364.168	0
364.376	0.04
364.584	0.04
364.792	0.06
365	0.04
365.208	0.04
365.416	0.08
365.624	0.08
365.832	0.02
366.04	0.09
366.248	0.04
366.456	0.07
366.664	0.03
366.872	0.05
367.079	0.04
367.287	0.01
367.495	0.04
367.703	0.07
367.911	0.04
368.118	0.04
368.326	-0
368.534	-0.02
368.742	0.05
368.949	0
369.157	-0.03
369.365	0.08
369.572	0.09
369.78	0.01
369.988	0.08
370.195	0.05
370.403	0.1
370.61	-0
370.818	0.05
371.026	0.07
371.233	0.03
371.441	0.07
371.648	0.02
371.856	0.03
372.063	0.03
372.271	0.01
372.478	0.04
372.685	0.03
372.893	0.08
373.1	0.03
373.308	0.04
373.515	0.11
373.722	0.03
373.93	0.01
374.137	0.11
374.344	0.11
374.552	0.08
374.759	0.08
374.966	0.04
375.173	-0
375.381	0.08
375.588	0.03
375.795	-0.02
376.002	0.03
376.209	0.03
376.417	0.02
376.624	0.06
376.831	0.1
377.038	0.03
377.245	-0.02
377.452	-0.02
377.659	0.02
377.866	-0.03
378.073	0.03
378.28	0.02
378.487	0.03
378.694	0.08
378.901	0.02
379.108	0.02
379.315	0.07
379.522	0.13
379.729	0.03
379.936	0.03
380.143	0.07
380.35	0.05
380.557	0.05
380.763	0.03
380.97	0.02
381.177	0.05
381.384	0.06
381.591	0.01
381.797	0.04
382.004	0.04
382.211	0.07
382.418	-0.07
382.624	0.03
382.831	0.07
383.038	0.03
383.244	0.09
383.451	0.02
383.658	0.08
383.864	0.05
384.071	0
384.277	0.08
384.484	0.01
384.69	0.07
384.897	0.04
385.103	0.04
385.31	-0.01
385.516	0.01
385.723	0
385.929	0.03
386.136	0
386.342	0.04
386.549	0.02
386.755	0.04
386.961	0.06
387.168	0.05
387.374	0.04
387.58	0.08
387.787	0.07
387.993	0.06
388.199	0.07
388.406	-0.01
388.612	0.06
388.818	0.05
389.024	0.06
389.231	0.04
389.437	0.11
389.643	0.03
389.849	0.02
390.055	0.04
390.261	0.03
390.467	0.07
390.674	-0.01
390.88	0.03
391.086	0.1
391.292	0.01
391.498	0.06
391.704	0.01
391.91	0.05
392.116	0.03
392.322	-0.01
392.528	0.05
392.734	0.05
392.94	0
393.146	0.02
393.352	0.03
393.557	0.02
393.763	0.01
393.969	0.06
394.175	0.04
394.381	0.08
394.587	-0.03
394.792	0.05
394.998	0.06
395.204	0.1
395.41	0.01
395.615	0.03
395.821	0.07
396.027	0.07
396.233	0.01
396.438	0.06
396.644	0.04
396.85	0.07
397.055	0.07
397.261	0.03
397.466	0.11
397.672	0.05
397.878	0.08
398.083	0.1
398.289	0.04
398.494	0.09
398.7	0.07
398.905	-0.04
399.111	0.12
399.316	0.03
399.522	0.04
399.727	0.05
399.932	0
400.138	-0.01
400.343	0.08
400.549	0.04
400.754	0.06
400.959	0.05
401.165	0.02
401.37	0.09
401.575	0.1
401.78	0.02
401.986	0.01
402.191	0.03
402.396	0.06
402.601	0.1
402.807	0.05
403.012	0.04
403.217	0.07
403.422	0.07
403.627	0.05
403.832	0.05
404.037	0.05
404.243	0.06
404.448	-0
404.653	0.04
404.858	0.09
405.063	0.09
405.268	0.03
405.473	0.03
405.678	0.03
405.883	0.2
406.088	0.07
406.293	0.07
406.498	-0
406.703	0.13
406.907	0.02
407.112	0
407.317	0.09
407.522	0.13
407.727	0
407.932	0.08
408.136	0.17
408.341	0.08
408.546	0.07
408.751	0.08
408.956	0.04
409.16	0.12
409.365	0.04
409.57	0.06
409.774	0.09
409.979	0.11
410.184	0.1
410.388	0.01
410.593	0.13
410.798	0.11
411.002	0.07
411.207	0.08
411.411	0.11
411.616	0.05
411.82	0.09
412.025	0.14
412.229	0.1
412.434	0.2
412.638	0.13
412.843	0.11
413.047	0.12
413.252	0.1
413.456	0.12
413.66	0.11
413.865	0.1
414.069	0.18
414.273	0.08
414.478	0.12
414.682	0.09
414.886	0.13
415.091	0.09
415.295	0.08
415.499	0.18
415.703	0.15
415.908	0.19
416.112	0.1
416.316	0.18
416.52	0.15
416.724	0.15
416.929	0.17
417.133	0.33
417.337	0.2
417.541	0.17
417.745	0.26
417.949	0.26
418.153	0.26
418.357	0.19
418.561	0.36
418.765	0.26
418.969	0.37
419.173	0.32
419.377	0.25
419.581	0.38
419.785	0.32
419.989	0.28
420.193	0.31
420.397	0.36
420.601	0.43
420.804	0.41
421.008	0.37
421.212	0.38
421.416	0.42
421.62	0.37
421.823	0.44
422.027	0.51
422.231	0.49
422.435	0.44
422.638	0.49
422.842	0.44
423.046	0.42
423.249	0.52
423.453	0.52
423.657	0.54
423.86	0.5
424.064	0.53
424.268	0.65
424.471	0.58
424.675	0.7
424.878	0.63
425.082	0.63
425.285	0.73
425.489	0.64
425.692	0.64
425.896	0.67
426.099	0.76
426.303	0.68
426.506	0.69
426.71	0.8
426.913	0.81
427.116	0.87
427.32	0.83
427.523	0.77
427.726	0.92
427.93	0.83
428.133	0.89
428.336	0.86
428.54	0.92
428.743	0.97
428.946	1.01
429.149	0.9
429.353	1.02
429.556	1.02
429.759	1
429.962	0.99
430.165	1.05
430.368	1.03
430.571	0.95
430.775	0.99
430.978	0.96
431.181	1.07
431.384	1.06
431.587	1.03
431.79	1.1
431.993	1
432.196	1.09
432.399	1.14
432.602	1.23
432.805	1.14
433.008	1.2
433.211	1.15
433.414	1.28
433.616	1.3
433.819	1.25
434.022	1.2
434.225	1.37
434.428	1.39
434.631	1.55
434.833	1.35
435.036	1.41
435.239	1.48
435.442	1.43
435.645	1.4
435.847	1.44
436.05	1.57
436.253	1.55
436.455	1.54
436.658	1.53
436.861	1.68
437.063	1.58
437.266	1.55
437.468	1.7
437.671	1.78
437.874	1.69
438.076	1.62
438.279	1.75
438.481	1.76
438.684	1.83
438.886	1.88
439.089	1.82
439.291	1.86
439.494	1.93
439.696	2
439.899	2.06
440.101	2.15
440.303	2.06
440.506	2.22
440.708	2.25
440.91	2.27
441.113	2.29
441.315	2.35
441.517	2.24
441.72	2.4
441.922	2.36
442.124	2.27
442.326	2.5
442.529	2.52
442.731	2.5
442.933	2.64
443.135	2.53
443.337	2.49
443.539	2.61
443.742	2.61
443.944	2.74
444.146	2.62
444.348	2.74
444.55	2.65
444.752	2.75
444.954	2.73
445.156	2.79
445.358	2.78
445.56	2.98
445.762	2.79
445.964	2.97
446.166	2.83
446.368	2.9
446.57	2.98
446.772	2.94
446.974	2.78
447.175	2.88
447.377	2.82
447.579	2.85
447.781	2.75
447.983	2.86
448.184	2.8
448.386	2.73
448.588	2.66
448.79	2.75
448.991	2.86
449.193	2.75
449.395	2.65
449.597	2.68
449.798	2.64
450	2.56
450.202	2.49
450.403	2.59
450.605	2.55
450.806	2.43
451.008	2.38
451.21	2.39
451.411	2.37
451.613	2.2
451.814	2.24
452.016	2.25
452.217	2.09
452.419	2.14
452.62	2.07
452.821	2.07
453.023	2.04
453.224	1.96
453.426	1.82
453.627	1.73
453.828	1.82
454.03	1.72
454.231	1.74
454.432	1.68
454.634	1.75
454.835	1.6
455.036	1.6
455.238	1.59
455.439	1.55
455.64	1.45
455.841	1.35
456.042	1.53
456.244	1.43
456.445	1.3
456.646	1.24
456.847	1.28
457.048	1.27
457.249	1.28
457.45	1.43
457.651	1.11
457.852	1.14
458.054	1.01
458.255	1.01
458.456	1.1
458.657	1.05
458.858	1.01
459.058	0.96
459.259	1.02
459.46	0.88
459.661	0.92
459.862	1.05
460.063	0.93
460.264	0.9
460.465	0.85
460.666	0.96
460.866	0.81
461.067	0.78
461.268	0.75
461.469	0.79
461.67	0.8
461.87	0.71
462.071	0.72
462.272	0.69
462.473	0.7
462.673	0.81
462.874	0.65
463.075	0.75
463.275	0.68
463.476	0.72
463.676	0.82
463.877	0.74
464.078	0.68
464.278	0.69
464.479	0.66
464.679	0.66
464.88	0.62
465.08	0.75
465.281	0.6
465.481	0.63
465.682	0.62
465.882	0.61
466.083	0.61
466.283	0.58
466.483	0.54
466.684	0.48
466.884	0.48
467.085	0.52
467.285	0.56
467.485	0.46
467.686	0.46
467.886	0.42
468.086	0.46
468.286	0.52
468.487	0.51
468.687	0.39
468.887	0.43
469.087	0.48
469.287	0.46
469.488	0.34
469.688	0.47
469.888	0.45
470.088	0.47
470.288	0.44
470.488	0.45
470.688	0.39
470.888	0.39
471.088	0.33
471.288	0.41
471.488	0.43
471.688	0.41
471.888	0.34
472.088	0.47
472.288	0.39
472.488	0.34
472.688	0.32
472.888	0.37
473.088	0.33
473.288	0.33
473.488	0.28
473.688	0.41
473.887	0.34
474.087	0.31
474.287	0.34
474.487	0.34
474.687	0.35
474.886	0.32
475.086	0.32
475.286	0.31
475.486	0.3
475.685	0.27
475.885	0.29
476.085	0.31
476.284	0.32
476.484	0.32
476.684	0.31
476.883	0.35
477.083	0.29
477.282	0.24
477.482	0.32
477.681	0.31
477.881	0.3
478.08	0.24
478.28	0.25
478.479	0.32
478.679	0.34
478.878	0.25
479.078	0.26
479.277	0.29
479.477	0.29
479.676	0.32
479.875	0.29
480.075	0.21
480.274	0.29
480.473	0.34
480.673	0.25
480.872	0.32
481.071	0.31
481.271	0.29
481.47	0.24
481.669	0.25
481.868	0.25
482.067	0.25
482.267	0.27
482.466	0.23
482.665	0.25
482.864	0.23
483.063	0.23
483.262	0.3
483.461	0.31
483.661	0.3
483.86	0.28
484.059	0.27
484.258	0.29
484.457	0.27
484.656	0.31
484.855	0.32
485.054	0.24
485.253	0.23
485.452	0.23
485.651	0.26
485.849	0.26
486.048	0.26
486.247	0.25
486.446	0.28
486.645	0.23
486.844	0.27
487.043	0.26
487.241	0.3
487.44	0.24
487.639	0.28
487.838	0.31
488.037	0.3
488.235	0.35
488.434	0.31
488.633	0.25
488.831	0.32
489.03	0.34
489.229	0.31
489.427	0.3
489.626	0.37
489.825	0.36
490.023	0.31
490.222	0.32
490.42	0.34
490.619	0.34
490.817	0.33
491.016	0.32
491.214	0.36
491.413	0.33
491.611	0.34
491.81	0.34
492.008	0.37
492.207	0.35
492.405	0.35
492.604	0.3
492.802	0.35
493	0.36
493.199	0.38
493.397	0.38
493.595	0.37
493.794	0.34
493.992	0.43
494.19	0.39
494.388	0.41
494.587	0.38
494.785	0.41
494.983	0.35
495.181	0.42
495.379	0.4
495.578	0.43
495.776	0.43
495.974	0.44
496.172	0.43
496.37	0.44
496.568	0.46
496.766	0.42
496.964	0.49
497.162	0.47
497.36	0.44
497.558	0.48
497.756	0.5
497.954	0.49
498.152	0.46
498.35	0.52
498.548	0.49
498.746	0.48
498.944	0.48
499.142	0.48
499.34	0.52
499.538	0.54
499.736	0.48
499.933	0.56
500.131	0.57
500.329	0.56
500.527	0.59
500.725	0.62
500.922	0.58
501.12	0.58
501.318	0.6
501.516	0.57
501.713	0.64
501.911	0.59
502.109	0.56
502.306	0.61
502.504	0.59
502.701	0.61
502.899	0.63
503.097	0.72
503.294	0.65
503.492	0.65
503.689	0.63
503.887	0.67
504.084	0.73
504.282	0.69
504.479	0.64
504.677	0.7
504.874	0.68
505.072	0.68
505.269	0.7
505.466	0.73
505.664	0.75
505.861	0.69
506.059	0.68
506.256	0.76
506.453	0.74
506.651	0.79
506.848	0.76
507.045	0.77
507.242	0.76
507.44	0.79
507.637	0.78
507.834	0.76
508.031	0.81
508.229	0.76
508.426	0.82
508.623	0.82
508.82	0.81
509.017	0.78
509.214	0.79
509.411	0.83
509.608	0.8
509.805	0.82
510.003	0.83
510.2	0.86
510.397	0.91
510.594	0.83
510.791	0.86
510.988	0.89
511.184	0.9
511.381	0.86
511.578	0.89
511.775	0.93
511.972	0.89
512.169	0.93
512.366	0.9
512.563	0.94
512.76	0.91
512.956	0.95
513.153	0.92
513.35	0.92
513.547	0.89
513.744	0.94
513.94	0.91
514.137	0.95
514.334	0.92
514.53	0.94
514.727	1.01
514.924	1.03
515.12	0.98
515.317	0.96
515.514	0.97
515.71	0.96
515.907	1.01
516.103	1.01
516.3	1.01
516.497	1.03
516.693	1.02
516.89	1.04
517.086	0.97
517.283	1.05
517.479	1.03
517.676	1.03
517.872	1.06
518.068	1.05
518.265	1.03
518.461	1.03
518.658	1.03
518.854	1.08
519.05	1.03
519.247	1.05
519.443	1.05
519.639	1.1
519.836	1.06
520.032	1.06
520.228	1.1
520.424	1.12
520.621	1.12
520.817	1.11
521.013	1.1
521.209	1.13
521.405	1.15
521.601	1.12
521.798	1.11
521.994	1.14
522.19	1.09
522.386	1.09
522.582	1.12
522.778	1.14
522.974	1.1
523.17	1.13
523.366	1.13
523.562	1.18
523.758	1.14
523.954	1.08
524.15	1.12
524.346	1.16
524.542	1.13
524.738	1.12
524.934	1.16
525.129	1.16
525.325	1.12
525.521	1.15
525.717	1.22
525.913	1.17
526.109	1.14
526.304	1.2
526.5	1.2
526.696	1.23
526.892	1.17
527.087	1.21
527.283	1.13
527.479	1.18
527.674	1.14
527.87	1.18
528.066	1.16
528.261	1.22
528.457	1.18
528.653	1.2
528.848	1.19
529.044	1.21
529.239	1.18
529.435	1.2
529.63	1.18
529.826	1.24
530.021	1.21
530.217	1.18
530.412	1.18
530.608	1.17
530.803	1.17
530.999	1.17
531.194	1.17
531.389	1.21
531.585	1.16
531.78	1.25
531.975	1.23
532.171	1.23
532.366	1.18
532.561	1.25
532.757	1.2
532.952	1.24
533.147	1.22
533.342	1.23
533.538	1.18
533.733	1.27
533.928	1.19
534.123	1.24
534.318	1.19
534.513	1.2
534.709	1.24
534.904	1.23
535.099	1.25
535.294	1.25
535.489	1.23
535.684	1.24
535.879	1.2
536.074	1.25
536.269	1.25
536.464	1.25
536.659	1.22
536.854	1.26
537.049	1.25
537.244	1.25
537.439	1.22
537.634	1.25
537.828	1.26
538.023	1.23
538.218	1.21
538.413	1.2
538.608	1.23
538.803	1.24
538.997	1.17
539.192	1.28
539.387	1.24
539.582	1.25
539.776	1.23
539.971	1.24
540.166	1.25
540.36	1.22
540.555	1.27
540.75	1.27
540.944	1.25
541.139	1.24
541.334	1.26
541.528	1.25
541.723	1.26
541.917	1.22
542.112	1.19
542.306	1.23
542.501	1.21
542.695	1.27
542.89	1.23
543.084	1.25
543.279	1.23
543.473	1.25
543.668	1.25
543.862	1.25
544.056	1.23
544.251	1.25
544.445	1.3
544.64	1.28
544.834	1.19
545.028	1.21
545.222	1.25
545.417	1.31
545.611	1.26
545.805	1.26
546	1.2
546.194	1.26
546.388	1.24
546.582	1.27
546.776	1.25
546.97	1.26
547.165	1.25
547.359	1.26
547.553	1.21
547.747	1.23
547.941	1.28
548.135	1.24
548.329	1.28
548.523	1.28
548.717	1.25
548.911	1.25
549.105	1.25
549.299	1.28
549.493	1.28
549.687	1.3
549.881	1.25
550.075	1.25
550.269	1.22
550.463	1.28
550.657	1.23
550.85	1.23
551.044	1.24
551.238	1.29
551.432	1.21
551.626	1.25
551.82	1.27
552.013	1.23
552.207	1.26
552.401	1.27
552.594	1.24
552.788	1.28
552.982	1.23
553.176	1.26
553.369	1.3
553.563	1.29
553.756	1.24
553.95	1.24
554.144	1.3
554.337	1.3
554.531	1.23
554.724	1.27
554.918	1.27
555.111	1.26
555.305	1.27
555.498	1.27
555.692	1.29
555.885	1.22
556.079	1.26
556.272	1.23
556.466	1.28
556.659	1.24
556.852	1.27
557.046	1.24
557.239	1.24
557.432	1.24
557.626	1.25
557.819	1.29
558.012	1.3
558.206	1.3
558.399	1.25
558.592	1.28
558.785	1.25
558.979	1.25
559.172	1.26
559.365	1.29
559.558	1.25
559.751	1.26
559.944	1.32
560.138	1.25
560.331	1.24
560.524	1.28
560.717	1.26
560.91	1.27
561.103	1.3
561.296	1.26
561.489	1.28
561.682	1.29
561.875	1.27
562.068	1.29
562.261	1.21
562.454	1.29
562.647	1.25
562.84	1.3
563.032	1.25
563.225	1.24
563.418	1.24
563.611	1.26
563.804	1.27
563.997	1.24
564.19	1.18
564.382	1.29
564.575	1.26
564.768	1.26
564.961	1.28
565.153	1.25
565.346	1.27
565.539	1.29
565.731	1.31
565.924	1.32
566.117	1.31
566.309	1.27
566.502	1.23
566.695	1.24
566.887	1.28
567.08	1.24
567.272	1.24
567.465	1.27
567.657	1.25
567.85	1.25
568.042	1.28
568.235	1.3
568.427	1.25
568.62	1.24
568.812	1.28
569.005	1.26
569.197	1.18
569.389	1.27
569.582	1.23
569.774	1.25
569.966	1.24
570.159	1.22
570.351	1.25
570.543	1.25
570.736	1.25
570.928	1.2
571.12	1.27
571.312	1.23
571.505	1.18
571.697	1.26
571.889	1.22
572.081	1.22
572.273	1.2
572.465	1.26
572.658	1.23
572.85	1.24
573.042	1.24
573.234	1.24
573.426	1.27
573.618	1.23
573.81	1.24
574.002	1.26
574.194	1.26
574.386	1.2
574.578	1.15
574.77	1.19
574.962	1.21
575.154	1.22
575.346	1.24
575.538	1.21
575.729	1.18
575.921	1.23
576.113	1.25
576.305	1.26
576.497	1.24
576.689	1.2
576.88	1.2
577.072	1.26
577.264	1.21
577.456	1.21
577.647	1.16
577.839	1.24
578.031	1.26
578.223	1.21
578.414	1.15
578.606	1.25
578.798	1.22
578.989	1.25
579.181	1.23
579.372	1.24
579.564	1.2
579.755	1.23
579.947	1.2
580.139	1.24
580.33	1.15
580.522	1.19
580.713	1.15
580.905	1.23
581.096	1.2
581.287	1.2
581.479	1.17
581.67	1.19
581.862	1.21
582.053	1.18
582.244	1.14
582.436	1.22
582.627	1.17
582.818	1.17
583.01	1.16
583.201	1.2
583.392	1.17
583.583	1.2
583.775	1.14
583.966	1.17
584.157	1.15
584.348	1.19
584.54	1.12
584.731	1.22
584.922	1.16
585.113	1.12
585.304	1.18
585.495	1.17
585.686	1.19
585.877	1.2
586.068	1.18
586.259	1.16
586.45	1.19
586.641	1.11
586.832	1.15
587.023	1.17
587.214	1.17
587.405	1.19
587.596	1.12
587.787	1.19
587.978	1.16
588.169	1.12
588.36	1.09
588.551	1.13
588.742	1.14
588.932	1.17
589.123	1.12
589.314	1.19
589.505	1.12
589.696	1.15
589.886	1.11
590.077	1.13
590.268	1.13
590.458	1.1
590.649	1.08
590.84	1.17
591.03	1.09
591.221	1.14
591.412	1.09
591.602	1.18
591.793	1.13
591.984	1.09
592.174	1.13
592.365	1.21
592.555	1.08
592.746	1.13
592.936	1.11
593.127	1.14
593.317	1.17
593.508	1.07
593.698	1.08
593.889	1.12
594.079	1.08
594.269	1.08
594.46	1.1
594.65	1.11
594.84	1.09
595.031	1.05
595.221	1.04
595.411	1.04
595.602	1.11
595.792	1.07
595.982	1.05
596.172	1.11
596.363	1.1
596.553	1.08
596.743	1.04
596.933	1.05
597.123	1.05
597.314	1.04
597.504	1.06
597.694	1.08
597.884	1.05
598.074	1.04
598.264	1.06
598.454	1.02
598.644	1.06
598.834	1.06
599.024	0.98
599.214	1.02
599.404	1.11
599.594	1.01
599.784	1.02
599.974	1.07
600.164	1.03
600.354	1.01
600.544	0.97
600.734	1.05
600.924	1.06
601.114	1.01
601.303	1.04
601.493	1.04
601.683	1
601.873	1.03
602.063	0.96
602.252	1.05
602.442	0.93
602.632	0.96
602.821	0.91
603.011	1.01
603.201	0.97
603.39	0.96
603.58	0.96
603.77	1
603.959	1.04
604.149	0.99
604.339	0.99
604.528	1.01
604.718	0.99
604.907	0.94
605.097	0.95
605.286	0.96
605.476	0.98
605.665	1
605.855	0.91
606.044	1.01
606.234	0.94
606.423	0.94
606.612	0.92
606.802	0.94
606.991	0.97
607.181	0.98
607.37	0.92
607.559	0.86
607.749	0.87
607.938	0.95
608.127	0.91
608.316	0.93
608.506	0.91
608.695	0.94
608.884	0.87
609.073	0.91
609.263	0.96
609.452	0.99
609.641	0.91
609.83	0.86
610.019	0.91
610.208	0.85
610.397	0.91
610.586	0.96
610.775	0.89
610.965	0.9
611.154	0.84
611.343	0.89
611.532	0.89
611.721	0.86
611.91	0.86
612.099	0.86
612.287	0.84
612.476	0.82
612.665	0.9
612.854	0.8
613.043	0.89
613.232	0.85
613.421	0.79
613.61	0.85
613.798	0.82
613.987	0.89
614.176	0.84
614.365	0.85
614.554	0.88
614.742	0.87
614.931	0.79
615.12	0.86
615.309	0.83
615.497	0.82
615.686	0.78
615.875	0.82
616.063	0.83
616.252	0.8
616.44	0.81
616.629	0.83
616.818	0.82
617.006	0.81
617.195	0.81
617.383	0.79
617.572	0.76
617.76	0.76
617.949	0.79
618.137	0.81
618.326	0.81
618.514	0.73
618.703	0.74
618.891	0.83
619.079	0.74
619.268	0.82
619.456	0.72
619.644	0.78
619.833	0.71
620.021	0.72
620.209	0.7
620.398	0.74
620.586	0.74
620.774	0.75
620.962	0.74
621.151	0.79
621.339	0.76
621.527	0.67
621.715	0.7
621.903	0.71
622.092	0.67
622.28	0.74
622.468	0.67
622.656	0.68
622.844	0.7
623.032	0.69
623.22	0.64
623.408	0.77
623.596	0.73
623.784	0.77
623.972	0.69
624.16	0.71
624.348	0.73
624.536	0.68
624.724	0.71
624.912	0.75
625.1	0.73
625.288	0.67
625.476	0.64
625.664	0.71
625.851	0.65
626.039	0.72
626.227	0.69
626.415	0.67
626.603	0.6
626.79	0.68
626.978	0.66
627.166	0.71
627.354	0.64
627.541	0.68
627.729	0.59
627.917	0.66
628.104	0.67
628.292	0.66
628.48	0.65
628.667	0.66
628.855	0.65
629.042	0.66
629.23	0.59
629.418	0.59
629.605	0.63
629.793	0.62
629.98	0.61
630.168	0.59
630.355	0.62
630.543	0.65
630.73	0.57
630.917	0.63
631.105	0.66
631.292	0.62
631.48	0.62
631.667	0.67
631.854	0.58
632.042	0.58
632.229	0.54
632.416	0.61
632.604	0.64
632.791	0.54
632.978	0.65
633.165	0.59
633.353	0.62
633.54	0.61
633.727	0.47
633.914	0.56
634.101	0.57
634.289	0.6
634.476	0.53
634.663	0.51
634.85	0.58
635.037	0.48
635.224	0.47
635.411	0.58
635.598	0.6
635.785	0.55
635.972	0.55
636.159	0.61
636.346	0.49
636.533	0.55
636.72	0.52
636.907	0.51
637.094	0.57
637.281	0.51
637.468	0.51
637.655	0.53
637.842	0.52
638.029	0.49
638.215	0.54
638.402	0.53
638.589	0.46
638.776	0.5
638.963	0.47
639.149	0.54
639.336	0.58
639.523	0.46
639.709	0.51
639.896	0.48
640.083	0.53
640.27	0.49
640.456	0.46
640.643	0.53
640.829	0.4
641.016	0.49
641.203	0.44
641.389	0.53
641.576	0.51
641.762	0.49
641.949	0.44
642.135	0.49
642.322	0.48
642.508	0.43
642.695	0.45
642.881	0.43
643.068	0.46
643.254	0.46
643.441	0.47
643.627	0.46
643.813	0.39
644	0.46
644.186	0.41
644.372	0.42
644.559	0.49
644.745	0.46
644.931	0.37
645.118	0.41
645.304	0.45
645.49	0.41
645.676	0.44
645.862	0.45
646.049	0.43
646.235	0.42
646.421	0.51
646.607	0.46
646.793	0.41
646.979	0.39
647.165	0.43
647.352	0.41
647.538	0.46
647.724	0.39
647.91	0.41
648.096	0.44
648.282	0.42
648.468	0.39
648.654	0.43
648.84	0.41
649.026	0.42
649.212	0.38
649.397	0.35
649.583	0.36
649.769	0.39
649.955	0.36
650.141	0.4
650.327	0.42
650.513	0.33
650.698	0.4
650.884	0.33
651.07	0.4
651.256	0.38
651.442	0.36
651.627	0.35
651.813	0.38
651.999	0.36
652.184	0.39
652.37	0.33
652.556	0.36
652.741	0.44
652.927	0.3
653.113	0.34
653.298	0.33
653.484	0.32
653.669	0.27
653.855	0.34
654.04	0.37
654.226	0.37
654.412	0.32
654.597	0.31
654.782	0.35
654.968	0.35
655.153	0.36
655.339	0.34
655.524	0.28
655.71	0.34
655.895	0.32
656.08	0.3
656.266	0.39
656.451	0.37
656.636	0.27
656.822	0.33
657.007	0.31
657.192	0.26
657.378	0.25
657.563	0.31
657.748	0.32
657.933	0.31
658.118	0.26
658.304	0.29
658.489	0.35
658.674	0.3
658.859	0.27
659.044	0.3
659.229	0.31
659.414	0.28
659.599	0.26
659.785	0.24
659.97	0.27
660.155	0.33
660.34	0.3
660.525	0.3
660.71	0.26
660.895	0.33
661.08	0.25
661.264	0.26
661.449	0.37
661.634	0.33
661.819	0.29
662.004	0.31
662.189	0.18
662.374	0.21
662.559	0.26
662.743	0.23
662.928	0.29
663.113	0.24
663.298	0.22
663.483	0.27
663.667	0.29
663.852	0.22
664.037	0.3
664.221	0.24
664.406	0.3
664.591	0.27
664.775	0.28
664.96	0.27
665.145	0.23
665.329	0.24
665.514	0.24
665.698	0.23
665.883	0.17
666.068	0.32
666.252	0.24
666.437	0.22
666.621	0.23
666.806	0.27
666.99	0.22
667.174	0.2
667.359	0.31
667.543	0.23
667.728	0.21
667.912	0.18
668.096	0.28
668.281	0.2
668.465	0.28
668.649	0.21
668.834	0.18
669.018	0.24
669.202	0.23
669.387	0.21
669.571	0.27
669.755	0.19
669.939	0.22
670.124	0.23
670.308	0.26
670.492	0.26
670.676	0.25
670.86	0.2
671.044	0.19
671.228	0.23
671.413	0.21
671.597	0.19
671.781	0.21
671.965	0.23
672.149	0.23
672.333	0.2
672.517	0.18
672.701	0.3
672.885	0.23
673.069	0.13
673.253	0.27
673.437	0.2
673.621	0.18
673.804	0.17
673.988	0.21
674.172	0.24
674.356	0.15
674.54	0.21
674.724	0.29
674.908	0.21
675.091	0.22
675.275	0.22
675.459	0.22
675.643	0.19
675.826	0.23
676.01	0.24
676.194	0.18
676.377	0.22
676.561	0.23
676.745	0.19
676.928	0.22
677.112	0.26
677.296	0.17
677.479	0.17
677.663	0.15
677.846	0.2
678.03	0.23
678.213	0.15
678.397	0.24
678.58	0.14
678.764	0.18
678.947	0.14
679.131	0.11
679.314	0.21
679.498	0.14
679.681	0.2
679.865	0.27
680.048	0.17
680.231	0.2
680.415	0.17
680.598	0.17
680.781	0.15
680.965	0.2
681.148	0.19
681.331	0.16
681.514	0.19
681.698	0.16
681.881	0.21
682.064	0.15
682.247	0.19
682.43	0.13
682.614	0.18
682.797	0.22
682.98	0.16
683.163	0.14
683.346	0.2
683.529	0.17
683.712	0.13
683.895	0.2
684.078	0.11
684.261	0.16
684.444	0.21
684.627	0.19
684.81	0.17
684.993	0.14
685.176	0.14
685.359	0.14
685.542	0.13
685.725	0.2
685.908	0.15
686.091	0.14
686.274	0.18
686.457	0.2
686.639	0.16
686.822	0.18
687.005	0.15
687.188	0.18
687.371	0.24
687.553	0.16
687.736	0.19
687.919	0.25
688.102	0.19
688.284	0.15
688.467	0.09
688.65	0.16
688.832	0.13
689.015	0.16
689.197	0.07
689.38	0.21
689.563	0.23
689.745	0.1
689.928	0.1
690.11	0.18
690.293	0.16
690.475	0.08
690.658	0.15
690.84	0.14
691.023	0.13
691.205	0.13
691.388	0.17
691.57	0.16
691.752	0.18
691.935	0.06
692.117	0.11
692.3	0.13
692.482	0.14
692.664	0.12
692.847	0.18
693.029	0.22
693.211	0.19
693.393	0.14
693.576	0.16
693.758	0.17
693.94	0.09
694.122	0.12
694.304	0.14
694.487	0.1
694.669	0.22
694.851	0.11
695.033	0.15
695.215	0.07
695.397	0.07
695.579	0.12
695.761	0.1
695.943	0.08
696.125	0.2
696.308	0.14
696.49	0.03
696.671	0.2
696.853	0.11
697.035	0.26
697.217	0.16
697.399	0.19
697.581	0.11
697.763	0.1
697.945	0.08
698.127	0.12
698.309	0.18
698.491	0.14
698.672	0.13
698.854	0.14
699.036	0.17
699.218	0.14
699.399	0.18
699.581	0.19
699.763	0.08
699.945	0.1
700.126	0.06
700.308	0.11
700.49	0.07
700.671	0.05
700.853	0.08
701.035	0.07
701.216	0.06
701.398	0.04
701.579	0.15
701.761	0.18
701.943	0.06
702.124	0.06
702.306	0.08
702.487	0.27
702.669	0.07
702.85	0.05
703.031	0.05
703.213	0.21
703.394	0.12
703.576	0.11
703.757	0.15
703.938	0.22
704.12	0.22
704.301	0.11
704.483	0.09
704.664	0.14
704.845	0.14
705.026	0.16
705.208	0.13
705.389	0.11
705.57	0.1
705.751	0.09
705.933	0.09
706.114	0.15
706.295	0.07
706.476	0.09
706.657	0.14
706.838	0.17
707.02	0.14
707.201	0.05
707.382	0.06
707.563	0.15
707.744	0.05
707.925	0.08
708.106	0.09
708.287	0.09
708.468	0.17
708.649	0.09
708.83	0.17
709.011	0.1
709.192	0.17
709.373	0.07
709.554	0.07
709.734	0.13
709.915	0.17
710.096	0.06
710.277	-0.01
710.458	0.07
710.639	0.18
710.819	0.02
711	0.08
711.181	0.13
711.362	0.18
711.542	0.1
711.723	0.06
711.904	0.17
712.085	0.13
712.265	0.1
712.446	-0.01
712.627	0.04
712.807	0.05
712.988	0.08
713.168	0.05
713.349	0.11
713.53	0
713.71	0.03
713.891	0.01
714.071	0.05
714.252	0
714.432	0.03
714.613	0.02
714.793	0.09
714.974	0.19
715.154	0.16
715.334	0.14
715.515	0.15
715.695	-0.04
715.876	0.08
716.056	0.04
716.236	0.11
716.417	0.05
716.597	0.12
716.777	0.2
716.957	0.07
717.138	0.09
717.318	0.06
717.498	-0.07
717.678	0.12
717.859	0.08
718.039	0.04
718.219	0
718.399	0.11
718.579	-0.03
718.759	-0.01
718.939	0.17
719.12	0.03
719.3	0.12
719.48	-0.02
719.66	-0.09
719.84	0.21
720.02	0.07
720.2	-0.05
720.38	0.01
720.56	0.09
720.74	0
720.92	0.12
721.1	0.1
721.279	0.13
721.459	0.09
721.639	-0.06
721.819	0.15
721.999	0.06
722.179	0.09
722.359	0.04
722.538	0.12
722.718	0.01
722.898	0.03
723.078	0.05
723.257	0.02
723.437	0.05
723.617	0.03
723.797	0.13
723.976	-0.02
724.156	0.13
724.336	0.14
724.515	0.25
724.695	-0.03
724.874	0.11
725.054	0.11
725.234	0.02
725.413	0.01
725.593	0.06
725.772	0.08
725.952	0.08
726.131	0
726.311	0.02
726.49	0.05
726.67	-0.02
726.849	0.01
727.028	0.08
727.208	0.04
727.387	0.1
727.567	-0.06
727.746	0.08
727.925	0.02
728.105	0
728.284	0
728.463	-0.01
728.643	0.08
728.822	-0.04
729.001	-0.03
729.18	0.13
729.359	0.12
729.539	0.03
729.718	0.07
729.897	0.1
730.076	0.01
730.255	-0
730.434	0.15
730.614	0.14
730.793	0.12
730.972	0.03
731.151	0.02
731.33	0.16
731.509	0.09
731.688	0.07
731.867	0.07
732.046	-0.01
732.225	0.22
732.404	-0.03
732.583	-0.03
732.762	0.07
732.941	0.15
733.12	0.07
733.298	0.04
733.477	0.17
733.656	0
733.835	-0.1
734.014	0.07
734.193	0.08
734.371	0.11
734.55	0.1
734.729	-0.08
734.908	0.12
735.086	0.09
735.265	0.16
735.444	-0.07
735.623	0.03
735.801	-0.07
735.98	-0.08
736.159	-0
736.337	0.09
736.516	0.1
736.694	0.03
736.873	0.04
737.052	0.14
737.23	0.2
737.409	-0.02
737.587	0.21
737.766	-0.18
737.944	0.02
738.123	0.07
738.301	0.09
738.479	0.04
738.658	0.19
738.836	-0.18
739.015	0.13
739.193	0.21
739.371	-0.02
739.55	-0.03
739.728	-0.05
739.906	0.19
740.085	0.11
740.263	0.14
740.441	-0.12
740.62	0.19
740.798	0.11
740.976	-0.06
741.154	-0.02
741.332	0.16
741.511	0.09
741.689	0.06
741.867	0.1
742.045	0.09
742.223	0.14
742.401	-0.17
742.579	0.07
742.757	0.01
742.935	-0.03
743.114	0.05
743.292	-0.01
743.47	0.08
743.648	0.05
743.826	0.1
744.004	0.13
744.181	0.15
744.359	0.05
744.537	0.14
744.715	0.08
744.893	0.07
745.071	0.07
745.249	-0
745.427	0.13
745.605	0.05
745.782	0.08
745.96	0.25
746.138	0.14
746.316	0.15
746.493	0.04
746.671	0.03
746.849	0.02
747.027	0.13
747.204	-0.09
747.382	0.08
747.56	-0.1
747.737	-0.02
747.915	0.02
748.093	0.09
748.27	0.01
748.448	0.04
748.625	-0.08
748.803	-0.1
748.98	0
749.158	0.03
749.335	0.11
749.513	-0.05
749.69	0.05
749.868	0.06
750.045	0.14
750.223	-0.01
750.4	-0.08
750.578	0.14
750.755	0.04
750.932	-0.02
751.11	0.13
751.287	-0.02
751.464	0.12
751.642	0.01
751.819	0.05
751.996	0.16
752.173	0.07
752.351	-0.09
752.528	0.06
752.705	-0.03
752.882	0.05
753.06	0.13
753.237	0.13
753.414	0.2
753.591	0.24
753.768	-0.03
753.945	0
754.122	0.05
754.299	0.23
754.476	-0.01
754.654	0.14
754.831	0.1
755.008	0.07
755.185	-0.01
755.362	-0.06
755.539	0.05
755.716	-0.04
755.892	0.06
756.069	0.04
756.246	0.03
756.423	-0.03
756.6	0.28
756.777	0.09
756.954	0.05
757.131	0.02
757.307	-0.08
757.484	-0.12
757.661	-0.02
757.838	0.04
758.015	-0.09
758.191	0.09
758.368	0.16
758.545	0.24
758.721	0.01
758.898	-0.03
759.075	-0
759.251	0.16
759.428	0.12
759.605	-0.08
759.781	-0.03
759.958	0.1
760.134	0.06
760.311	0.04
760.488	0.17
760.664	0.17
760.841	0.03
761.017	-0.05
761.194	0.12
761.37	0.13
761.547	0.14
761.723	0.06
761.899	0.1
762.076	-0.07
762.252	-0.17
762.429	-0
762.605	0.11
762.781	0.02
762.958	0.15
763.134	0.04
763.31	0.01
763.486	0.22
763.663	-0.11
763.839	0.11
764.015	-0.12
764.191	-0.03
764.368	0.06
764.544	-0.02
764.72	0.07
764.896	0.09
765.072	0.03
765.248	0.02
765.425	0
765.601	0.11
765.777	0.06
765.953	-0.1
766.129	-0
766.305	-0.03
766.481	0.11
766.657	-0.04
766.833	0.28
767.009	-0.07
767.185	-0.05
767.361	0.04
767.537	-0.09
767.713	0.17
767.889	-0.12
768.065	0.04
768.24	0.1
768.416	0.04
768.592	0.07
768.768	-0.03
768.944	0.12
769.12	0.02
769.295	0
769.471	0.01
769.647	-0.03
769.823	0.14
769.998	-0.01
770.174	-0.2
770.35	0.26
770.525	0.22
770.701	0.13
770.877	-0.05
771.052	-0.04
771.228	-0
771.403	0.21
771.579	0.12
771.755	0.2
771.93	0.04
772.106	-0.13
772.281	-0.17
772.457	0.09
772.632	0.18
772.808	-0.03
772.983	-0
773.159	-0.12
773.334	0.18
773.509	-0.09
773.685	0.01
773.86	0.47
774.036	0.28
774.211	0.09
774.386	-0.05
774.562	0.08
774.737	0.17
774.912	-0.09
775.087	0.09
775.263	0.11
775.438	0.05
775.613	-0.1
775.788	0.05
775.964	0.14
776.139	0.51
776.314	-0.18
776.489	0.04
776.664	0.11
776.839	-0.14
777.014	0.19
777.19	0.13
777.365	0.18
777.54	0.31
777.715	-0.08
777.89	0.14
778.065	-0.07
778.24	0.06
778.415	0.21
778.59	-0.05
778.765	-0.06
778.94	0.04
779.115	-0.06
779.289	-0.04
779.464	-0.03
779.639	-0.02
779.814	-0.16
779.989	-0.18
780.164	0.19
780.339	0.2
780.513	0.01
780.688	-0.06
780.863	0.12
781.038	0.18
781.212	0
781.387	0.01
781.562	0.24
781.737	-0.04
781.911	0.22
782.086	0.13
782.261	0.02
782.435	0.26
782.61	0.02
782.784	0.13
782.959	0.35
783.134	-0.13
783.308	-0.07
783.483	-0.09
783.657	0.42
783.832	0.23
784.006	-0.24
784.181	0.09
784.355	0.29
784.53	-0.24
784.704	-0.2
784.878	0.36
785.053	0.12
785.227	0.33
785.402	0.36
785.576	-0.23
785.75	-0.06
785.925	0.08
786.099	0.01
786.273	0.11
786.448	0.24
786.622	0.05
786.796	0.1
786.97	0.06
787.145	0.42
787.319	-0.24
787.493	-0.12
787.667	-0.28
787.841	-0.01
788.015	0.21
788.19	-0
788.364	-0.05
788.538	0.22
788.712	0.13
788.886	-0.02
789.06	0.13
789.234	0.28
789.408	-0.27
789.582	-0.11
789.756	0.13
789.93	-0.09
790.104	0.12
790.278	-0.15
790.452	-0.19
790.626	0
790.8	0.06
790.973	0.24
791.147	0.35
791.321	0.26
791.495	0.07
791.669	0.19
791.843	0.22
792.016	0.06
792.19	0.36
792.364	-0.02
792.538	0.57
792.711	0.3
792.885	0.09
793.059	-0.09
793.233	-0.59
793.406	0.32
793.58	0.14
793.754	0.2
793.927	-0.11
794.101	0.08
794.274	0.04
794.448	0.19
794.622	-0.09
794.795	0.42
794.969	0.03
795.142	0.31
795.316	-0.17
795.489	-0.24
795.663	0.21
795.836	-0.04
796.009	-0.23
796.183	0.29
796.356	0.16
796.53	0.07
796.703	0.1
796.876	0.35
797.05	0.2
797.223	-0.18
797.396	0
797.57	0.18
797.743	0.22
797.916	0.11
798.09	0.02
798.263	0.39
798.436	0.19
798.609	0.25
798.782	0.05
798.956	0.29
799.129	0.08
799.302	0.21
799.475	-0.03
799.648	-0.09
799.821	-0
799.994	0.08
800.167	-0.55
800.34	0.19
800.514	-0.13
800.687	0.04
800.86	-0.1
801.033	-0.01
801.206	0.2
801.379	-0.08
801.551	0.16
801.724	0.17
801.897	0.37
802.07	0.23
802.243	-0.19
802.416	0.05
802.589	-0.14
802.762	0.11
802.935	-0.02
803.107	0.11
803.28	0.37
803.453	0.46
803.626	-0.2
803.798	-0.01
803.971	-0.06
804.144	0.09
804.317	0.09
804.489	0.39
804.662	-0.31
804.835	0.07
805.007	-0.19
805.18	0.64
805.353	0.18
805.525	-0.35
805.698	-0.08
805.87	0.49
806.043	0.44
806.215	-0.02
806.388	-0.14
806.56	0.33
806.733	0.32
806.905	0.27
807.078	-0.04
807.25	-0.23
807.423	0.06
807.595	-0.23
807.768	0.12
807.94	0.23
808.112	0.66
808.285	0.16
808.457	0.08
808.629	-0.01
808.802	0.25
808.974	0.03
809.146	-0.01
809.318	-0.21
809.491	0.47
809.663	0.25
809.835	0.1
810.007	-0.09
810.18	-0.04
810.352	-0.09
810.524	-0.02
810.696	-0.17
810.868	0.12
811.04	0.14
811.212	-0.3
811.384	0.62
811.556	0.11
811.728	0.38
811.901	0.67
812.073	-0.07
812.245	0.51
812.417	0.23
812.589	-0.63
812.76	0.34
812.932	0.3
813.104	0.34
813.276	0.22
813.448	0.4
813.62	0.02
813.792	-0.09
813.964	0.18
814.136	0.29
814.307	-0.09
814.479	-0.41
814.651	-0.04
814.823	0.49
814.995	-0.12
815.166	0.21
815.338	-0.37
815.51	-0.03
815.681	0.99
815.853	0.02
816.025	0.61
816.196	0.33
816.368	0.38
816.54	-0.24
816.711	-0.25
816.883	0.42
817.054	1.06
817.226	-0.71
817.398	0.31
817.569	0.34
817.741	0.7
817.912	-0.26
818.084	0.1
818.255	0.08
818.426	-0.02
818.598	-0.1
818.769	-0.2
818.941	0.22
819.112	0.32
819.283	0.38
819.455	-0.51
819.626	0.29
819.798	0.71
819.969	0.28
820.14	0.06
820.311	-0.02
820.483	0.05
820.654	0.25
820.825	0.04
820.996	-0.41
821.168	-0.19
821.339	0.2
821.51	-0.51
821.681	0.11
821.852	0.32
822.023	-0.33
822.195	-0.68
822.366	0.46
822.537	0.12
822.708	0.34
822.879	-0.69
823.05	0.54
823.221	0.16
823.392	-0.12
823.563	-0.07
823.734	0.3
823.905	0.07
824.076	-0.59
824.247	0.01
824.418	-0.61
824.589	0.36
824.759	0.12
824.93	0.06
825.101	-0.43
825.272	0.38
825.443	0.98
825.614	0.69
825.784	-1.09
825.955	0.7
826.126	0.42
826.297	0.01
826.467	1.04
826.638	0.67
826.809	-0.7
826.98	-0.15
827.15	0.28
827.321	-0.15
827.492	0.99
827.662	0.22
827.833	1.36
828.003	0.55
828.174	-0.28
828.345	-0.58
828.515	1.01
828.686	0.39
828.856	-0.46
829.027	0.3
829.197	0.2
829.368	0.42
829.538	-0.33
829.709	-0.46
829.879	0.62
830.049	0.2
830.22	-0
830.39	0.41
830.56	0.73
830.731	-0.1
830.901	-0.2
831.072	0.03
831.242	0.6
831.412	0.31
831.582	0.17
831.753	-0.33
831.923	0.61
832.093	0.13
832.263	0.74
832.434	0.03
832.604	-0.34
832.774	0.13
832.944	-0.05
833.114	0.41
833.284	0.11
833.454	-0.09
833.624	-0.12
833.795	0.03
833.965	0.94
834.135	0.82
834.305	-0.62
834.475	-0.32
834.645	0.35
834.815	-0.2
834.985	0.02
835.155	-0.1
835.325	0.68
835.494	-0.08
835.664	0.3
835.834	-0.77
836.004	0.04
836.174	0.66
836.344	-0.53
836.514	-0.49
836.684	-0.05
836.853	-0.42
837.023	0.46
837.193	-0.36
837.363	0.74
837.532	0.68
837.702	0.01
837.872	-0.59
838.041	1.08
838.211	1.53
838.381	-0.51
838.55	0.09
838.72	2.11
838.89	0.92
839.059	-0.21
839.229	-0.35
839.398	1.26
839.568	0.25
839.738	-0.25
839.907	0.98
840.077	0.08
840.246	-0.77
840.416	-0.76
840.585	-0.39
840.755	0.76
840.924	0.66
841.093	-0.82
841.263	-0.63
841.432	0.32
841.602	-0.9
841.771	-1.15
841.94	0.21
842.11	2.17
842.279	1.3
842.448	-0.42
842.617	-0.39
842.787	1.15
842.956	-0.75
843.125	-0.27
843.294	0.85
843.464	0.68
843.633	0.6
843.802	-1.14
843.971	-0.73
844.14	0.52
844.309	0.87
844.479	-1.44
844.648	-0.1
844.817	-0.19
844.986	1.01
845.155	-0.04
845.324	-0.19
845.493	-0.25
845.662	-1.7
845.831	0.39
846	0.37
846.169	-0.16
846.338	1.77
846.507	-0.05
846.676	0.28
846.844	0.01
847.013	1.54
847.182	0.06
847.351	-0.61
847.52	-0.49
847.689	-0.08
847.858	-0.71
848.026	-1.12
848.195	-0.4
848.364	0.07
848.533	-0.64
848.701	0.47
848.87	0.49
849.039	1.03
849.207	0.7
849.376	1.26
849.545	1.62
849.713	-0.64
849.882	-0.11
850.051	0.29
850.219	-0.47
850.388	0.71
850.556	-0.36
850.725	-0.13
850.893	0.66
851.062	0.28
851.23	0.86
851.399	-0.75
851.567	-0.14
851.736	0.55
851.904	-0.21
852.073	-0.03
852.241	0.75
852.41	0.01
852.578	0.38
852.746	-0.39
852.915	1.75
853.083	0.31
853.251	0.26
853.42	-0.38
853.588	0.14
853.756	2.22
853.924	0.32
854.093	0.36
854.261	1.04
854.429	-0.79
854.597	0.05
854.765	-1.92
854.934	0.7
855.102	1.5
855.27	-0.48
855.438	1.33
855.606	0.8
855.774	2.52
855.942	-0.48
856.11	-1.36
856.278	0.43
856.446	0.4
856.614	0.43
856.782	-0.75
856.95	1.47
857.118	0.65
857.286	-0.43
857.454	0.29
857.622	1.52
857.79	0.27
857.958	-1.06
858.126	0.68
858.294	-2.57
858.462	-0.15
858.629	-0.18
858.797	-0.52
858.965	0.62
859.133	-0.03
859.301	0.54
859.468	0.4
859.636	1.15
859.804	2.33
859.971	0.88
860.139	-1.48
860.307	0.19
860.474	-0.63
860.642	0.27
860.81	0.21
860.977	-0.93
861.145	1.24
861.313	0.39
861.48	-0.49
861.648	1.2
861.815	0.37
861.983	-1.35
862.15	0.52
862.318	1.1
862.485	1.79
862.653	-1.01
862.82	0.71
862.988	1.58
863.155	1.6
863.322	1.14
863.49	-0.84
863.657	-0.25
863.824	1.53
863.992	0.49
864.159	-0.07
864.326	0.8
864.494	-0.31
864.661	3.16
864.828	-0.38
864.996	3.02
865.163	2.27
865.33	-1.01
865.497	-1.13
865.664	0.31
865.832	-1.45
865.999	-0.49
866.166	-0.79
866.333	0.04
866.5	-0.08
866.667	0.03
866.834	0.44
867.001	1.25
867.168	-1.7
867.335	-1.12
867.502	-1.31
867.669	0.81
867.836	2.04
868.003	-0.08
868.17	1.29
868.337	-0.29
868.504	3.37
868.671	-2.02
868.838	1.05
869.005	1.77
869.172	1.99
869.339	-0.63
869.505	-0.57
869.672	-0.43
869.839	1.98
870.006	1
870.173	-1.72
870.339	1.32
870.506	2.93
870.673	0.03
870.84	1.4
871.006	-0.26
871.173	-0.56
871.34	1.11
871.506	-1.32
871.673	0.25
871.839	-2.77
872.006	1.24
872.173	-0.53
872.339	-1.41
872.506	0.87
872.672	-0.5
872.839	-3.07
873.005	1.09
873.172	1.26
873.338	1.5
873.505	-0.09
873.671	-1.4
873.838	0.79
874.004	-0.91
874.171	0.25
874.337	-0.72
874.503	0.41
874.67	-0.75
874.836	0.27
875.002	1.62
875.169	2.2
875.335	1.08
875.501	-1.62
875.668	-0.16
875.834	0.01
876	0.4
876.166	0.46
876.332	1.52
876.499	2.88
876.665	0.25
876.831	0.56
876.997	3.67
877.163	-0.3
877.329	0.36
877.495	-0.37
877.662	1
877.828	0.53
877.994	0.36
878.16	-2.11
878.326	-1.39
878.492	1.42
878.658	-0.73
878.824	0.94
878.99	0.9
879.156	-2.3
879.322	2.18
879.487	-0.64
879.653	-0.9
879.819	-0.34
879.985	-0.17
880.151	1.34
880.317	0.95
880.483	0.05
880.648	-0.31
880.814	-1.48
880.98	2.21
881.146	-1.09
881.312	-0.34
881.477	-0.57
881.643	1.14
881.809	1.05
881.974	3.4
882.14	-1.77
882.306	-0.08
882.471	4.42
882.637	-1.6
882.803	2.97
882.968	3.6
883.134	2.69
883.299	0.33
883.465	2.05
883.63	0.33
883.796	0.57
883.961	0.6
884.127	2.13
884.292	-5.22
884.458	-0.65
884.623	-0.65
