Data from Apollo_Calib_20240827__AbsoluteIrradiance__596__09-05-02-603.txt Node

Date: Wed Aug 28 09:05:02 BST 2024
User: biology
Spectrometer: FLMT08252
Trigger mode: 0
Integration Time (sec): 5.000000E-1
Scans to average: 5
Electric dark correction enabled: true
Nonlinearity correction enabled: false
Boxcar width: 0
XAxis mode: Wavelengths
Number of Pixels in Spectrum: 3648
>>>>>Begin Spectral Data<<<<<
179.588	-0
179.809	-0
180.03	-0
180.251	-0
180.473	-0
180.694	0
180.915	0
181.136	-0
181.357	0
181.578	-0
181.799	0
182.02	-0
182.241	-0
182.462	-0
182.683	0
182.904	-0
183.125	-0
183.346	-0
183.567	0
183.788	0
184.009	0
184.23	0
184.451	0
184.672	0
184.892	-0
185.113	0
185.334	0
185.555	0
185.776	0
185.996	0
186.217	0
186.438	0
186.659	0
186.879	0
187.1	0
187.321	0
187.541	0
187.762	0
187.983	0
188.203	0
188.424	0
188.644	0
188.865	0
189.086	0
189.306	0
189.527	0
189.747	0
189.968	0
190.188	0
190.409	0
190.629	0
190.849	0
191.07	0
191.29	0
191.511	0
191.731	0
191.951	0
192.172	0
192.392	0
192.612	0
192.833	0
193.053	0
193.273	0
193.493	0
193.714	0
193.934	0
194.154	0
194.374	0
194.594	0
194.815	0
195.035	0
195.255	0
195.475	0
195.695	0
195.915	0
196.135	0
196.355	0
196.575	0
196.795	0
197.015	0
197.235	0
197.455	0
197.675	0
197.895	0
198.115	0
198.335	0
198.555	0
198.775	0
198.995	0
199.214	0
199.434	0
199.654	0
199.874	0
200.094	1.73
200.313	0.76
200.533	0.22
200.753	-0.31
200.973	1.4
201.192	0.87
201.412	-0.24
201.632	0.89
201.851	1.55
202.071	0.42
202.291	-0.05
202.51	0.09
202.73	1.1
202.95	0.8
203.169	0.02
203.389	0.73
203.608	1.09
203.828	0.1
204.047	0.66
204.267	0.93
204.486	0.61
204.706	0.79
204.925	0.32
205.145	0.27
205.364	0.92
205.583	1.06
205.803	0.39
206.022	0.28
206.242	0.47
206.461	0.39
206.68	0.19
206.9	0.21
207.119	0.78
207.338	0.81
207.557	0.22
207.777	0.42
207.996	0.41
208.215	0.89
208.434	0.08
208.654	0.1
208.873	0.46
209.092	0.72
209.311	0.15
209.53	0.32
209.749	0.31
209.968	0.11
210.187	0.61
210.407	-0.14
210.626	0.26
210.845	0.59
211.064	0.4
211.283	0.18
211.502	0.39
211.721	0.28
211.94	0.2
212.159	0.16
212.377	0.79
212.596	0.6
212.815	0.31
213.034	0.35
213.253	0.62
213.472	0.6
213.691	0.17
213.91	0.05
214.128	0.23
214.347	0.68
214.566	0.07
214.785	0.04
215.003	0.47
215.222	0.3
215.441	0.42
215.66	-0.05
215.878	0.25
216.097	0.54
216.316	0.1
216.534	0.24
216.753	0.37
216.972	0.32
217.19	0.17
217.409	0.05
217.627	0.19
217.846	0.2
218.064	0.14
218.283	0.06
218.501	0.4
218.72	0.64
218.938	-0.04
219.157	0.13
219.375	0.46
219.594	0.34
219.812	0.13
220.031	0.25
220.249	0.46
220.467	0.51
220.686	0.22
220.904	-0.05
221.122	0.21
221.341	0.71
221.559	0.28
221.777	0.1
221.995	0.19
222.214	0.34
222.432	-0.01
222.65	0.47
222.868	0.26
223.086	0.28
223.305	0.36
223.523	0.18
223.741	0.55
223.959	0.21
224.177	-0.03
224.395	0.24
224.613	0.16
224.831	0.38
225.049	0.08
225.267	0.26
225.485	0.27
225.703	0.15
225.921	0.17
226.139	0.1
226.357	0.43
226.575	0.2
226.793	0.15
227.011	0.76
227.229	0.24
227.447	0.17
227.665	0.06
227.883	-0.02
228.1	0.19
228.318	0.26
228.536	0.01
228.754	0.07
228.972	0.26
229.189	0.19
229.407	0.04
229.625	0.15
229.843	0.26
230.06	0.29
230.278	0.18
230.496	0.17
230.713	0.21
230.931	0.36
231.149	0.09
231.366	0.02
231.584	0.15
231.801	0.5
232.019	0.12
232.236	0.01
232.454	0.02
232.671	0.2
232.889	0.12
233.106	0.14
233.324	0.13
233.541	0.16
233.759	0.21
233.976	0.02
234.194	0.14
234.411	0.17
234.628	-0.06
234.846	0.11
235.063	0.11
235.28	0.18
235.498	0.09
235.715	0.02
235.932	0.24
236.149	0.16
236.367	0.08
236.584	0.25
236.801	0.07
237.018	0.17
237.236	0.12
237.453	0.04
237.67	0.32
237.887	0.1
238.104	0.13
238.321	-0.02
238.538	0.09
238.755	0.16
238.973	0.09
239.19	0.08
239.407	0.24
239.624	0.25
239.841	0.12
240.058	0.07
240.275	0.24
240.492	0.06
240.709	0.17
240.925	0.09
241.142	0.18
241.359	0.09
241.576	-0
241.793	0.07
242.01	0.16
242.227	0.15
242.444	0.2
242.66	0.21
242.877	0.11
243.094	0.08
243.311	0.1
243.527	0.17
243.744	0.22
243.961	0.18
244.178	0.08
244.394	0.07
244.611	0.27
244.828	0.32
245.044	0.06
245.261	0.19
245.477	0.12
245.694	0.17
245.911	0.05
246.127	0.17
246.344	0.27
246.56	0.2
246.777	0.16
246.993	0.07
247.21	0.21
247.426	0.21
247.643	0.14
247.859	0.07
248.076	0.08
248.292	0.34
248.508	0.03
248.725	0.18
248.941	0.1
249.157	0.22
249.374	0.07
249.59	0.13
249.806	0.08
250.023	0.1
250.239	0.07
250.455	0.09
250.671	0.12
250.888	0.14
251.104	0.13
251.32	0.09
251.536	0.02
251.752	0.07
251.969	0.12
252.185	0.05
252.401	0.26
252.617	0.17
252.833	0.05
253.049	0.12
253.265	0.13
253.481	0.14
253.697	0.1
253.913	-0.02
254.129	0.25
254.345	0.14
254.561	0.11
254.777	0.1
254.993	0.19
255.209	0.12
255.425	0.06
255.641	0.06
255.857	0.24
256.073	0.17
256.288	0.03
256.504	0.09
256.72	0.1
256.936	0.22
257.152	0.04
257.367	0.02
257.583	0.16
257.799	0.13
258.015	0.03
258.23	0.03
258.446	0.18
258.662	0.1
258.877	0.04
259.093	0.04
259.309	0.15
259.524	0.2
259.74	0.13
259.955	0.01
260.171	0.09
260.387	0.12
260.602	0.14
260.818	0.17
261.033	0.01
261.249	0.12
261.464	0.06
261.68	0.05
261.895	0.07
262.11	0.15
262.326	0.09
262.541	0.03
262.757	0.16
262.972	0.14
263.187	0.12
263.403	0.09
263.618	0.14
263.833	0.09
264.049	0
264.264	0.03
264.479	0.17
264.694	0.25
264.91	0.03
265.125	0.07
265.34	0.12
265.555	0.24
265.77	0.09
265.986	0.04
266.201	0.19
266.416	0.18
266.631	0.07
266.846	0.12
267.061	0.13
267.276	0.16
267.491	-0.02
267.706	0.14
267.921	0.03
268.136	0.15
268.351	0.11
268.566	0
268.781	0.18
268.996	0.16
269.211	0.13
269.426	0.05
269.641	0.08
269.856	0.15
270.071	0.04
270.285	0.06
270.5	0.15
270.715	0.22
270.93	0.11
271.145	0.12
271.359	0.12
271.574	0.04
271.789	0.1
272.004	0.07
272.218	0.09
272.433	0.09
272.648	0.01
272.862	0.2
273.077	0.05
273.292	0.1
273.506	0.06
273.721	0.06
273.936	0.16
274.15	0.14
274.365	0.1
274.579	0.12
274.794	0.09
275.008	0.16
275.223	0.02
275.437	0.1
275.652	0.13
275.866	0.11
276.081	0.07
276.295	0.15
276.509	0.11
276.724	0.07
276.938	0.13
277.153	0.11
277.367	0.16
277.581	0.1
277.796	-0.03
278.01	0.01
278.224	0.16
278.438	0.21
278.653	0.03
278.867	0.08
279.081	-0.1
279.295	0.06
279.51	0.14
279.724	0
279.938	0.13
280.152	0.1
280.366	0.06
280.58	0.1
280.794	0.17
281.008	0.1
281.222	0.13
281.437	0.23
281.651	0.08
281.865	0.19
282.079	0.01
282.293	0.01
282.507	0.03
282.721	0.1
282.935	0.11
283.148	0.01
283.362	0.06
283.576	0.02
283.79	0.1
284.004	-0
284.218	0.11
284.432	0.06
284.646	0.07
284.859	0.06
285.073	0.06
285.287	0.08
285.501	0.07
285.714	0.05
285.928	0.09
286.142	0.09
286.356	0.04
286.569	0
286.783	0.16
286.997	0.09
287.21	0.08
287.424	0.1
287.637	0.02
287.851	0.05
288.065	0.08
288.278	0.04
288.492	0.11
288.705	0.04
288.919	0.13
289.132	-0.05
289.346	0.16
289.559	-0.02
289.773	-0
289.986	0.04
290.2	0.07
290.413	0.1
290.626	0.01
290.84	0.04
291.053	0.04
291.267	0.1
291.48	0.1
291.693	0.09
291.906	0.05
292.12	0.06
292.333	0.03
292.546	0.06
292.76	0.12
292.973	0.1
293.186	0.13
293.399	0.06
293.612	0.09
293.826	0.07
294.039	0.08
294.252	0.1
294.465	0.09
294.678	0.08
294.891	0.1
295.104	0.06
295.317	0.05
295.53	0.03
295.743	0.04
295.956	0.05
296.169	0.1
296.382	0.11
296.595	0.05
296.808	0.03
297.021	0.09
297.234	0.09
297.447	0.04
297.66	0.06
297.873	0.14
298.086	0.12
298.299	0
298.511	0.02
298.724	0.04
298.937	0.08
299.15	0.04
299.363	0.07
299.575	0.09
299.788	0.1
300.001	0.04
300.213	0.08
300.426	0.06
300.639	0.04
300.852	0.08
301.064	0.11
301.277	0.12
301.489	0.11
301.702	0.08
301.915	0.11
302.127	0.07
302.34	0.1
302.552	0.09
302.765	0.07
302.977	0.09
303.19	0.05
303.402	0.02
303.615	0.04
303.827	0.03
304.04	0.02
304.252	0.1
304.464	0.07
304.677	0.15
304.889	0.06
305.102	0.03
305.314	0.05
305.526	0.11
305.739	0.16
305.951	0.01
306.163	0.05
306.375	0.12
306.588	0.04
306.8	0.04
307.012	0
307.224	0.08
307.436	0.11
307.649	0.03
307.861	0.08
308.073	0.06
308.285	0.06
308.497	0.02
308.709	0.01
308.921	0.09
309.133	0.09
309.346	0.05
309.558	0.06
309.77	0.09
309.982	0.06
310.194	0.13
310.406	0.02
310.617	0.11
310.829	0.09
311.041	0.1
311.253	0.04
311.465	0.03
311.677	0.07
311.889	0.07
312.101	0.02
312.313	0.11
312.524	0.07
312.736	0.01
312.948	0.07
313.16	0.1
313.372	0.05
313.583	0.11
313.795	0.05
314.007	0.05
314.218	0.1
314.43	0.09
314.642	0.05
314.853	-0.02
315.065	0.1
315.277	0.03
315.488	0.11
315.7	0.12
315.912	0.1
316.123	0.07
316.335	0.11
316.546	0.17
316.758	0.03
316.969	0.02
317.181	0.08
317.392	0.07
317.604	0.11
317.815	0.02
318.026	0.05
318.238	0.04
318.449	0.08
318.661	-0.02
318.872	0.02
319.083	0.02
319.295	0.08
319.506	0.04
319.717	0.07
319.929	0.1
320.14	0.06
320.351	0.04
320.562	0.02
320.774	0.09
320.985	0.09
321.196	0.02
321.407	-0.01
321.618	0.11
321.829	0.04
322.041	0.06
322.252	0.06
322.463	0.06
322.674	0.08
322.885	-0
323.096	0.04
323.307	0.05
323.518	0.08
323.729	0
323.94	0.05
324.151	0.1
324.362	0.08
324.573	0.05
324.784	-0
324.995	0.09
325.206	0.06
325.417	0.06
325.628	0.05
325.838	0.07
326.049	0.04
326.26	0.12
326.471	0.05
326.682	0.09
326.892	0.04
327.103	-0.01
327.314	0.01
327.525	0.1
327.735	0.08
327.946	0.05
328.157	0.03
328.368	0.1
328.578	0.04
328.789	0.1
328.999	0.08
329.21	0.07
329.421	0.1
329.631	0
329.842	0.04
330.052	0.06
330.263	0.13
330.473	0.06
330.684	0.1
330.894	0.06
331.105	0.06
331.315	0.07
331.526	0.04
331.736	0.12
331.947	0.09
332.157	0.05
332.367	0.04
332.578	0.11
332.788	0.09
332.999	0.09
333.209	0.1
333.419	0.04
333.629	0.11
333.84	0.13
334.05	0.07
334.26	0.07
334.47	0.06
334.681	0.09
334.891	0.06
335.101	0.07
335.311	0.13
335.521	0.05
335.732	0.02
335.942	0.11
336.152	0.06
336.362	0.07
336.572	0.06
336.782	0.08
336.992	0.02
337.202	0.01
337.412	0.04
337.622	0.09
337.832	0.08
338.042	0.08
338.252	-0
338.462	0.05
338.672	0.08
338.882	0.07
339.092	0.04
339.302	0.13
339.511	0.11
339.721	0.04
339.931	0.02
340.141	0.11
340.351	0.1
340.561	0.1
340.77	0.06
340.98	0.04
341.19	0.12
341.4	0.01
341.609	0.03
341.819	0.05
342.029	0.02
342.238	0.05
342.448	0.03
342.658	0.08
342.867	0.06
343.077	0.04
343.286	0.08
343.496	0.1
343.706	0.17
343.915	0
344.125	0.07
344.334	0.11
344.544	0
344.753	0.03
344.963	0.06
345.172	0.04
345.381	0.02
345.591	-0
345.8	0.07
346.01	0.11
346.219	0.08
346.428	-0.09
346.638	0.05
346.847	0.07
347.056	0.1
347.266	0.03
347.475	0
347.684	0.07
347.893	0.07
348.103	0.08
348.312	0.05
348.521	0.03
348.73	0.08
348.94	0.08
349.149	0.05
349.358	0.04
349.567	-0.01
349.776	0.06
349.985	0.04
350.194	0.12
350.403	0.12
350.612	-0.02
350.821	0.03
351.03	0.09
351.239	0.01
351.448	0.05
351.657	0.07
351.866	0.13
352.075	0.03
352.284	0.11
352.493	0.04
352.702	0.07
352.911	0.04
353.12	0.1
353.329	0.06
353.538	0.04
353.746	0.05
353.955	0.08
354.164	0.07
354.373	0.06
354.582	0.08
354.79	0
354.999	0.11
355.208	0.05
355.416	0.11
355.625	0
355.834	0.04
356.042	0.06
356.251	0.07
356.46	0.03
356.668	0.07
356.877	0.17
357.085	0.12
357.294	-0.05
357.503	0.07
357.711	-0.01
357.92	0.15
358.128	0.09
358.337	0.02
358.545	0.08
358.754	0.04
358.962	0.1
359.17	0.05
359.379	0.1
359.587	0.08
359.796	0.03
360.004	0.1
360.212	0.1
360.421	0.11
360.629	0.04
360.837	0.07
361.046	0.06
361.254	0.12
361.462	0.04
361.67	0.01
361.879	0.03
362.087	0.12
362.295	0.06
362.503	0.04
362.711	0.02
362.92	0.04
363.128	0.02
363.336	0.02
363.544	0.01
363.752	0.04
363.96	0.03
364.168	0.05
364.376	0.05
364.584	0.07
364.792	0.07
365	0.09
365.208	0.07
365.416	0.05
365.624	0.09
365.832	0.04
366.04	0.14
366.248	0.04
366.456	0.07
366.664	0.06
366.872	0.06
367.079	0.06
367.287	0.08
367.495	0.09
367.703	0.06
367.911	0.07
368.118	0.04
368.326	0.04
368.534	0.02
368.742	0.1
368.949	-0.02
369.157	0.02
369.365	0.06
369.572	0.04
369.78	0.05
369.988	0.11
370.195	0.09
370.403	0.08
370.61	0.04
370.818	0.06
371.026	0.07
371.233	0.03
371.441	0.07
371.648	0.02
371.856	0.06
372.063	0.09
372.271	0.06
372.478	0.05
372.685	0.04
372.893	0.08
373.1	0.01
373.308	0.02
373.515	0.13
373.722	0.06
373.93	0.04
374.137	0.07
374.344	0.12
374.552	0.08
374.759	0.05
374.966	0.04
375.173	-0.01
375.381	0.11
375.588	0.08
375.795	-0.02
376.002	0.06
376.209	0.05
376.417	0.04
376.624	0.07
376.831	0.07
377.038	0
377.245	-0.02
377.452	0.04
377.659	0.03
377.866	0.01
378.073	0.07
378.28	0.06
378.487	0.08
378.694	0.11
378.901	0.04
379.108	0.05
379.315	0.11
379.522	0.12
379.729	0.1
379.936	0.03
380.143	0.03
380.35	0.03
380.557	0.04
380.763	0.06
380.97	0.05
381.177	0.06
381.384	0.08
381.591	0.03
381.797	0.06
382.004	0.07
382.211	0.07
382.418	0.04
382.624	0.08
382.831	0.11
383.038	0.03
383.244	0.06
383.451	0.03
383.658	0.09
383.864	0.03
384.071	0.05
384.277	0.12
384.484	0.05
384.69	0.09
384.897	0.05
385.103	0.07
385.31	0.02
385.516	0.04
385.723	0.03
385.929	0.03
386.136	0.03
386.342	0.08
386.549	0.04
386.755	0.09
386.961	0.1
387.168	0.02
387.374	0.06
387.58	0.07
387.787	0.03
387.993	0.07
388.199	0.03
388.406	0.02
388.612	0.07
388.818	0.05
389.024	0.02
389.231	0.09
389.437	0.15
389.643	0.07
389.849	0.05
390.055	0.06
390.261	0.06
390.467	0.02
390.674	0.03
390.88	0.06
391.086	0.1
391.292	0.01
391.498	0.06
391.704	0.05
391.91	0.04
392.116	0.05
392.322	-0.03
392.528	0.1
392.734	-0.01
392.94	0.04
393.146	0.03
393.352	0.02
393.557	0.01
393.763	0.06
393.969	0.06
394.175	0.05
394.381	0.09
394.587	-0.02
394.792	0.08
394.998	0.1
395.204	0.09
395.41	0.05
395.615	0.06
395.821	0.06
396.027	0.12
396.233	0.01
396.438	0.06
396.644	0.09
396.85	0.08
397.055	0.04
397.261	0.06
397.466	0.07
397.672	0.08
397.878	0.08
398.083	0.08
398.289	0.04
398.494	0.09
398.7	0.1
398.905	0
399.111	0.11
399.316	0.01
399.522	0.04
399.727	0.07
399.932	0.01
400.138	0.05
400.343	0.08
400.549	0.04
400.754	0.07
400.959	0.08
401.165	0.06
401.37	0.09
401.575	-0
401.78	0.05
401.986	0.05
402.191	0.03
402.396	0.05
402.601	0.08
402.807	0.07
403.012	0.06
403.217	0.06
403.422	0.05
403.627	0.07
403.832	0.06
404.037	0.09
404.243	0.02
404.448	0.01
404.653	0.03
404.858	0.07
405.063	0.09
405.268	0.02
405.473	0
405.678	0.02
405.883	0.22
406.088	0.08
406.293	0
406.498	0
406.703	0.09
406.907	0.04
407.112	0.01
407.317	0.06
407.522	0.09
407.727	0.02
407.932	0.05
408.136	0.13
408.341	0.09
408.546	0.05
408.751	0.07
408.956	0.09
409.16	0.04
409.365	0.06
409.57	0.08
409.774	0.05
409.979	0.09
410.184	0.05
410.388	-0.01
410.593	0.07
410.798	0.04
411.002	0.03
411.207	0.07
411.411	0.1
411.616	0.01
411.82	0.05
412.025	0.06
412.229	0.03
412.434	0.11
412.638	0.09
412.843	0.05
413.047	0.04
413.252	0.02
413.456	0.01
413.66	0.1
413.865	0
414.069	0.1
414.273	0.02
414.478	0.06
414.682	0.01
414.886	0.03
415.091	0.04
415.295	-0
415.499	0.1
415.703	0.02
415.908	0.07
416.112	-0.02
416.316	0.1
416.52	-0.01
416.724	-0
416.929	0.03
417.133	0.15
417.337	0.01
417.541	0.01
417.745	-0
417.949	0.06
418.153	0.12
418.357	0.02
418.561	0.14
418.765	0.05
418.969	0.14
419.173	0.11
419.377	0.07
419.581	0.11
419.785	0.02
419.989	-0.01
420.193	0.03
420.397	0.05
420.601	0.1
420.804	0.14
421.008	0.05
421.212	0.08
421.416	0.13
421.62	0.03
421.823	0.06
422.027	0.15
422.231	0.07
422.435	0.04
422.638	0.06
422.842	0.03
423.046	0.07
423.249	0.07
423.453	0.09
423.657	0.06
423.86	0.05
424.064	0.06
424.268	0.1
424.471	0.06
424.675	0.09
424.878	0.09
425.082	0.04
425.285	0.08
425.489	0.05
425.692	0.06
425.896	-0.01
426.099	0.08
426.303	0.04
426.506	-0.02
426.71	0.08
426.913	0.09
427.116	0.11
427.32	0.02
427.523	0.05
427.726	0.14
427.93	0.02
428.133	0.05
428.336	0
428.54	0
428.743	0.08
428.946	0.08
429.149	0.05
429.353	0
429.556	0.12
429.759	0.03
429.962	0.01
430.165	0.07
430.368	0.06
430.571	0.04
430.775	0.07
430.978	0.04
431.181	0.07
431.384	0.05
431.587	0.03
431.79	0.06
431.993	0.07
432.196	0.05
432.399	0.08
432.602	0.13
432.805	0.07
433.008	0.05
433.211	-0.04
433.414	0.09
433.616	0.07
433.819	0.05
434.022	0.01
434.225	0.14
434.428	0.07
434.631	0.15
434.833	0.05
435.036	0.1
435.239	0.05
435.442	0.05
435.645	0.04
435.847	0.06
436.05	0.07
436.253	0.04
436.455	-0.01
436.658	0.05
436.861	0.15
437.063	0.02
437.266	0.06
437.468	0.1
437.671	0.19
437.874	0.06
438.076	0.01
438.279	0
438.481	0.03
438.684	0.03
438.886	0.08
439.089	-0.03
439.291	0.08
439.494	0.07
439.696	0.01
439.899	0.07
440.101	0.09
440.303	0.01
440.506	0.07
440.708	0.03
440.91	0.09
441.113	0.01
441.315	0.13
441.517	-0.01
441.72	0.13
441.922	0.05
442.124	0.02
442.326	0.03
442.529	0.14
442.731	0.05
442.933	0.16
443.135	0.02
443.337	0.04
443.539	0.05
443.742	0.09
443.944	0.06
444.146	0.01
444.348	0.04
444.55	0
444.752	0.1
444.954	-0.02
445.156	0.08
445.358	0.02
445.56	0.09
445.762	0.01
445.964	0.1
446.166	0.07
446.368	0.03
446.57	0.12
446.772	0.02
446.974	0.06
447.175	0.07
447.377	0.05
447.579	0.02
447.781	-0.02
447.983	0.13
448.184	0.05
448.386	0.07
448.588	0.03
448.79	0.07
448.991	0.02
449.193	0.02
449.395	0.1
449.597	0.1
449.798	0.08
450	0.08
450.202	0.07
450.403	0.1
450.605	0.08
450.806	0.08
451.008	-0.02
451.21	0.05
451.411	0.07
451.613	0.05
451.814	0.06
452.016	0.14
452.217	0.11
452.419	0.1
452.62	0.08
452.821	0.08
453.023	0.11
453.224	0.1
453.426	0.06
453.627	0.11
453.828	0.1
454.03	0.07
454.231	0.09
454.432	0.03
454.634	0.13
454.835	0.08
455.036	0
455.238	0.05
455.439	0.16
455.64	0.03
455.841	0.02
456.042	0.19
456.244	0.13
456.445	0
456.646	-0
456.847	0.01
457.048	0.05
457.249	0.1
457.45	0.23
457.651	0.02
457.852	0.06
458.054	0.12
458.255	0.02
458.456	0.07
458.657	0.1
458.858	0.06
459.058	0.07
459.259	0.07
459.46	0.06
459.661	-0.01
459.862	0.16
460.063	0.03
460.264	0.07
460.465	-0.01
460.666	0.16
460.866	0.06
461.067	0.06
461.268	0.06
461.469	0.09
461.67	0.06
461.87	0.06
462.071	0.03
462.272	0.01
462.473	0.07
462.673	0.09
462.874	0.02
463.075	0.04
463.275	0.04
463.476	0.11
463.676	0.04
463.877	0.07
464.078	0.05
464.278	0.11
464.479	0.02
464.679	0.05
464.88	0.04
465.08	0.12
465.281	0.05
465.481	0.05
465.682	0.04
465.882	0.09
466.083	0.1
466.283	0.03
466.483	0.05
466.684	0.02
466.884	0.03
467.085	0.01
467.285	0.11
467.485	0.01
467.686	0.05
467.886	-0.01
468.086	0.07
468.286	0.04
468.487	0.08
468.687	-0.01
468.887	0.06
469.087	0.09
469.287	0.04
469.488	-0.04
469.688	0.07
469.888	0.08
470.088	0.09
470.288	0.1
470.488	0.08
470.688	0.03
470.888	0.08
471.088	0.04
471.288	0.04
471.488	0.08
471.688	0.08
471.888	0
472.088	0.08
472.288	0.08
472.488	0.03
472.688	0.04
472.888	0.06
473.088	0.08
473.288	0.07
473.488	0.05
473.688	0.07
473.887	0.05
474.087	0.02
474.287	0.05
474.487	-0.01
474.687	0.08
474.886	0.05
475.086	0.05
475.286	0.07
475.486	0.06
475.685	0.01
475.885	0.02
476.085	0.05
476.284	0.09
476.484	0.06
476.684	0.07
476.883	0.1
477.083	0.05
477.282	0.04
477.482	0.1
477.681	0.09
477.881	0.03
478.08	0.02
478.28	0
478.479	0.06
478.679	0.14
478.878	0.04
479.078	0.02
479.277	0.01
479.477	0.03
479.676	0.07
479.875	0.05
480.075	-0.01
480.274	0.05
480.473	0.06
480.673	-0.05
480.872	0.08
481.071	0.07
481.271	0.06
481.47	0.02
481.669	0.03
481.868	0.02
482.067	-0
482.267	0.02
482.466	-0.01
482.665	0.01
482.864	-0.01
483.063	0.02
483.262	0.06
483.461	0.07
483.661	0.06
483.86	0.04
484.059	0.04
484.258	0.03
484.457	0.03
484.656	0.06
484.855	0.05
485.054	0.03
485.253	-0.01
485.452	-0
485.651	0.03
485.849	0.05
486.048	0.01
486.247	0.01
486.446	0.01
486.645	-0.01
486.844	0.01
487.043	-0
487.241	0.06
487.44	0.01
487.639	0.02
487.838	0.04
488.037	0.02
488.235	0.07
488.434	0.05
488.633	0.02
488.831	0.04
489.03	0.06
489.229	0.04
489.427	0.03
489.626	0.05
489.825	0.06
490.023	0.04
490.222	-0.01
490.42	0.04
490.619	0.07
490.817	0.06
491.016	0.01
491.214	0.06
491.413	0.02
491.611	0.02
491.81	0.05
492.008	0.04
492.207	0.05
492.405	0.04
492.604	-0.01
492.802	0.03
493	0.02
493.199	-0
493.397	0.02
493.595	0.04
493.794	0.01
493.992	0.06
494.19	0.03
494.388	0.06
494.587	0
494.785	0.03
494.983	-0.01
495.181	0.04
495.379	0.02
495.578	0.01
495.776	0.05
495.974	0.02
496.172	0.03
496.37	0.04
496.568	-0
496.766	0
496.964	0.06
497.162	0.03
497.36	0.01
497.558	0.05
497.756	0.04
497.954	0.02
498.152	0.02
498.35	0.02
498.548	0.02
498.746	0.02
498.944	-0
499.142	0.01
499.34	-0.01
499.538	0.01
499.736	0.03
499.933	0.05
500.131	0.08
500.329	0.01
500.527	0.06
500.725	0.05
500.922	0.04
501.12	0.02
501.318	0.03
501.516	0.02
501.713	0.04
501.911	0.03
502.109	-0.01
502.306	0.03
502.504	0.03
502.701	0.02
502.899	0.01
503.097	0.06
503.294	-0
503.492	0.01
503.689	0.04
503.887	0.03
504.084	0.06
504.282	0.03
504.479	-0.02
504.677	0.03
504.874	-0.01
505.072	0.05
505.269	0
505.466	0.06
505.664	0.03
505.861	-0
506.059	-0.01
506.256	0.05
506.453	0
506.651	0.08
506.848	0.05
507.045	0.03
507.242	0.02
507.44	0.03
507.637	0.03
507.834	0.02
508.031	0.06
508.229	-0
508.426	0.03
508.623	0.05
508.82	0
509.017	0.01
509.214	0.02
509.411	0.03
509.608	0.02
509.805	0.03
510.003	0.02
510.2	0.03
510.397	0.05
510.594	0
510.791	0.02
510.988	0.01
511.184	0.06
511.381	0.01
511.578	0.01
511.775	0.04
511.972	0.01
512.169	0.02
512.366	0.01
512.563	0.05
512.76	0.04
512.956	0.07
513.153	0.03
513.35	0.02
513.547	0.04
513.744	0
513.94	0.02
514.137	0.05
514.334	0.04
514.53	0.02
514.727	0.04
514.924	0.1
515.12	0.01
515.317	0
515.514	0.03
515.71	0
515.907	0.02
516.103	0.03
516.3	0.04
516.497	0.05
516.693	0.07
516.89	0.03
517.086	0
517.283	0.04
517.479	0.04
517.676	0.02
517.872	0.03
518.068	-0
518.265	0.01
518.461	0.02
518.658	0
518.854	0.03
519.05	0.01
519.247	-0
519.443	0.02
519.639	0.02
519.836	0.02
520.032	0.04
520.228	0.03
520.424	0.06
520.621	0.06
520.817	0.04
521.013	0.05
521.209	0.02
521.405	0.08
521.601	0.04
521.798	0.04
521.994	0.06
522.19	0.01
522.386	-0.01
522.582	0.01
522.778	0.04
522.974	0.03
523.17	0.02
523.366	0.02
523.562	0.05
523.758	0.02
523.954	0.01
524.15	0.02
524.346	0.03
524.542	0.03
524.738	0.01
524.934	0.02
525.129	-0.06
525.325	0.02
525.521	0.02
525.717	0.05
525.913	0.03
526.109	0.03
526.304	0.01
526.5	0.03
526.696	0.05
526.892	0.02
527.087	0.03
527.283	0.02
527.479	0.05
527.674	0.02
527.87	0.03
528.066	0.01
528.261	0.03
528.457	0.04
528.653	0.03
528.848	0.03
529.044	0.03
529.239	0.03
529.435	0.06
529.63	0.04
529.826	0.08
530.021	0.04
530.217	0.04
530.412	0.02
530.608	0.01
530.803	0.03
530.999	0.03
531.194	0.01
531.389	0.03
531.585	-0
531.78	0.01
531.975	0.03
532.171	0.06
532.366	0.02
532.561	0.04
532.757	0.01
532.952	0.03
533.147	0.04
533.342	0.04
533.538	0.01
533.733	0.06
533.928	0.03
534.123	0.01
534.318	0.01
534.513	0.01
534.709	0.03
534.904	0.01
535.099	0.02
535.294	0.01
535.489	0.03
535.684	0.04
535.879	-0.02
536.074	0.05
536.269	0.01
536.464	0.04
536.659	0.02
536.854	0.02
537.049	0.04
537.244	0.03
537.439	0.03
537.634	0.06
537.828	0.03
538.023	0.05
538.218	-0.01
538.413	0.01
538.608	-0
538.803	0.05
538.997	-0
539.192	0.04
539.387	0.04
539.582	0.04
539.776	0.03
539.971	0.01
540.166	0.04
540.36	0
540.555	0.03
540.75	0.04
540.944	0.02
541.139	0
541.334	0.03
541.528	0.03
541.723	0.05
541.917	0.01
542.112	-0.01
542.306	0.03
542.501	0.01
542.695	0.03
542.89	0.02
543.084	0.03
543.279	0.03
543.473	0.03
543.668	0.03
543.862	0.03
544.056	0.06
544.251	0.02
544.445	0.03
544.64	0.01
544.834	0.01
545.028	0.05
545.222	0.05
545.417	0.06
545.611	0.04
545.805	0.03
546	0.02
546.194	0.01
546.388	0.01
546.582	0.03
546.776	0.04
546.97	0.02
547.165	0.04
547.359	0.06
547.553	0.01
547.747	0.04
547.941	0.05
548.135	0.05
548.329	0.08
548.523	0.03
548.717	0.02
548.911	0.03
549.105	0.03
549.299	0.02
549.493	0.04
549.687	0.03
549.881	0.04
550.075	0.04
550.269	0
550.463	0.05
550.657	0.04
550.85	0.03
551.044	0.02
551.238	0.03
551.432	0.01
551.626	0.02
551.82	0.05
552.013	0
552.207	0.05
552.401	0.05
552.594	0.05
552.788	0.04
552.982	0.03
553.176	0.02
553.369	0.05
553.563	0.02
553.756	-0.01
553.95	0.03
554.144	0.02
554.337	0.03
554.531	0.05
554.724	0
554.918	-0
555.111	0.05
555.305	0.06
555.498	0.07
555.692	0.04
555.885	0.02
556.079	0.04
556.272	0.01
556.466	0.05
556.659	0.05
556.852	0.03
557.046	0.03
557.239	0.06
557.432	0.02
557.626	0.03
557.819	0.03
558.012	0.06
558.206	0.05
558.399	0.03
558.592	0.04
558.785	0.02
558.979	0.07
559.172	0.04
559.365	0.04
559.558	0.05
559.751	0.04
559.944	0.06
560.138	0
560.331	0.01
560.524	0.04
560.717	0.04
560.91	0.03
561.103	0.06
561.296	0.03
561.489	0.06
561.682	0.05
561.875	0.07
562.068	0.04
562.261	0.05
562.454	0.08
562.647	0.05
562.84	0.04
563.032	0.01
563.225	0.05
563.418	0
563.611	0.04
563.804	0.03
563.997	-0
564.19	0.01
564.382	-0.01
564.575	0.03
564.768	0.03
564.961	0.04
565.153	0.02
565.346	0.08
565.539	0.08
565.731	0.08
565.924	0.08
566.117	0.04
566.309	0.04
566.502	0.03
566.695	0.03
566.887	0.04
567.08	0.03
567.272	0.04
567.465	0.05
567.657	0.04
567.85	0.05
568.042	0.07
568.235	0.08
568.427	0.05
568.62	0.06
568.812	0.06
569.005	0.03
569.197	0.02
569.389	0.04
569.582	0.05
569.774	0.06
569.966	0.02
570.159	-0.01
570.351	0.07
570.543	0.02
570.736	0.04
570.928	0.02
571.12	0.03
571.312	0.04
571.505	0.02
571.697	0.08
571.889	0.01
572.081	0.03
572.273	0.02
572.465	0.07
572.658	0.03
572.85	0.05
573.042	0.04
573.234	0.06
573.426	0.09
573.618	0.02
573.81	0.06
574.002	0.07
574.194	0.07
574.386	0.02
574.578	-0.02
574.77	0.05
574.962	0.06
575.154	0.01
575.346	0.03
575.538	0.05
575.729	0.03
575.921	0.04
576.113	0.03
576.305	0.09
576.497	0.05
576.689	0.05
576.88	0.04
577.072	0.06
577.264	0.06
577.456	0.06
577.647	-0.02
577.839	0.03
578.031	0.09
578.223	0.03
578.414	0.03
578.606	0.1
578.798	0.05
578.989	0.02
579.181	0.03
579.372	0.05
579.564	0.06
579.755	0.08
579.947	0.06
580.139	0.07
580.33	0
580.522	0.03
580.713	-0
580.905	0.05
581.096	0.04
581.287	0.05
581.479	0.09
581.67	0.09
581.862	0.06
582.053	0.03
582.244	0
582.436	0.06
582.627	0.07
582.818	0.04
583.01	0.03
583.201	0.08
583.392	0.07
583.583	0.05
583.775	0.05
583.966	0.03
584.157	0.05
584.348	0.05
584.54	0.03
584.731	0.06
584.922	0.08
585.113	0.06
585.304	0.09
585.495	0.07
585.686	0.07
585.877	0.07
586.068	0.07
586.259	0.06
586.45	0.05
586.641	0.03
586.832	0
587.023	0.07
587.214	0.07
587.405	0.07
587.596	0.04
587.787	0.11
587.978	0.07
588.169	0.05
588.36	0.04
588.551	0.08
588.742	0.06
588.932	0.09
589.123	0.05
589.314	0.1
589.505	0.09
589.696	0.1
589.886	0.07
590.077	0.01
590.268	0.07
590.458	0.03
590.649	0.04
590.84	0.11
591.03	0.07
591.221	0.04
591.412	0.03
591.602	0.09
591.793	0.1
591.984	0.06
592.174	0.08
592.365	0.16
592.555	0.06
592.746	0.11
592.936	0.1
593.127	0.11
593.317	0.12
593.508	0.07
593.698	0.07
593.889	0.1
594.079	0.07
594.269	0.05
594.46	0.1
594.65	0.06
594.84	0.09
595.031	0.08
595.221	0.1
595.411	0.05
595.602	0.12
595.792	0.11
595.982	0.09
596.172	0.15
596.363	0.1
596.553	0.11
596.743	0.1
596.933	0.11
597.123	0.16
597.314	0.09
597.504	0.08
597.694	0.18
597.884	0.12
598.074	0.12
598.264	0.08
598.454	0.12
598.644	0.13
598.834	0.12
599.024	0.12
599.214	0.1
599.404	0.15
599.594	0.14
599.784	0.12
599.974	0.17
600.164	0.16
600.354	0.11
600.544	0.1
600.734	0.18
600.924	0.19
601.114	0.13
601.303	0.15
601.493	0.17
601.683	0.13
601.873	0.11
602.063	0.11
602.252	0.18
602.442	0.13
602.632	0.14
602.821	0.14
603.011	0.19
603.201	0.15
603.39	0.14
603.58	0.16
603.77	0.21
603.959	0.21
604.149	0.18
604.339	0.18
604.528	0.21
604.718	0.22
604.907	0.21
605.097	0.19
605.286	0.15
605.476	0.23
605.665	0.23
605.855	0.2
606.044	0.26
606.234	0.24
606.423	0.2
606.612	0.2
606.802	0.26
606.991	0.24
607.181	0.27
607.37	0.2
607.559	0.24
607.749	0.22
607.938	0.26
608.127	0.25
608.316	0.24
608.506	0.29
608.695	0.28
608.884	0.27
609.073	0.3
609.263	0.29
609.452	0.32
609.641	0.31
609.83	0.27
610.019	0.3
610.208	0.31
610.397	0.31
610.586	0.35
610.775	0.33
610.965	0.33
611.154	0.32
611.343	0.36
611.532	0.32
611.721	0.37
611.91	0.37
612.099	0.42
612.287	0.37
612.476	0.34
612.665	0.39
612.854	0.37
613.043	0.43
613.232	0.43
613.421	0.37
613.61	0.44
613.798	0.44
613.987	0.48
614.176	0.44
614.365	0.52
614.554	0.46
614.742	0.54
614.931	0.47
615.12	0.56
615.309	0.5
615.497	0.53
615.686	0.48
615.875	0.55
616.063	0.58
616.252	0.56
616.44	0.54
616.629	0.6
616.818	0.63
617.006	0.6
617.195	0.6
617.383	0.63
617.572	0.64
617.76	0.63
617.949	0.62
618.137	0.7
618.326	0.71
618.514	0.65
618.703	0.67
618.891	0.74
619.079	0.68
619.268	0.79
619.456	0.74
619.644	0.8
619.833	0.77
620.021	0.78
620.209	0.77
620.398	0.86
620.586	0.84
620.774	0.89
620.962	0.93
621.151	0.96
621.339	0.93
621.527	0.9
621.715	0.92
621.903	0.97
622.092	0.95
622.28	1.02
622.468	1.02
622.656	1.07
622.844	1.1
623.032	1.08
623.22	1.04
623.408	1.2
623.596	1.14
623.784	1.24
623.972	1.15
624.16	1.24
624.348	1.28
624.536	1.32
624.724	1.25
624.912	1.35
625.1	1.34
625.288	1.37
625.476	1.34
625.664	1.46
625.851	1.39
626.039	1.49
626.227	1.5
626.415	1.49
626.603	1.48
626.79	1.57
626.978	1.64
627.166	1.65
627.354	1.6
627.541	1.63
627.729	1.66
627.917	1.82
628.104	1.84
628.292	1.83
628.48	1.86
628.667	1.88
628.855	1.93
629.042	2
629.23	2.03
629.418	2.01
629.605	2.12
629.793	2.09
629.98	2.12
630.168	2.17
630.355	2.25
630.543	2.31
630.73	2.32
630.917	2.33
631.105	2.44
631.292	2.44
631.48	2.43
631.667	2.63
631.854	2.57
632.042	2.6
632.229	2.58
632.416	2.7
632.604	2.76
632.791	2.7
632.978	2.88
633.165	2.87
633.353	2.97
633.54	3.04
633.727	2.94
633.914	3.08
634.101	3.02
634.289	3.26
634.476	3.17
634.663	3.22
634.85	3.28
635.037	3.35
635.224	3.35
635.411	3.52
635.598	3.5
635.785	3.56
635.972	3.63
636.159	3.71
636.346	3.74
636.533	3.74
636.72	3.87
636.907	3.88
637.094	3.92
637.281	3.95
637.468	4.09
637.655	4.15
637.842	4.25
638.029	4.23
638.215	4.38
638.402	4.38
638.589	4.44
638.776	4.55
638.963	4.54
639.149	4.78
639.336	4.85
639.523	4.83
639.709	4.87
639.896	4.99
640.083	4.99
640.27	5.16
640.456	5.21
640.643	5.3
640.829	5.28
641.016	5.46
641.203	5.44
641.389	5.58
641.576	5.7
641.762	5.67
641.949	5.87
642.135	5.99
642.322	6.02
642.508	6.09
642.695	6.31
642.881	6.33
643.068	6.42
643.254	6.54
643.441	6.68
643.627	6.82
643.813	6.8
644	7.05
644.186	7.02
644.372	7.21
644.559	7.36
644.745	7.41
644.931	7.58
645.118	7.73
645.304	7.81
645.49	7.98
645.676	8.11
645.862	8.25
646.049	8.47
646.235	8.51
646.421	8.8
646.607	8.95
646.793	8.97
646.979	8.99
647.165	9.25
647.352	9.38
647.538	9.55
647.724	9.66
647.91	9.84
648.096	9.96
648.282	10.17
648.468	10.37
648.654	10.59
648.84	10.66
649.026	10.93
649.212	10.92
649.397	11.22
649.583	11.5
649.769	11.65
649.955	11.68
650.141	11.94
650.327	12.09
650.513	12.36
650.698	12.5
650.884	12.6
651.07	12.99
651.256	13.13
651.442	13.27
651.627	13.18
651.813	13.78
651.999	13.64
652.184	13.98
652.37	14.27
652.556	14.54
652.741	14.57
652.927	14.51
653.113	15.04
653.298	15.13
653.484	15.34
653.669	15.54
653.855	15.72
654.04	16
654.226	16.06
654.412	16.29
654.597	16.29
654.782	16.64
654.968	16.84
655.153	17.06
655.339	17.19
655.524	17.4
655.71	17.68
655.895	17.96
656.08	18.08
656.266	18.28
656.451	18.25
656.636	18.51
656.822	18.64
657.007	18.8
657.192	18.95
657.378	19.1
657.563	18.94
657.748	19.34
657.933	19.62
658.118	19.33
658.304	19.85
658.489	19.96
658.674	19.82
658.859	19.69
659.044	19.79
659.229	20.14
659.414	20.12
659.599	19.95
659.785	19.84
659.97	19.84
660.155	19.76
660.34	19.95
660.525	19.65
660.71	19.46
660.895	19.64
661.08	19.29
661.264	18.96
661.449	18.84
661.634	18.54
661.819	18.52
662.004	18.03
662.189	17.89
662.374	17.53
662.559	17.04
662.743	16.75
662.928	16.53
663.113	16.11
663.298	15.8
663.483	15.39
663.667	15.14
663.852	14.78
664.037	14.53
664.221	14.12
664.406	13.65
664.591	13.28
664.775	12.91
664.96	12.51
665.145	12.01
665.329	11.69
665.514	11.49
665.698	10.92
665.883	10.65
666.068	10.37
666.252	10.05
666.437	9.54
666.621	9.29
666.806	8.98
666.99	8.64
667.174	8.38
667.359	8.09
667.543	7.88
667.728	7.67
667.912	7.27
668.096	6.91
668.281	6.69
668.465	6.61
668.649	6.43
668.834	6.02
669.018	5.89
669.202	5.79
669.387	5.48
669.571	5.35
669.755	5.07
669.939	4.87
670.124	4.74
670.308	4.61
670.492	4.54
670.676	4.33
670.86	4.12
671.044	3.96
671.228	4.02
671.413	3.71
671.597	3.61
671.781	3.53
671.965	3.43
672.149	3.31
672.333	3.18
672.517	3.15
672.701	3.01
672.885	2.87
673.069	2.78
673.253	2.81
673.437	2.6
673.621	2.53
673.804	2.49
673.988	2.38
674.172	2.31
674.356	2.17
674.54	2.15
674.724	2.19
674.908	2.04
675.091	2.01
675.275	1.91
675.459	1.86
675.643	1.8
675.826	1.77
676.01	1.71
676.194	1.67
676.377	1.6
676.561	1.6
676.745	1.55
676.928	1.48
677.112	1.48
677.296	1.36
677.479	1.31
677.663	1.29
677.846	1.25
678.03	1.16
678.213	1.09
678.397	1.13
678.58	1.09
678.764	1.06
678.947	0.99
679.131	0.97
679.314	1.02
679.498	0.97
679.681	0.95
679.865	0.99
680.048	0.91
680.231	0.83
680.415	0.79
680.598	0.76
680.781	0.76
680.965	0.75
681.148	0.74
681.331	0.73
681.514	0.72
681.698	0.67
681.881	0.67
682.064	0.66
682.247	0.64
682.43	0.55
682.614	0.65
682.797	0.61
682.98	0.57
683.163	0.49
683.346	0.6
683.529	0.5
683.712	0.51
683.895	0.48
684.078	0.42
684.261	0.46
684.444	0.46
684.627	0.49
684.81	0.47
684.993	0.41
685.176	0.46
685.359	0.38
685.542	0.41
685.725	0.45
685.908	0.44
686.091	0.36
686.274	0.44
686.457	0.43
686.639	0.34
686.822	0.36
687.005	0.38
687.188	0.36
687.371	0.37
687.553	0.41
687.736	0.38
687.919	0.4
688.102	0.46
688.284	0.29
688.467	0.32
688.65	0.31
688.832	0.34
689.015	0.28
689.197	0.24
689.38	0.36
689.563	0.33
689.745	0.23
689.928	0.25
690.11	0.24
690.293	0.33
690.475	0.21
690.658	0.26
690.84	0.26
691.023	0.26
691.205	0.23
691.388	0.26
691.57	0.28
691.752	0.28
691.935	0.18
692.117	0.21
692.3	0.23
692.482	0.24
692.664	0.24
692.847	0.2
693.029	0.22
693.211	0.23
693.393	0.17
693.576	0.21
693.758	0.24
693.94	0.18
694.122	0.19
694.304	0.14
694.487	0.17
694.669	0.28
694.851	0.11
695.033	0.21
695.215	0.15
695.397	0.09
695.579	0.19
695.761	0.17
695.943	0.1
696.125	0.27
696.308	0.22
696.49	0.06
696.671	0.27
696.853	0.19
697.035	0.27
697.217	0.22
697.399	0.19
697.581	0.12
697.763	0.18
697.945	0.12
698.127	0.19
698.309	0.2
698.491	0.16
698.672	0.18
698.854	0.18
699.036	0.22
699.218	0.16
699.399	0.18
699.581	0.21
699.763	0.12
699.945	0.11
700.126	0.08
700.308	0.17
700.49	0.16
700.671	0.1
700.853	0.1
701.035	0.13
701.216	0.16
701.398	0.05
701.579	0.11
701.761	0.2
701.943	0.08
702.124	0.05
702.306	0.14
702.487	0.2
702.669	0.14
702.85	0.12
703.031	0.09
703.213	0.19
703.394	0.18
703.576	0.07
703.757	0.21
703.938	0.22
704.12	0.3
704.301	0.13
704.483	0.08
704.664	0.13
704.845	0.2
705.026	0.22
705.208	0.16
705.389	0.14
705.57	0.2
705.751	0.13
705.933	0.07
706.114	0.18
706.295	0.14
706.476	0.14
706.657	0.2
706.838	0.14
707.02	0.22
707.201	0.09
707.382	0.1
707.563	0.11
707.744	0.06
707.925	0.11
708.106	0.1
708.287	0.1
708.468	0.19
708.649	0.12
708.83	0.17
709.011	0.13
709.192	0.14
709.373	0.02
709.554	0.14
709.734	0.2
709.915	0.19
710.096	0.06
710.277	-0.03
710.458	0.09
710.639	0.14
710.819	-0.02
711	0.07
711.181	0.2
711.362	0.17
711.542	0.12
711.723	0.09
711.904	0.17
712.085	0.12
712.265	0.15
712.446	0.13
712.627	0.09
712.807	0.1
712.988	0.03
713.168	0.07
713.349	0.13
713.53	-0.02
713.71	0.04
713.891	0.04
714.071	0.09
714.252	0.04
714.432	0.07
714.613	-0.02
714.793	0.1
714.974	0.19
715.154	0.16
715.334	0.17
715.515	0.16
715.695	0.04
715.876	0.14
716.056	0.06
716.236	0.07
716.417	0.15
716.597	0.14
716.777	0.2
716.957	0.06
717.138	0.17
717.318	0.05
717.498	0.02
717.678	0.1
717.859	0.15
718.039	0.05
718.219	0.12
718.399	0.13
718.579	0.01
718.759	-0.01
718.939	0.08
719.12	0.04
719.3	0.19
719.48	-0.11
719.66	-0.02
719.84	0.22
720.02	0.11
720.2	0.08
720.38	0.09
720.56	0.19
720.74	0.07
720.92	0.12
721.1	0.27
721.279	0.18
721.459	0.06
721.639	0.06
721.819	0.14
721.999	0.12
722.179	0.16
722.359	0.03
722.538	0.23
722.718	0.08
722.898	0.11
723.078	0.09
723.257	0.08
723.437	0.08
723.617	0.08
723.797	0.08
723.976	0.06
724.156	0.12
724.336	0.19
724.515	0.27
724.695	-0.04
724.874	0.17
725.054	0.06
725.234	0.03
725.413	0.12
725.593	0.02
725.772	-0.01
725.952	0.13
726.131	0.06
726.311	0.14
726.49	0.01
726.67	0.06
726.849	0.07
727.028	0.22
727.208	0.04
727.387	0.16
727.567	0.06
727.746	0.06
727.925	0.02
728.105	0.02
728.284	0.04
728.463	-0.12
728.643	0.14
728.822	0.03
729.001	0.02
729.18	0.08
729.359	0.07
729.539	0.11
729.718	0.11
729.897	0.08
730.076	0.12
730.255	-0.05
730.434	0.15
730.614	0.17
730.793	0.17
730.972	0.09
731.151	0.02
731.33	0.17
731.509	0.12
731.688	0.19
731.867	0.1
732.046	0.06
732.225	0.23
732.404	0.05
732.583	0.04
732.762	0.15
732.941	0.26
733.12	0.19
733.298	0.03
733.477	0.16
733.656	0.19
733.835	0.02
734.014	0.28
734.193	0.08
734.371	0.2
734.55	0.11
734.729	-0.07
734.908	0.12
735.086	0.1
735.265	0.24
735.444	0.02
735.623	0.06
735.801	0.05
735.98	0.13
736.159	0.02
736.337	0.17
736.516	0.17
736.694	0.12
736.873	0.01
737.052	0.22
737.23	0.18
737.409	0.11
737.587	0.22
737.766	-0.05
737.944	0.16
738.123	0.14
738.301	0.02
738.479	0.06
738.658	0.14
738.836	-0.06
739.015	0.18
739.193	0.19
739.371	0.03
739.55	0.02
739.728	0.04
739.906	0.18
740.085	0.37
740.263	0.05
740.441	-0.02
740.62	0.24
740.798	0.15
740.976	-0
741.154	0.09
741.332	0.15
741.511	0.19
741.689	0.15
741.867	0.23
742.045	0.04
742.223	0.15
742.401	0.05
742.579	-0.01
742.757	0.05
742.935	-0.02
743.114	0.12
743.292	0.19
743.47	0.11
743.648	-0.03
743.826	0.17
744.004	0.17
744.181	0.1
744.359	0.15
744.537	0.06
744.715	0.09
744.893	0.22
745.071	0.13
745.249	0.04
745.427	0.12
745.605	0.2
745.782	0.08
745.96	0.14
746.138	0.17
746.316	0.24
746.493	0.09
746.671	0.11
746.849	0.1
747.027	0.14
747.204	-0.06
747.382	0.23
747.56	-0.04
747.737	0.11
747.915	0.03
748.093	0.15
748.27	0.13
748.448	0.03
748.625	-0.05
748.803	0.03
748.98	-0.04
749.158	0.11
749.335	0.17
749.513	0.08
749.69	0.14
749.868	0.06
750.045	0.18
750.223	0.04
750.4	-0.06
750.578	0.24
750.755	0.14
750.932	0.02
751.11	0.19
751.287	-0.03
751.464	0.17
751.642	0.02
751.819	0.19
751.996	0.12
752.173	0.1
752.351	-0.03
752.528	0.06
752.705	0
752.882	0.07
753.06	0.09
753.237	0.22
753.414	0.32
753.591	0.29
753.768	0.13
753.945	0.05
754.122	0.09
754.299	0.17
754.476	-0.01
754.654	0.07
754.831	0.13
755.008	0.03
755.185	0.04
755.362	-0.09
755.539	0.12
755.716	0.02
755.892	0.13
756.069	0.04
756.246	0.02
756.423	0.05
756.6	0.2
756.777	0.14
756.954	0.3
757.131	0.1
757.307	-0.04
757.484	0.09
757.661	0.12
757.838	-0.07
758.015	0.04
758.191	0.18
758.368	0.1
758.545	0.31
758.721	0.24
758.898	0.11
759.075	0.19
759.251	0.18
759.428	0.24
759.605	-0.03
759.781	0.12
759.958	0.03
760.134	0.14
760.311	0.07
760.488	0.19
760.664	0.16
760.841	0.13
761.017	0.03
761.194	0.08
761.37	0.18
761.547	0.17
761.723	0.11
761.899	0.2
762.076	0
762.252	0.08
762.429	0.07
762.605	0.22
762.781	-0.04
762.958	0.24
763.134	-0.03
763.31	0.03
763.486	0.22
763.663	-0.14
763.839	0.12
764.015	-0.07
764.191	0.01
764.368	0.09
764.544	0.04
764.72	0.04
764.896	0.18
765.072	0.14
765.248	0.13
765.425	0.12
765.601	0.08
765.777	0.15
765.953	-0.06
766.129	0.01
766.305	0
766.481	0.2
766.657	0.12
766.833	0.22
767.009	0.11
767.185	0.15
767.361	0.12
767.537	-0.05
767.713	0.29
767.889	0.18
768.065	0.06
768.24	0.08
768.416	0.15
768.592	0.05
768.768	0.1
768.944	0.22
769.12	0.22
769.295	0.08
769.471	0.01
769.647	0.04
769.823	0.24
769.998	0.09
770.174	0.08
770.35	0.42
770.525	0.33
770.701	0.16
770.877	0.1
771.052	0.07
771.228	0.23
771.403	0.15
771.579	0.16
771.755	0.33
771.93	0.07
772.106	0
772.281	-0.09
772.457	0.22
772.632	0.24
772.808	-0.01
772.983	0.07
773.159	-0.04
773.334	0.28
773.509	0.11
773.685	0
773.86	0.38
774.036	0.19
774.211	0.12
774.386	0.16
774.562	0.06
774.737	0.25
774.912	0.2
775.087	0.28
775.263	0.2
775.438	0.17
775.613	0.09
775.788	0.18
775.964	0.27
776.139	0.33
776.314	0.05
776.489	0.21
776.664	0.24
776.839	-0.08
777.014	0.25
777.19	0.24
777.365	0.18
777.54	0.29
777.715	-0.02
777.89	0.21
778.065	-0.05
778.24	0.24
778.415	0.25
778.59	0.1
778.765	0.06
778.94	0.16
779.115	0.13
779.289	-0.01
779.464	0.1
779.639	0.17
779.814	-0.03
779.989	0.08
780.164	0.23
780.339	0.2
780.513	0.19
780.688	0.03
780.863	0.16
781.038	0.19
781.212	-0.04
781.387	0.08
781.562	0.3
781.737	0.13
781.911	0.36
782.086	-0.03
782.261	0.17
782.435	0.41
782.61	0
782.784	0.05
782.959	0.31
783.134	-0.02
783.308	0.15
783.483	0.06
783.657	0.37
783.832	0.23
784.006	-0.1
784.181	0.15
784.355	0.42
784.53	0.05
784.704	0
784.878	0.5
785.053	0.21
785.227	0.18
785.402	0.64
785.576	0.1
785.75	0.24
785.925	0.02
786.099	0.18
786.273	0.24
786.448	0.44
786.622	0.36
786.796	-0.02
786.97	0.05
787.145	0.62
787.319	-0.33
787.493	0.06
787.667	-0.1
787.841	0.1
788.015	0.53
788.19	0.04
788.364	0.21
788.538	0.28
788.712	0.21
788.886	0.1
789.06	0.23
789.234	0.32
789.408	-0.05
789.582	0.25
789.756	0.28
789.93	-0.07
790.104	0.18
790.278	0.15
790.452	-0.1
790.626	0.19
790.8	0.29
790.973	0.32
791.147	0.37
791.321	0.38
791.495	0.5
791.669	0.18
791.843	0.16
792.016	0.26
792.19	0.47
792.364	-0.14
792.538	0.72
792.711	0.34
792.885	0.1
793.059	0.03
793.233	-0.35
793.406	0.48
793.58	0.15
793.754	0.43
793.927	0.08
794.101	0.41
794.274	0.17
794.448	0.59
794.622	0.07
794.795	0.52
794.969	0.02
795.142	0.55
795.316	-0.02
795.489	0.03
795.663	0.39
795.836	0.19
796.009	0.1
796.183	0.43
796.356	0.27
796.53	0.28
796.703	0.07
796.876	0.91
797.05	0.26
797.223	0.09
797.396	0.23
797.57	0.21
797.743	0.41
797.916	0.4
798.09	0.21
798.263	0.44
798.436	0.18
798.609	0.08
798.782	0.31
798.956	0.27
799.129	0.11
799.302	0.14
799.475	0.09
799.648	0.03
799.821	-0.01
799.994	0.04
800.167	-0.16
800.34	0.34
800.514	0.35
800.687	0.4
800.86	0.34
801.033	0.06
801.206	-0.08
801.379	-0.1
801.551	0.48
801.724	0.48
801.897	0.49
802.07	0.06
802.243	-0.27
802.416	0.06
802.589	-0.3
802.762	0.31
802.935	0.23
803.107	0.14
803.28	0.13
803.453	0.4
803.626	0.1
803.798	0.25
803.971	0.04
804.144	0.76
804.317	0.42
804.489	0.5
804.662	0.27
804.835	0.21
805.007	0.22
805.18	0.43
805.353	0.1
805.525	0.2
805.698	0.19
805.87	0.47
806.043	0.57
806.215	-0.26
806.388	0.02
806.56	0.29
806.733	0.5
806.905	0.39
807.078	0.13
807.25	-0.21
807.423	0.08
807.595	0.28
807.768	0.3
807.94	0.26
808.112	0.38
808.285	0.44
808.457	-0.12
808.629	0.08
808.802	0.32
808.974	0.36
809.146	0.28
809.318	0.2
809.491	0.19
809.663	0.36
809.835	0.03
810.007	0.45
810.18	0.13
810.352	-0.01
810.524	0.59
810.696	0.41
810.868	0.5
811.04	0.17
811.212	0.03
811.384	0.64
811.556	-0.06
811.728	0.35
811.901	0.77
812.073	0.13
812.245	0.43
812.417	0.29
812.589	-0.35
812.76	0.26
812.932	0.45
813.104	1.09
813.276	0.2
813.448	0.95
813.62	0.24
813.792	0.27
813.964	0.27
814.136	0.29
814.307	0.15
814.479	0.1
814.651	0.15
814.823	0.77
814.995	0.53
815.166	0.37
815.338	0.22
815.51	-0.04
815.681	1.31
815.853	0.62
816.025	0.29
816.196	0.83
816.368	0.25
816.54	-0.17
816.711	0.39
816.883	0.18
817.054	0.91
817.226	-0.25
817.398	0.52
817.569	0
817.741	0.36
817.912	0.43
818.084	-0.17
818.255	0.51
818.426	-0.28
818.598	0.13
818.769	-0.03
818.941	0.57
819.112	0.67
819.283	0.24
819.455	0.06
819.626	0.28
819.798	0.35
819.969	0.11
820.14	0.35
820.311	0.26
820.483	0.47
820.654	0.22
820.825	0.18
820.996	0.03
821.168	0.08
821.339	0.27
821.51	-0.29
821.681	0.25
821.852	0.3
822.023	0.01
822.195	-0.09
822.366	0.76
822.537	0.35
822.708	0.51
822.879	0.3
823.05	0.76
823.221	0.27
823.392	0.49
823.563	0.04
823.734	0.45
823.905	-0.2
824.076	-0.05
824.247	-0.54
824.418	0.19
824.589	0.86
824.759	0.4
824.93	0.18
825.101	0.37
825.272	0.83
825.443	0.83
825.614	0.51
825.784	-0.83
825.955	0.86
826.126	0.93
826.297	0.62
826.467	1.4
826.638	1.13
826.809	-0.24
826.98	0.54
827.15	0.7
827.321	0.49
827.492	0.98
827.662	0.54
827.833	1.62
828.003	1.01
828.174	-0.26
828.345	-0.67
828.515	0.86
828.686	0.54
828.856	-0.08
829.027	0.49
829.197	0.53
829.368	0.61
829.538	-0.05
829.709	0.07
829.879	0.6
830.049	0.47
830.22	0.44
830.39	0.7
830.56	1.12
830.731	0.11
830.901	-0.15
831.072	0.02
831.242	0.37
831.412	1.38
831.582	0.06
831.753	0.06
831.923	1.15
832.093	0.44
832.263	0.37
832.434	0.01
832.604	0.29
832.774	0.99
832.944	0.43
833.114	0.39
833.284	0.74
833.454	-0.25
833.624	0.13
833.795	-0.38
833.965	0.8
834.135	1.05
834.305	-0.42
834.475	-0.23
834.645	0.31
834.815	0.49
834.985	0.07
835.155	0.25
835.325	0.48
835.494	1.07
835.664	0.45
835.834	-0.89
836.004	0.38
836.174	1.04
836.344	0.2
836.514	0.13
836.684	0.29
836.853	0.85
837.023	0.8
837.193	-0.12
837.363	1.05
837.532	1.27
837.702	0.46
837.872	0.28
838.041	1.21
838.211	2.29
838.381	0.19
838.55	0.6
838.72	1.64
838.89	1.33
839.059	0.03
839.229	-0.13
839.398	1.95
839.568	1.13
839.738	0.45
839.907	1.61
840.077	0.65
840.246	0.01
840.416	-0.17
840.585	0.07
840.755	1.36
840.924	0.82
841.093	-0.37
841.263	-0.37
841.432	1.25
841.602	-0.27
841.771	0.09
841.94	1.13
842.11	1.57
842.279	1.52
842.448	0.23
842.617	-0.15
842.787	1.57
842.956	0.3
843.125	-0.01
843.294	0.91
843.464	2.03
843.633	1.14
843.802	-0.27
843.971	0.12
844.14	0.52
844.309	0.64
844.479	0.04
844.648	0.05
844.817	0.55
844.986	0.75
845.155	0.55
845.324	-0.03
845.493	0.61
845.662	-0.17
845.831	1.13
846	1.26
846.169	1.13
846.338	1.79
846.507	1.1
846.676	0.8
846.844	0.49
847.013	1.94
847.182	0.61
847.351	1.16
847.52	-0.25
847.689	0.97
847.858	0.44
848.026	1.4
848.195	0.42
848.364	0.02
848.533	-0.42
848.701	0.23
848.87	-0.86
849.039	1.2
849.207	1.97
849.376	1.15
849.545	2.35
849.713	0.27
849.882	-0.22
850.051	0.89
850.219	0.9
850.388	1.08
850.556	-0.44
850.725	-0.12
850.893	1.72
851.062	1.04
851.23	0.98
851.399	0.04
851.567	-0.66
851.736	0.59
851.904	0.09
852.073	1.14
852.241	1.45
852.41	0.91
852.578	0.78
852.746	0.58
852.915	1.78
853.083	0.57
853.251	-0.26
853.42	-0.18
853.588	1.05
853.756	1.77
853.924	0.46
854.093	0.85
854.261	0.31
854.429	0
854.597	0.72
854.765	-0.83
854.934	0.73
855.102	1.07
855.27	1.37
855.438	1.44
855.606	1.4
855.774	1.55
855.942	-1.04
856.11	-1.23
856.278	0.95
856.446	1.18
856.614	0.95
856.782	0.18
856.95	2.24
857.118	2.36
857.286	1.52
857.454	-0.59
857.622	0.95
857.79	1.46
857.958	0.73
858.126	0.82
858.294	-1.94
858.462	1.84
858.629	0.63
858.797	0.6
858.965	0.84
859.133	0.64
859.301	1.1
859.468	1.36
859.636	0.96
859.804	2.64
859.971	2.1
860.139	0.18
860.307	1.92
860.474	1.05
860.642	0.7
860.81	-0.04
860.977	-0.23
861.145	2.64
861.313	0.95
861.48	0.23
861.648	2.2
861.815	0.53
861.983	-1.58
862.15	-0.33
862.318	1.44
862.485	1.03
862.653	0.46
862.82	-0.39
862.988	2.18
863.155	1.73
863.322	-0.21
863.49	1.05
863.657	0.16
863.824	1.93
863.992	0.99
864.159	2
864.326	2.73
864.494	-0.23
864.661	2.77
864.828	-0.06
864.996	4.01
865.163	2.53
865.33	-0.07
865.497	-2.31
865.664	0.37
865.832	-0.5
865.999	0.59
866.166	-0.17
866.333	0.89
866.5	0.82
866.667	1.19
866.834	0.64
867.001	2.48
867.168	-1.5
867.335	1.4
867.502	-1.06
867.669	0.9
867.836	3.16
868.003	1.41
868.17	2.8
868.337	-0.11
868.504	2.86
868.671	-1.61
868.838	-0.38
869.005	1.18
869.172	1.38
869.339	1.67
869.505	0.54
869.672	1.71
869.839	2.6
870.006	1.93
870.173	-0.34
870.339	1.41
870.506	3.37
870.673	-0.85
870.84	1.36
871.006	1.15
871.173	1.54
871.34	1.46
871.506	0.66
871.673	1.58
871.839	-0.19
872.006	1.4
872.173	0.65
872.339	0.09
872.506	2.01
872.672	0.77
872.839	-2.74
873.005	2.92
873.172	5.01
873.338	1.34
873.505	0.12
873.671	1.22
873.838	1.94
874.004	-0.3
874.171	0.54
874.337	2.58
874.503	2.95
874.67	1.64
874.836	1.18
875.002	3
875.169	0.62
875.335	1.46
875.501	0.94
875.668	1.31
875.834	2.1
876	0.49
876.166	2.37
876.332	3.62
876.499	4.01
876.665	1.42
876.831	1.18
876.997	3.28
877.163	3.09
877.329	-0.29
877.495	0.67
877.662	1.75
877.828	2
877.994	-0.77
878.16	-1.42
878.326	0.97
878.492	1.56
878.658	-0.1
878.824	2.9
878.99	1.74
879.156	2.8
879.322	4.06
879.487	1.63
879.653	1.2
879.819	2.21
879.985	0.96
880.151	3.91
880.317	1.84
880.483	1
880.648	2.79
880.814	-2.05
880.98	4.24
881.146	-0.8
881.312	-0.12
881.477	1.12
881.643	2.08
881.809	4.08
881.974	1.94
882.14	0.31
882.306	2.89
882.471	3.4
882.637	1.72
882.803	1.58
882.968	4.33
883.134	5.43
883.299	2.7
883.465	3.31
883.63	1.5
883.796	2.34
883.961	2.68
884.127	2.46
884.292	-2.37
884.458	-0.92
884.623	-0.91
