Data from Apollo_Calib_20240827__AbsoluteIrradiance__655__10-04-01-667.txt Node

Date: Wed Aug 28 10:04:01 BST 2024
User: biology
Spectrometer: FLMT08252
Trigger mode: 0
Integration Time (sec): 5.000000E-1
Scans to average: 5
Electric dark correction enabled: true
Nonlinearity correction enabled: false
Boxcar width: 0
XAxis mode: Wavelengths
Number of Pixels in Spectrum: 3648
>>>>>Begin Spectral Data<<<<<
179.588	-0
179.809	-0
180.03	-0
180.251	-0
180.473	-0
180.694	0
180.915	0
181.136	-0
181.357	0
181.578	-0
181.799	-0
182.02	-0
182.241	0
182.462	-0
182.683	0
182.904	-0
183.125	-0
183.346	0
183.567	0
183.788	-0
184.009	-0
184.23	0
184.451	0
184.672	-0
184.892	-0
185.113	0
185.334	0
185.555	-0
185.776	-0
185.996	0
186.217	-0
186.438	0
186.659	-0
186.879	0
187.1	0
187.321	-0
187.541	-0
187.762	0
187.983	0
188.203	0
188.424	0
188.644	-0
188.865	0
189.086	-0
189.306	-0
189.527	0
189.747	-0
189.968	-0
190.188	0
190.409	0
190.629	0
190.849	-0
191.07	-0
191.29	0
191.511	0
191.731	-0
191.951	-0
192.172	-0
192.392	0
192.612	-0
192.833	-0
193.053	0
193.273	0
193.493	-0
193.714	-0
193.934	0
194.154	0
194.374	0
194.594	-0
194.815	-0
195.035	0
195.255	-0
195.475	-0
195.695	0
195.915	0
196.135	-0
196.355	0
196.575	0
196.795	0
197.015	-0
197.235	0
197.455	0
197.675	-0
197.895	-0
198.115	-0
198.335	0
198.555	-0
198.775	0
198.995	0
199.214	0
199.434	0
199.654	-0
199.874	-0
200.094	0.97
200.313	-0.24
200.533	0.14
200.753	-0.4
200.973	0.7
201.192	0.43
201.412	-0.76
201.632	-0.15
201.851	0.68
202.071	-0.19
202.291	-0.37
202.51	-0.54
202.73	0.42
202.95	0.13
203.169	-0.31
203.389	0.11
203.608	-0.02
203.828	-0.42
204.047	0.08
204.267	0.09
204.486	-0.02
204.706	0.01
204.925	-0.15
205.145	-0.45
205.364	0.62
205.583	0.8
205.803	0.09
206.022	-0.53
206.242	-0.02
206.461	0.06
206.68	-0.61
206.9	0.23
207.119	0.41
207.338	0.63
207.557	-0.17
207.777	0.16
207.996	0.02
208.215	0.54
208.434	-0.16
208.654	-0.15
208.873	0.22
209.092	0.77
209.311	-0.21
209.53	0.05
209.749	0.03
209.968	-0.07
210.187	0.01
210.407	-0.3
210.626	0.2
210.845	0.2
211.064	-0.22
211.283	-0.35
211.502	0.02
211.721	0.09
211.94	-0.05
212.159	0.23
212.377	0.03
212.596	0.36
212.815	0.01
213.034	0.14
213.253	0.29
213.472	0.06
213.691	-0.18
213.91	-0.2
214.128	0.04
214.347	0.24
214.566	-0.37
214.785	-0.3
215.003	0.15
215.222	0.11
215.441	0.08
215.66	-0.17
215.878	0.09
216.097	-0.11
216.316	-0.21
216.534	-0.08
216.753	0.1
216.972	-0.11
217.19	0.08
217.409	-0.15
217.627	-0.21
217.846	-0.09
218.064	0.07
218.283	-0.04
218.501	0.17
218.72	0.09
218.938	-0.24
219.157	-0.25
219.375	0.16
219.594	0.18
219.812	-0.12
220.031	-0.03
220.249	0.33
220.467	0.23
220.686	-0.05
220.904	-0.05
221.122	-0.22
221.341	0.22
221.559	0.07
221.777	-0.16
221.995	0.03
222.214	0.29
222.432	-0.18
222.65	0.24
222.868	0.09
223.086	0.12
223.305	0.08
223.523	-0.03
223.741	0.36
223.959	0.01
224.177	-0.18
224.395	0.01
224.613	0.04
224.831	0.01
225.049	-0.09
225.267	-0.12
225.485	0.06
225.703	0.05
225.921	0.07
226.139	-0.09
226.357	0.15
226.575	0.14
226.793	-0.11
227.011	0.44
227.229	0.01
227.447	0.25
227.665	-0.04
227.883	-0.2
228.1	0.01
228.318	-0.03
228.536	-0.3
228.754	-0.15
228.972	0.03
229.189	0.11
229.407	0.09
229.625	-0.02
229.843	0.15
230.06	0.04
230.278	-0.22
230.496	-0.08
230.713	-0.03
230.931	0.15
231.149	-0.12
231.366	-0.2
231.584	-0.02
231.801	0.24
232.019	-0.01
232.236	-0.05
232.454	-0.09
232.671	0.02
232.889	-0.05
233.106	-0.11
233.324	-0.03
233.541	-0.04
233.759	-0.04
233.976	-0.06
234.194	0.02
234.411	0.13
234.628	-0.02
234.846	-0.09
235.063	0.01
235.28	0.04
235.498	-0.04
235.715	-0.17
235.932	0.09
236.149	0
236.367	-0.02
236.584	0.15
236.801	-0.05
237.018	0.08
237.236	-0.03
237.453	-0.21
237.67	-0
237.887	0.02
238.104	-0.01
238.321	-0.06
238.538	-0.03
238.755	0.18
238.973	-0.16
239.19	-0.05
239.407	0.04
239.624	0.01
239.841	-0.08
240.058	-0.12
240.275	0.1
240.492	-0
240.709	0.06
240.925	-0.11
241.142	0
241.359	-0.05
241.576	-0.09
241.793	-0.09
242.01	-0.1
242.227	0.05
242.444	0.07
242.66	0.06
242.877	0.05
243.094	0.02
243.311	0.09
243.527	0.02
243.744	0.03
243.961	0.1
244.178	-0.1
244.394	-0.06
244.611	0.15
244.828	0.13
245.044	-0.22
245.261	0.01
245.477	-0.07
245.694	0.04
245.911	-0.02
246.127	0.08
246.344	0.18
246.56	0.04
246.777	-0.06
246.993	-0.01
247.21	-0.01
247.426	-0.03
247.643	-0.07
247.859	-0.03
248.076	-0.03
248.292	0.22
248.508	-0.07
248.725	0.03
248.941	0.08
249.157	0.09
249.374	0.02
249.59	0.03
249.806	0.02
250.023	0.03
250.239	-0.03
250.455	-0.03
250.671	-0.02
250.888	0.01
251.104	0.01
251.32	-0.06
251.536	-0.03
251.752	-0.06
251.969	0.01
252.185	-0.04
252.401	0.12
252.617	-0.01
252.833	-0.01
253.049	0.02
253.265	-0.05
253.481	0.01
253.697	-0.02
253.913	-0.13
254.129	0.03
254.345	0.03
254.561	-0.09
254.777	-0.01
254.993	0.08
255.209	0
255.425	-0.07
255.641	-0.04
255.857	0.1
256.073	0.01
256.288	-0.09
256.504	0.02
256.72	-0.06
256.936	0.15
257.152	0.03
257.367	-0.08
257.583	0.02
257.799	0.03
258.015	-0.05
258.23	0.01
258.446	0.12
258.662	0.08
258.877	-0.09
259.093	-0.01
259.309	-0.01
259.524	0.03
259.74	-0.08
259.955	-0.06
260.171	-0.01
260.387	0.01
260.602	0.06
260.818	0.03
261.033	-0.07
261.249	-0.06
261.464	-0.06
261.68	-0.11
261.895	0.02
262.11	0.02
262.326	-0.03
262.541	-0.05
262.757	0.04
262.972	0.01
263.187	0.01
263.403	-0.06
263.618	0.04
263.833	-0.11
264.049	-0.08
264.264	0.04
264.479	0.01
264.694	0.13
264.91	-0.03
265.125	-0.07
265.34	0.09
265.555	0.14
265.77	0.05
265.986	-0.06
266.201	0
266.416	0.14
266.631	-0.06
266.846	0.02
267.061	0.04
267.276	0.01
267.491	-0.09
267.706	-0
267.921	0.05
268.136	0.01
268.351	0.02
268.566	-0.04
268.781	0.1
268.996	0.04
269.211	0.04
269.426	-0.1
269.641	-0.01
269.856	-0.05
270.071	-0.05
270.285	-0.09
270.5	0.09
270.715	0.03
270.93	0
271.145	-0.01
271.359	0.07
271.574	-0
271.789	-0.03
272.004	-0.04
272.218	-0.04
272.433	0.04
272.648	-0.03
272.862	0.07
273.077	-0.05
273.292	-0.01
273.506	-0.05
273.721	0.03
273.936	0.07
274.15	0.08
274.365	0.01
274.579	0.05
274.794	0.08
275.008	0.1
275.223	-0.1
275.437	-0.04
275.652	0.06
275.866	0.05
276.081	-0.03
276.295	0.04
276.509	0.02
276.724	-0.03
276.938	0.01
277.153	0.05
277.367	0.05
277.581	-0.02
277.796	0.01
278.01	-0.07
278.224	0.09
278.438	0.17
278.653	-0.08
278.867	-0.03
279.081	-0.15
279.295	-0.01
279.51	0.04
279.724	-0.11
279.938	0.05
280.152	0.03
280.366	-0.05
280.58	0.08
280.794	0.06
281.008	-0
281.222	0.1
281.437	0.14
281.651	0.03
281.865	0.07
282.079	-0.03
282.293	-0.11
282.507	-0.05
282.721	-0.04
282.935	0
283.148	-0.07
283.362	-0.02
283.576	-0.08
283.79	0.03
284.004	-0.01
284.218	0.07
284.432	-0.04
284.646	0.01
284.859	-0.01
285.073	-0.03
285.287	0.06
285.501	0.02
285.714	-0.02
285.928	-0.04
286.142	0.04
286.356	-0.05
286.569	-0.01
286.783	0.08
286.997	0.05
287.21	0.02
287.424	0.06
287.637	0.01
287.851	-0.04
288.065	0.03
288.278	-0.03
288.492	0.02
288.705	0.05
288.919	0.06
289.132	-0.05
289.346	0.06
289.559	-0.08
289.773	-0.04
289.986	-0.03
290.2	0.01
290.413	0.09
290.626	-0.04
290.84	-0
291.053	-0.02
291.267	0.05
291.48	-0.03
291.693	-0.02
291.906	-0.02
292.12	-0.04
292.333	-0.05
292.546	-0.01
292.76	0.11
292.973	0.05
293.186	0.06
293.399	-0.04
293.612	0.07
293.826	-0.03
294.039	-0.01
294.252	0.02
294.465	0.03
294.678	-0.01
294.891	-0
295.104	-0.05
295.317	-0.03
295.53	0.05
295.743	0.01
295.956	-0.01
296.169	0.07
296.382	0.05
296.595	0.02
296.808	-0
297.021	0.06
297.234	-0
297.447	-0.01
297.66	0.02
297.873	0.07
298.086	0.06
298.299	-0.04
298.511	-0.04
298.724	-0.03
298.937	-0.01
299.15	0.01
299.363	-0.01
299.575	0.04
299.788	0.01
300.001	0.02
300.213	-0.06
300.426	-0.02
300.639	-0.02
300.852	-0.03
301.064	0.05
301.277	0.1
301.489	0.04
301.702	0
301.915	0
302.127	0.02
302.34	0.03
302.552	0.02
302.765	-0.04
302.977	0.06
303.19	-0.02
303.402	-0.04
303.615	-0.02
303.827	-0.01
304.04	-0.02
304.252	-0
304.464	-0.03
304.677	0.11
304.889	0.05
305.102	-0.02
305.314	0.02
305.526	0.05
305.739	0.05
305.951	-0.01
306.163	0.01
306.375	0.09
306.588	-0.03
306.8	-0.01
307.012	-0.05
307.224	0.03
307.436	0.03
307.649	-0.04
307.861	0
308.073	0.07
308.285	-0.01
308.497	-0.05
308.709	-0.01
308.921	0.02
309.133	0.07
309.346	-0.01
309.558	0.02
309.77	0.03
309.982	0.07
310.194	0.02
310.406	0.01
310.617	0.1
310.829	0.04
311.041	0.01
311.253	-0.03
311.465	0
311.677	-0.01
311.889	0.06
312.101	0.01
312.313	0.03
312.524	0.06
312.736	-0.06
312.948	0.02
313.16	0.08
313.372	0.07
313.583	0.04
313.795	0.03
314.007	-0.03
314.218	0.06
314.43	0.05
314.642	-0.02
314.853	-0.02
315.065	0.05
315.277	-0
315.488	0.04
315.7	0.05
315.912	0.03
316.123	-0
316.335	0.03
316.546	0.11
316.758	-0.01
316.969	-0.02
317.181	0.03
317.392	0.02
317.604	0.03
317.815	-0.04
318.026	-0.02
318.238	-0.04
318.449	0.01
318.661	-0.06
318.872	-0.06
319.083	-0.05
319.295	0.04
319.506	-0.02
319.717	-0.01
319.929	0.02
320.14	0.02
320.351	0.01
320.562	-0.04
320.774	0.01
320.985	0.01
321.196	-0.08
321.407	-0.05
321.618	0.02
321.829	0.03
322.041	0.04
322.252	0.02
322.463	0.02
322.674	0.04
322.885	-0.02
323.096	-0.02
323.307	0
323.518	0.04
323.729	-0.04
323.94	-0.03
324.151	-0.01
324.362	0.03
324.573	-0.01
324.784	-0.03
324.995	0.07
325.206	0.02
325.417	-0.03
325.628	0.01
325.838	0.03
326.049	0
326.26	0.05
326.471	0
326.682	-0.02
326.892	0.02
327.103	-0.05
327.314	-0.01
327.525	0.07
327.735	-0
327.946	-0.02
328.157	-0.04
328.368	0.02
328.578	-0.03
328.789	0.05
328.999	0.01
329.21	-0.07
329.421	0.03
329.631	-0.05
329.842	-0.04
330.052	0.01
330.263	0.02
330.473	0
330.684	-0.02
330.894	-0.03
331.105	0.03
331.315	-0.02
331.526	-0.04
331.736	0.07
331.947	0.05
332.157	0.01
332.367	-0.04
332.578	0.04
332.788	0.02
332.999	0
333.209	0.05
333.419	-0.04
333.629	0.04
333.84	-0.02
334.05	-0.02
334.26	0.04
334.47	0.01
334.681	0.02
334.891	-0.01
335.101	0.02
335.311	0.06
335.521	-0.01
335.732	-0.06
335.942	0.1
336.152	0.03
336.362	0.03
336.572	0
336.782	0.04
336.992	-0.03
337.202	-0.02
337.412	-0.05
337.622	0.04
337.832	-0.01
338.042	-0.03
338.252	-0.03
338.462	-0.06
338.672	0.03
338.882	-0.02
339.092	0.03
339.302	0.07
339.511	0.03
339.721	-0.03
339.931	-0.04
340.141	0.06
340.351	0.05
340.561	-0.01
340.77	0.03
340.98	-0.04
341.19	0.05
341.4	-0.01
341.609	-0.08
341.819	0.01
342.029	-0.06
342.238	-0.02
342.448	-0.05
342.658	0.03
342.867	-0.01
343.077	0.05
343.286	0.03
343.496	0.01
343.706	0.06
343.915	-0.06
344.125	0.07
344.334	0.02
344.544	-0.04
344.753	0
344.963	0.01
345.172	-0.04
345.381	-0.03
345.591	0.01
345.8	0.04
346.01	0.1
346.219	0.07
346.428	-0.09
346.638	0.01
346.847	0.04
347.056	0.04
347.266	-0
347.475	-0.01
347.684	0.01
347.893	0
348.103	0.02
348.312	-0
348.521	-0.03
348.73	-0.04
348.94	-0.01
349.149	0.01
349.358	-0.02
349.567	0
349.776	-0.02
349.985	-0.01
350.194	0.05
350.403	0.06
350.612	-0.07
350.821	-0.01
351.03	0.03
351.239	-0.02
351.448	0.01
351.657	-0.03
351.866	0.11
352.075	0.04
352.284	0.02
352.493	-0.04
352.702	0.04
352.911	0.05
353.12	0.04
353.329	-0.02
353.538	0.03
353.746	0.03
353.955	-0.02
354.164	-0.01
354.373	0
354.582	0.04
354.79	-0.02
354.999	0.03
355.208	-0
355.416	0.06
355.625	-0.01
355.834	-0.01
356.042	-0
356.251	-0.02
356.46	-0.01
356.668	0.01
356.877	0.03
357.085	0.07
357.294	-0.06
357.503	0.01
357.711	-0
357.92	0.14
358.128	0
358.337	-0
358.545	0
358.754	0.01
358.962	0.03
359.17	-0.03
359.379	0.02
359.587	0.01
359.796	-0.01
360.004	0.04
360.212	-0
360.421	0.05
360.629	0
360.837	-0.01
361.046	-0.01
361.254	0.09
361.462	0.03
361.67	0.01
361.879	0.01
362.087	0.11
362.295	0.05
362.503	-0.02
362.711	-0.08
362.92	-0.04
363.128	-0
363.336	-0.02
363.544	-0.05
363.752	-0.06
363.96	-0.04
364.168	0
364.376	0.04
364.584	0.01
364.792	-0.02
365	0
365.208	0.02
365.416	-0
365.624	0.04
365.832	-0.04
366.04	0.05
366.248	0.06
366.456	0.03
366.664	-0.02
366.872	0.02
367.079	0.02
367.287	0.03
367.495	0.04
367.703	-0.01
367.911	-0.04
368.118	-0
368.326	-0.02
368.534	-0.03
368.742	0.07
368.949	-0.04
369.157	-0.04
369.365	0.01
369.572	-0.02
369.78	-0.05
369.988	0.07
370.195	-0
370.403	0.07
370.61	-0.02
370.818	0.01
371.026	0.04
371.233	-0.03
371.441	0.01
371.648	-0
371.856	0.03
372.063	0.03
372.271	-0.03
372.478	-0.03
372.685	-0.01
372.893	0.05
373.1	0.01
373.308	-0.04
373.515	0.08
373.722	0.03
373.93	-0.02
374.137	0.07
374.344	0.05
374.552	0.03
374.759	-0
374.966	0.04
375.173	-0.03
375.381	0.04
375.588	0.02
375.795	-0.1
376.002	-0.01
376.209	-0.05
376.417	-0.02
376.624	0.04
376.831	0.04
377.038	0.01
377.245	-0.06
377.452	0.02
377.659	0.02
377.866	-0.03
378.073	-0
378.28	-0.02
378.487	0.03
378.694	0.01
378.901	-0
379.108	-0.03
379.315	0.04
379.522	0.07
379.729	0
379.936	-0.04
380.143	-0.01
380.35	0.01
380.557	-0.03
380.763	0.03
380.97	-0.02
381.177	0.03
381.384	0.03
381.591	-0.02
381.797	0.03
382.004	0.06
382.211	0.01
382.418	-0.01
382.624	0.05
382.831	0.04
383.038	0
383.244	0.01
383.451	0.01
383.658	0.04
383.864	-0.03
384.071	-0.05
384.277	0.06
384.484	-0.02
384.69	0.02
384.897	-0.06
385.103	-0.06
385.31	-0.03
385.516	-0.05
385.723	-0.03
385.929	0.01
386.136	-0.04
386.342	0.01
386.549	-0.03
386.755	0.05
386.961	-0.01
387.168	-0
387.374	0
387.58	0.01
387.787	-0.02
387.993	0.01
388.199	-0.01
388.406	-0.05
388.612	-0
388.818	-0.02
389.024	-0.03
389.231	0
389.437	0.04
389.643	0.05
389.849	0.03
390.055	0.04
390.261	0.01
390.467	-0.01
390.674	-0.04
390.88	-0
391.086	0.02
391.292	-0.02
391.498	0.03
391.704	0
391.91	0.04
392.116	0.02
392.322	-0.09
392.528	0.01
392.734	-0.01
392.94	0
393.146	-0
393.352	-0.01
393.557	-0.04
393.763	0.01
393.969	0
394.175	0
394.381	0.01
394.587	-0.06
394.792	-0.03
394.998	-0.02
395.204	0.03
395.41	-0.02
395.615	0.03
395.821	-0
396.027	-0.01
396.233	-0.03
396.438	0.02
396.644	0.04
396.85	0.03
397.055	0.01
397.261	0.01
397.466	0.07
397.672	0
397.878	0.04
398.083	-0.01
398.289	-0.02
398.494	0.02
398.7	0
398.905	-0.05
399.111	0.07
399.316	-0.07
399.522	-0.03
399.727	0.01
399.932	-0.02
400.138	-0.02
400.343	0.06
400.549	-0.02
400.754	-0.01
400.959	-0.01
401.165	-0.03
401.37	0.03
401.575	0
401.78	0.01
401.986	-0.09
402.191	-0.01
402.396	0.05
402.601	0.06
402.807	0.01
403.012	0.01
403.217	-0
403.422	-0.02
403.627	-0.03
403.832	-0.04
404.037	0.01
404.243	0.04
404.448	-0.02
404.653	-0.04
404.858	0.03
405.063	0.05
405.268	-0.06
405.473	-0
405.678	-0.03
405.883	0.09
406.088	-0
406.293	-0.1
406.498	-0.04
406.703	-0.01
406.907	-0.03
407.112	-0.06
407.317	-0.01
407.522	0.05
407.727	-0.05
407.932	0.02
408.136	0.06
408.341	-0
408.546	0.04
408.751	-0.02
408.956	0.02
409.16	0.03
409.365	0.02
409.57	0
409.774	0.02
409.979	0
410.184	0.01
410.388	-0.02
410.593	0.06
410.798	0.01
411.002	-0.09
411.207	0.01
411.411	0.06
411.616	-0.02
411.82	0.01
412.025	0.02
412.229	-0.04
412.434	0.09
412.638	0.01
412.843	0.02
413.047	0.02
413.252	0.01
413.456	-0.01
413.66	0.03
413.865	-0.02
414.069	0.05
414.273	-0.06
414.478	-0.05
414.682	-0
414.886	-0.03
415.091	-0.05
415.295	-0.08
415.499	-0.01
415.703	-0.04
415.908	0.02
416.112	-0.07
416.316	0.04
416.52	-0.02
416.724	-0.08
416.929	-0.06
417.133	0.1
417.337	-0.02
417.541	-0.02
417.745	0.02
417.949	0.02
418.153	-0.01
418.357	-0.08
418.561	0.09
418.765	0.01
418.969	0.12
419.173	0.01
419.377	-0.05
419.581	0.08
419.785	-0.04
419.989	-0.06
420.193	-0.02
420.397	-0.04
420.601	0.05
420.804	0.01
421.008	-0.03
421.212	0.02
421.416	0.05
421.62	-0.02
421.823	-0.04
422.027	0.05
422.231	-0
422.435	-0.03
422.638	0
422.842	0.02
423.046	-0.01
423.249	0.03
423.453	0.02
423.657	0.02
423.86	0
424.064	-0.03
424.268	0.05
424.471	0.03
424.675	0.02
424.878	0.01
425.082	0.01
425.285	0.06
425.489	0
425.692	0.02
425.896	-0.08
426.099	-0
426.303	-0.05
426.506	-0.07
426.71	0.02
426.913	0.03
427.116	0.07
427.32	-0.01
427.523	0.01
427.726	0.04
427.93	-0.08
428.133	0.02
428.336	-0.02
428.54	-0.05
428.743	-0.02
428.946	0.04
429.149	-0.04
429.353	-0.02
429.556	-0.04
429.759	-0
429.962	-0.04
430.165	0.01
430.368	-0.05
430.571	-0.01
430.775	0.01
430.978	-0.04
431.181	0.04
431.384	0.02
431.587	-0.02
431.79	-0.05
431.993	0.01
432.196	-0.01
432.399	-0.03
432.602	0.09
432.805	0.01
433.008	0.01
433.211	-0.05
433.414	0
433.616	0
433.819	0.02
434.022	-0.09
434.225	0.11
434.428	-0.02
434.631	0.06
434.833	-0.02
435.036	-0.02
435.239	0.06
435.442	-0.02
435.645	-0.04
435.847	0.01
436.05	0.07
436.253	-0.07
436.455	-0.08
436.658	-0.01
436.861	0.05
437.063	-0.01
437.266	-0.02
437.468	0.02
437.671	0.14
437.874	0
438.076	-0.05
438.279	-0.07
438.481	-0.05
438.684	-0.07
438.886	0.03
439.089	-0.1
439.291	-0.01
439.494	0.03
439.696	-0.05
439.899	-0.02
440.101	0.04
440.303	-0.08
440.506	0.04
440.708	-0.08
440.91	0.02
441.113	-0.05
441.315	0.01
441.517	-0.05
441.72	0.03
441.922	0
442.124	-0.06
442.326	-0.01
442.529	0.04
442.731	-0.07
442.933	0.1
443.135	-0.02
443.337	-0.07
443.539	-0.02
443.742	-0.01
443.944	0.01
444.146	-0.05
444.348	-0.03
444.55	-0.01
444.752	0.03
444.954	-0.08
445.156	0.06
445.358	-0.04
445.56	0.05
445.762	-0.01
445.964	0.01
446.166	-0.02
446.368	-0.07
446.57	0.05
446.772	-0.02
446.974	-0.03
447.175	0.03
447.377	-0.03
447.579	-0.03
447.781	-0.07
447.983	0.07
448.184	-0.02
448.386	0.02
448.588	-0.07
448.79	0.02
448.991	-0.07
449.193	-0
449.395	-0.02
449.597	0.03
449.798	0
450	0
450.202	-0.03
450.403	-0.03
450.605	0.02
450.806	0.01
451.008	-0.06
451.21	0.02
451.411	-0.01
451.613	-0
451.814	-0
452.016	0.03
452.217	0.01
452.419	0.06
452.62	-0.04
452.821	0.02
453.023	0.03
453.224	0.05
453.426	-0.01
453.627	0.02
453.828	0.04
454.03	0.03
454.231	0.03
454.432	-0.05
454.634	0.1
454.835	-0.04
455.036	-0.05
455.238	0.02
455.439	0.1
455.64	-0.06
455.841	-0.05
456.042	0.08
456.244	0.04
456.445	-0.09
456.646	-0.06
456.847	-0.02
457.048	0.05
457.249	0.05
457.45	0.17
457.651	-0.05
457.852	0.1
458.054	0.03
458.255	-0.04
458.456	0.03
458.657	-0
458.858	-0.07
459.058	0.01
459.259	0.05
459.46	-0.02
459.661	-0.05
459.862	0.07
460.063	-0.04
460.264	0.03
460.465	-0.04
460.666	0.11
460.866	-0.04
461.067	0.04
461.268	0.02
461.469	0.02
461.67	-0.01
461.87	-0.01
462.071	-0.01
462.272	-0.03
462.473	0.04
462.673	0.04
462.874	-0.08
463.075	0
463.275	-0.04
463.476	-0.02
463.676	0.04
463.877	0.01
464.078	-0.05
464.278	0.02
464.479	-0.02
464.679	0.02
464.88	0.04
465.08	0.08
465.281	-0.02
465.481	-0.02
465.682	-0.03
465.882	0.02
466.083	-0.01
466.283	0.01
466.483	0.01
466.684	-0.02
466.884	0.01
467.085	-0
467.285	0.04
467.485	-0.04
467.686	-0.04
467.886	-0.05
468.086	-0.01
468.286	0.03
468.487	-0
468.687	-0.05
468.887	0.03
469.087	0.04
469.287	-0.01
469.488	-0.04
469.688	0.01
469.888	0.02
470.088	0.07
470.288	0.06
470.488	0.06
470.688	-0.05
470.888	-0.03
471.088	-0.04
471.288	0.06
471.488	0.04
471.688	-0.03
471.888	-0.02
472.088	0.03
472.288	0.01
472.488	-0.03
472.688	-0.03
472.888	0.02
473.088	0.01
473.288	0
473.488	0.02
473.688	0.08
473.887	-0.06
474.087	-0.01
474.287	0.01
474.487	-0.04
474.687	0.05
474.886	-0
475.086	0.01
475.286	0
475.486	-0.02
475.685	-0.02
475.885	-0.02
476.085	-0.01
476.284	0
476.484	-0.02
476.684	0
476.883	0.04
477.083	0
477.282	-0.02
477.482	0.04
477.681	0.07
477.881	-0.01
478.08	-0
478.28	-0.04
478.479	0.03
478.679	0.07
478.878	-0.04
479.078	-0.02
479.277	-0.03
479.477	0.01
479.676	0.03
479.875	-0.01
480.075	-0.07
480.274	0.01
480.473	0.06
480.673	-0.04
480.872	0.03
481.071	0.02
481.271	0.02
481.47	-0.03
481.669	-0.02
481.868	-0.03
482.067	-0.06
482.267	-0.02
482.466	-0.03
482.665	-0.02
482.864	-0.05
483.063	-0.01
483.262	0
483.461	0.04
483.661	-0
483.86	-0.02
484.059	-0.02
484.258	0.01
484.457	0.01
484.656	0.01
484.855	0.03
485.054	-0.05
485.253	-0.02
485.452	-0.02
485.651	0
485.849	-0
486.048	-0.01
486.247	-0.04
486.446	0.01
486.645	-0.05
486.844	-0.04
487.043	0
487.241	0.01
487.44	-0.03
487.639	-0.02
487.838	0.04
488.037	0
488.235	0.04
488.434	0
488.633	-0.02
488.831	0.02
489.03	0.02
489.229	0.01
489.427	0
489.626	0.05
489.825	0.04
490.023	0
490.222	0
490.42	0.01
490.619	0.03
490.817	-0
491.016	-0.01
491.214	0.05
491.413	-0.01
491.611	-0.04
491.81	-0.01
492.008	0.02
492.207	0.02
492.405	-0.01
492.604	-0.04
492.802	0.01
493	0
493.199	-0.03
493.397	0
493.595	-0
493.794	-0.03
493.992	0.04
494.19	-0
494.388	0.01
494.587	-0
494.785	0
494.983	-0.05
495.181	0.01
495.379	0
495.578	-0.04
495.776	0.01
495.974	0
496.172	-0.02
496.37	-0.03
496.568	-0.02
496.766	-0.03
496.964	0.01
497.162	-0.01
497.36	-0.02
497.558	0.01
497.756	0.03
497.954	-0.02
498.152	-0.03
498.35	-0.01
498.548	-0.02
498.746	-0.01
498.944	-0.02
499.142	0.01
499.34	-0.02
499.538	-0
499.736	-0.02
499.933	0.02
500.131	-0
500.329	0
500.527	0.02
500.725	0.02
500.922	0.02
501.12	-0.02
501.318	0.02
501.516	-0.02
501.713	-0
501.911	-0.01
502.109	-0.04
502.306	0.01
502.504	-0.02
502.701	-0.01
502.899	-0.01
503.097	0.01
503.294	0
503.492	-0.03
503.689	0.02
503.887	0
504.084	0.04
504.282	0
504.479	-0.03
504.677	0.01
504.874	-0.04
505.072	-0.01
505.269	-0.03
505.466	0.01
505.664	-0.02
505.861	-0.02
506.059	-0.06
506.256	0.01
506.453	-0.01
506.651	0.03
506.848	0.02
507.045	0.01
507.242	-0
507.44	-0.03
507.637	-0.01
507.834	-0.02
508.031	0.01
508.229	-0.03
508.426	-0
508.623	0
508.82	-0.03
509.017	-0.03
509.214	-0.01
509.411	0
509.608	-0.02
509.805	-0.01
510.003	-0
510.2	-0.02
510.397	0
510.594	-0.01
510.791	-0.02
510.988	0.01
511.184	0
511.381	0
511.578	-0
511.775	0.04
511.972	-0.02
512.169	-0.01
512.366	-0.01
512.563	-0
512.76	-0.01
512.956	0
513.153	-0
513.35	0
513.547	-0.01
513.744	-0.01
513.94	-0.04
514.137	-0
514.334	0.01
514.53	0.02
514.727	-0.01
514.924	0.03
515.12	-0.02
515.317	-0.03
515.514	0.01
515.71	-0.02
515.907	-0
516.103	-0.02
516.3	-0
516.497	0.02
516.693	0.01
516.89	-0.01
517.086	-0.03
517.283	0.04
517.479	0.01
517.676	-0.01
517.872	-0.02
518.068	-0.02
518.265	-0.01
518.461	-0.02
518.658	-0.03
518.854	0.02
519.05	0
519.247	-0.02
519.443	0.03
519.639	0.01
519.836	-0.01
520.032	0.01
520.228	-0.02
520.424	0.03
520.621	-0
520.817	-0.01
521.013	0
521.209	-0
521.405	0.05
521.601	-0.01
521.798	0.01
521.994	0.03
522.19	-0.03
522.386	-0
522.582	0.02
522.778	0.02
522.974	-0
523.17	-0.01
523.366	0
523.562	0.02
523.758	0.01
523.954	-0.04
524.15	-0.02
524.346	-0
524.542	-0.02
524.738	-0.01
524.934	-0.03
525.129	-0.09
525.325	0.03
525.521	0
525.717	0.02
525.913	-0.02
526.109	0.01
526.304	-0.02
526.5	0.01
526.696	0.02
526.892	0
527.087	0
527.283	-0.03
527.479	0.03
527.674	-0.02
527.87	-0.02
528.066	-0.04
528.261	0.01
528.457	-0
528.653	-0.02
528.848	-0.03
529.044	-0
529.239	0.01
529.435	0
529.63	-0
529.826	0.04
530.021	0
530.217	0
530.412	0.01
530.608	-0.02
530.803	0
530.999	0
531.194	-0.05
531.389	-0.01
531.585	-0.05
531.78	0
531.975	0.01
532.171	0.02
532.366	-0.01
532.561	0
532.757	-0.02
532.952	-0.02
533.147	0
533.342	-0.01
533.538	-0.02
533.733	0.04
533.928	-0
534.123	-0.01
534.318	-0.02
534.513	-0
534.709	0
534.904	-0.01
535.099	-0.01
535.294	-0
535.489	0.01
535.684	-0.03
535.879	-0.03
536.074	0
536.269	-0.03
536.464	0.01
536.659	-0.01
536.854	-0.02
537.049	-0.01
537.244	-0
537.439	-0.01
537.634	0.01
537.828	-0
538.023	-0.01
538.218	-0.04
538.413	0.01
538.608	-0.03
538.803	0.02
538.997	-0.02
539.192	0.03
539.387	0.01
539.582	0.01
539.776	-0.02
539.971	-0.01
540.166	-0.01
540.36	-0.04
540.555	0
540.75	-0.01
540.944	-0.01
541.139	-0.03
541.334	-0.02
541.528	0.02
541.723	-0
541.917	-0.03
542.112	-0.03
542.306	-0.03
542.501	-0.01
542.695	0
542.89	-0.02
543.084	-0.01
543.279	-0.03
543.473	-0
543.668	-0.01
543.862	-0.01
544.056	0.01
544.251	-0.01
544.445	-0
544.64	-0.01
544.834	-0.03
545.028	0.01
545.222	-0.02
545.417	0.01
545.611	0
545.805	0
546	-0.01
546.194	0.01
546.388	-0.02
546.582	0.02
546.776	0.01
546.97	0
547.165	0.02
547.359	0.01
547.553	-0.02
547.747	0
547.941	-0
548.135	-0.01
548.329	0
548.523	0.02
548.717	-0.01
548.911	-0.01
549.105	-0
549.299	0.01
549.493	0.03
549.687	-0
549.881	0
550.075	-0.01
550.269	-0.01
550.463	0.01
550.657	-0.03
550.85	-0.01
551.044	-0.03
551.238	0.01
551.432	-0.02
551.626	-0.03
551.82	0.03
552.013	-0.04
552.207	0
552.401	0.01
552.594	-0
552.788	-0.01
552.982	-0.01
553.176	-0.02
553.369	0.03
553.563	0.03
553.756	-0.04
553.95	-0.04
554.144	-0.01
554.337	0.03
554.531	-0.01
554.724	0
554.918	-0.02
555.111	0.01
555.305	0
555.498	0.04
555.692	0.04
555.885	-0.01
556.079	0.01
556.272	-0.03
556.466	0.03
556.659	-0
556.852	-0.02
557.046	-0.01
557.239	0.02
557.432	-0.04
557.626	-0.02
557.819	0.01
558.012	0.03
558.206	0.03
558.399	-0.02
558.592	0.01
558.785	-0.02
558.979	0.02
559.172	-0.01
559.365	0.02
559.558	-0
559.751	0.01
559.944	-0.02
560.138	-0.01
560.331	-0
560.524	0.01
560.717	-0.01
560.91	-0.03
561.103	0
561.296	0.01
561.489	0.01
561.682	-0.02
561.875	0.03
562.068	0.03
562.261	0.01
562.454	0.03
562.647	-0.01
562.84	0.03
563.032	-0.02
563.225	0.01
563.418	-0.02
563.611	-0.02
563.804	-0.02
563.997	-0.04
564.19	-0.03
564.382	-0.06
564.575	-0.02
564.768	0.01
564.961	-0.02
565.153	-0.01
565.346	0.01
565.539	0.01
565.731	-0
565.924	0.03
566.117	0.03
566.309	-0
566.502	-0.02
566.695	-0.01
566.887	-0
567.08	-0.02
567.272	-0.02
567.465	-0.02
567.657	0
567.85	0.01
568.042	0.01
568.235	-0.01
568.427	-0.02
568.62	-0
568.812	0.01
569.005	0.01
569.197	-0.03
569.389	-0.01
569.582	-0
569.774	-0
569.966	-0.03
570.159	-0.02
570.351	-0.01
570.543	-0.04
570.736	-0.03
570.928	-0.03
571.12	0.01
571.312	-0.02
571.505	-0.04
571.697	0.01
571.889	-0.02
572.081	-0.02
572.273	-0.04
572.465	0.02
572.658	0.01
572.85	-0.01
573.042	-0.01
573.234	0
573.426	0.04
573.618	-0.03
573.81	-0
574.002	0.02
574.194	0.03
574.386	-0.03
574.578	-0.06
574.77	-0.03
574.962	0.01
575.154	-0.07
575.346	-0.01
575.538	-0
575.729	-0.04
575.921	-0.01
576.113	-0.01
576.305	0.02
576.497	-0.02
576.689	0.01
576.88	-0.01
577.072	0.01
577.264	-0.01
577.456	-0.01
577.647	-0.09
577.839	-0
578.031	0.01
578.223	-0.05
578.414	-0.05
578.606	0.01
578.798	-0.01
578.989	-0.04
579.181	0.01
579.372	0
579.564	-0.02
579.755	0.01
579.947	0.01
580.139	0.02
580.33	-0.08
580.522	-0.01
580.713	-0.05
580.905	0
581.096	0.01
581.287	-0
581.479	-0.03
581.67	0.03
581.862	-0.02
582.053	-0.01
582.244	-0.06
582.436	-0.03
582.627	-0.02
582.818	-0.03
583.01	-0.04
583.201	0.01
583.392	0.03
583.583	-0.01
583.775	-0.02
583.966	-0.03
584.157	-0.05
584.348	-0.02
584.54	-0.03
584.731	0.02
584.922	-0
585.113	-0.04
585.304	0.01
585.495	-0
585.686	-0.01
585.877	-0
586.068	0.01
586.259	-0.01
586.45	-0
586.641	-0.02
586.832	-0.05
587.023	0
587.214	-0.04
587.405	-0.02
587.596	-0.05
587.787	0.02
587.978	-0
588.169	-0.03
588.36	-0.04
588.551	0.01
588.742	-0.04
588.932	0.02
589.123	-0.01
589.314	0.02
589.505	0.01
589.696	0
589.886	-0.03
590.077	-0.05
590.268	-0.01
590.458	-0.03
590.649	-0.03
590.84	0.02
591.03	-0.03
591.221	-0.05
591.412	-0.04
591.602	-0
591.793	0
591.984	-0.04
592.174	0
592.365	0.05
592.555	-0.04
592.746	-0
592.936	0.02
593.127	0.01
593.317	0.01
593.508	-0.02
593.698	-0.03
593.889	-0
594.079	-0
594.269	-0.03
594.46	-0
594.65	-0
594.84	-0.04
595.031	-0.05
595.221	-0.01
595.411	-0.05
595.602	-0
595.792	-0.02
595.982	-0.01
596.172	0.05
596.363	-0.02
596.553	0.03
596.743	-0.01
596.933	-0
597.123	0
597.314	-0.05
597.504	-0.05
597.694	0.04
597.884	0.01
598.074	-0.01
598.264	-0.01
598.454	0.02
598.644	-0.01
598.834	0
599.024	-0.03
599.214	-0.03
599.404	0.02
599.594	-0.03
599.784	-0.03
599.974	0.03
600.164	0.02
600.354	-0.05
600.544	-0.07
600.734	-0.01
600.924	0.01
601.114	-0.02
601.303	-0.01
601.493	0.01
601.683	-0.01
601.873	0.02
602.063	-0.08
602.252	0.01
602.442	-0.06
602.632	-0.01
602.821	-0.02
603.011	0.02
603.201	-0.01
603.39	-0.04
603.58	-0.04
603.77	0.01
603.959	0.04
604.149	-0.02
604.339	-0.02
604.528	0.03
604.718	0.01
604.907	-0
605.097	-0.02
605.286	-0.07
605.476	0
605.665	0.01
605.855	-0.02
606.044	0.05
606.234	-0
606.423	-0.03
606.612	-0.05
606.802	-0
606.991	0.01
607.181	-0
607.37	-0.04
607.559	-0.03
607.749	-0.05
607.938	-0.03
608.127	-0.01
608.316	-0.04
608.506	0
608.695	-0.02
608.884	-0.04
609.073	0
609.263	0.02
609.452	-0
609.641	0
609.83	-0.02
610.019	-0.01
610.208	-0.01
610.397	-0.01
610.586	0
610.775	-0.04
610.965	-0.02
611.154	-0.01
611.343	-0.01
611.532	-0.01
611.721	-0.03
611.91	-0.02
612.099	0
612.287	0
612.476	-0.04
612.665	0.01
612.854	-0.02
613.043	0.02
613.232	-0.01
613.421	-0.06
613.61	0.01
613.798	-0.04
613.987	0.02
614.176	-0.04
614.365	0.04
614.554	0
614.742	0.04
614.931	-0.02
615.12	0.01
615.309	-0.01
615.497	-0.02
615.686	-0.04
615.875	-0.03
616.063	-0
616.252	-0.05
616.44	-0.02
616.629	-0.01
616.818	0.02
617.006	-0.02
617.195	-0.01
617.383	0.01
617.572	-0
617.76	-0.06
617.949	-0.04
618.137	0.01
618.326	0.02
618.514	-0.06
618.703	-0.04
618.891	0.04
619.079	-0.05
619.268	0.03
619.456	-0
619.644	0.04
619.833	-0
620.021	-0.02
620.209	-0.05
620.398	0.01
620.586	0
620.774	0.01
620.962	0.01
621.151	0.02
621.339	-0.01
621.527	-0.04
621.715	-0.09
621.903	-0.03
622.092	-0.07
622.28	-0.02
622.468	-0.04
622.656	-0.01
622.844	0.02
623.032	-0.02
623.22	-0.06
623.408	0.02
623.596	-0.01
623.784	0.01
623.972	-0.03
624.16	-0.01
624.348	0.07
624.536	-0.03
624.724	-0.03
624.912	0.03
625.1	-0
625.288	-0.05
625.476	-0.03
625.664	-0.01
625.851	-0.06
626.039	-0.03
626.227	0.02
626.415	-0.04
626.603	-0.05
626.79	0.01
626.978	0.02
627.166	-0.04
627.354	-0.03
627.541	-0.04
627.729	-0.05
627.917	0.03
628.104	0.07
628.292	0
628.48	0.01
628.667	0
628.855	0.02
629.042	0.02
629.23	-0.03
629.418	-0
629.605	-0.02
629.793	-0.02
629.98	-0.04
630.168	-0.02
630.355	0.01
630.543	-0.01
630.73	-0.04
630.917	0.03
631.105	0.03
631.292	-0.02
631.48	-0.04
631.667	0.04
631.854	0.02
632.042	-0.03
632.229	-0.05
632.416	-0.02
632.604	-0.02
632.791	-0.01
632.978	0
633.165	0.02
633.353	0.05
633.54	0.04
633.727	-0.09
633.914	-0.03
634.101	0.04
634.289	0.02
634.476	-0.03
634.663	-0.04
634.85	-0
635.037	-0.02
635.224	-0.06
635.411	0.01
635.598	0.03
635.785	-0.01
635.972	-0.05
636.159	0.03
636.346	-0.05
636.533	-0.01
636.72	-0.04
636.907	0
637.094	0.03
637.281	-0.02
637.468	0.02
637.655	-0.02
637.842	0.01
638.029	-0.05
638.215	0
638.402	0.01
638.589	-0.01
638.776	0.02
638.963	-0.04
639.149	0.02
639.336	0.04
639.523	-0.02
639.709	-0.01
639.896	-0.02
640.083	0.05
640.27	-0.01
640.456	-0.04
640.643	0.01
640.829	-0.07
641.016	-0.03
641.203	-0.05
641.389	0.04
641.576	0
641.762	-0.01
641.949	-0.04
642.135	0
642.322	-0.01
642.508	-0.01
642.695	0.01
642.881	-0.04
643.068	-0.04
643.254	0
643.441	0.01
643.627	-0.04
643.813	-0.04
644	0.03
644.186	-0.05
644.372	-0.06
644.559	0.01
644.745	0
644.931	-0.01
645.118	0
645.304	0.02
645.49	-0.04
645.676	-0.02
645.862	0
646.049	0.04
646.235	-0.03
646.421	0.05
646.607	0.08
646.793	-0.02
646.979	-0.06
647.165	-0.02
647.352	-0.02
647.538	0.01
647.724	-0.03
647.91	0.01
648.096	0.02
648.282	0.04
648.468	-0
648.654	0
648.84	0.02
649.026	-0.01
649.212	0.01
649.397	-0.02
649.583	-0.02
649.769	-0.01
649.955	-0.02
650.141	0.01
650.327	0.03
650.513	0.01
650.698	0.02
650.884	-0.04
651.07	-0
651.256	0.01
651.442	-0.03
651.627	-0.01
651.813	0.03
651.999	-0.01
652.184	-0
652.37	0.01
652.556	-0.04
652.741	0.02
652.927	-0.06
653.113	-0.02
653.298	0.02
653.484	-0.01
653.669	-0.03
653.855	0.02
654.04	0.04
654.226	-0.03
654.412	-0.04
654.597	-0.03
654.782	0.02
654.968	0.04
655.153	0.02
655.339	-0
655.524	-0.07
655.71	0.02
655.895	-0.01
656.08	-0.01
656.266	0.05
656.451	0.03
656.636	-0.01
656.822	0.03
657.007	-0.03
657.192	-0.03
657.378	-0.07
657.563	0.01
657.748	0.02
657.933	-0.01
658.118	0.02
658.304	-0.01
658.489	0.04
658.674	0.04
658.859	-0.05
659.044	0.03
659.229	0.02
659.414	-0.01
659.599	0.02
659.785	-0.04
659.97	0
660.155	0.01
660.34	0.01
660.525	0.02
660.71	0
660.895	0.05
661.08	-0.01
661.264	-0.04
661.449	0.07
661.634	0.06
661.819	-0.01
662.004	-0.01
662.189	-0.08
662.374	0.03
662.559	-0.01
662.743	-0.04
662.928	0.02
663.113	-0.01
663.298	-0.06
663.483	-0.01
663.667	0.02
663.852	-0.01
664.037	0.06
664.221	-0.02
664.406	0.04
664.591	-0
664.775	0.01
664.96	0.04
665.145	0
665.329	0.01
665.514	-0.02
665.698	0.01
665.883	-0.06
666.068	0.06
666.252	0.01
666.437	-0.02
666.621	0.04
666.806	0.03
666.99	-0
667.174	-0.05
667.359	0.07
667.543	0.03
667.728	0.02
667.912	-0.03
668.096	0.07
668.281	0.01
668.465	0.04
668.649	-0.01
668.834	-0.02
669.018	0.02
669.202	0.01
669.387	0.02
669.571	0.06
669.755	0
669.939	0.01
670.124	0.02
670.308	0.08
670.492	0.08
670.676	0.04
670.86	0.02
671.044	0.02
671.228	0.09
671.413	-0.02
671.597	0.02
671.781	-0.03
671.965	0.04
672.149	0.03
672.333	0.03
672.517	0.01
672.701	0.05
672.885	-0.02
673.069	-0.04
673.253	0.12
673.437	-0.02
673.621	0.03
673.804	0.04
673.988	0.03
674.172	0.03
674.356	0
674.54	0.02
674.724	0.13
674.908	0.07
675.091	0.05
675.275	0.01
675.459	0.05
675.643	0.13
675.826	0.07
676.01	0.02
676.194	0.03
676.377	0.09
676.561	0.06
676.745	0.03
676.928	0.05
677.112	0.08
677.296	0.01
677.479	0.03
677.663	0.03
677.846	0.06
678.03	0.07
678.213	0.07
678.397	0.03
678.58	0.05
678.764	0.06
678.947	0.02
679.131	0.02
679.314	0.07
679.498	0.1
679.681	0.07
679.865	0.13
680.048	0.08
680.231	0.03
680.415	0.09
680.598	0.06
680.781	0.09
680.965	0.03
681.148	0.08
681.331	0.08
681.514	0.15
681.698	0.05
681.881	0.07
682.064	0.1
682.247	0.05
682.43	0.05
682.614	0.12
682.797	0.11
682.98	0.13
683.163	0.06
683.346	0.11
683.529	0.1
683.712	0.05
683.895	0.12
684.078	0.04
684.261	0.05
684.444	0.11
684.627	0.13
684.81	0.07
684.993	0.11
685.176	0.16
685.359	0.09
685.542	0.1
685.725	0.2
685.908	0.13
686.091	0.1
686.274	0.16
686.457	0.15
686.639	0.1
686.822	0.2
687.005	0.13
687.188	0.18
687.371	0.21
687.553	0.14
687.736	0.17
687.919	0.22
688.102	0.24
688.284	0.12
688.467	0.17
688.65	0.17
688.832	0.11
689.015	0.19
689.197	0.09
689.38	0.21
689.563	0.23
689.745	0.11
689.928	0.14
690.11	0.2
690.293	0.18
690.475	0.13
690.658	0.25
690.84	0.21
691.023	0.15
691.205	0.17
691.388	0.22
691.57	0.25
691.752	0.26
691.935	0.1
692.117	0.2
692.3	0.27
692.482	0.18
692.664	0.21
692.847	0.27
693.029	0.34
693.211	0.28
693.393	0.22
693.576	0.22
693.758	0.24
693.94	0.24
694.122	0.26
694.304	0.23
694.487	0.27
694.669	0.34
694.851	0.24
695.033	0.3
695.215	0.27
695.397	0.22
695.579	0.3
695.761	0.22
695.943	0.23
696.125	0.41
696.308	0.32
696.49	0.22
696.671	0.43
696.853	0.28
697.035	0.51
697.217	0.31
697.399	0.39
697.581	0.29
697.763	0.37
697.945	0.29
698.127	0.36
698.309	0.47
698.491	0.38
698.672	0.4
698.854	0.42
699.036	0.51
699.218	0.39
699.399	0.47
699.581	0.48
699.763	0.41
699.945	0.4
700.126	0.41
700.308	0.44
700.49	0.37
700.671	0.37
700.853	0.44
701.035	0.49
701.216	0.49
701.398	0.44
701.579	0.51
701.761	0.56
701.943	0.48
702.124	0.48
702.306	0.51
702.487	0.63
702.669	0.54
702.85	0.51
703.031	0.53
703.213	0.71
703.394	0.71
703.576	0.6
703.757	0.74
703.938	0.61
704.12	0.79
704.301	0.68
704.483	0.65
704.664	0.74
704.845	0.8
705.026	0.72
705.208	0.67
705.389	0.71
705.57	0.76
705.751	0.75
705.933	0.76
706.114	0.86
706.295	0.77
706.476	0.76
706.657	0.94
706.838	0.9
707.02	0.96
707.201	0.85
707.382	0.81
707.563	0.9
707.744	0.85
707.925	0.93
708.106	0.88
708.287	0.98
708.468	1.08
708.649	1.03
708.83	1.05
709.011	0.98
709.192	1.09
709.373	0.93
709.554	1.01
709.734	1.15
709.915	1.16
710.096	1.07
710.277	1.05
710.458	1.12
710.639	1.18
710.819	1.08
711	1.18
711.181	1.26
711.362	1.31
711.542	1.29
711.723	1.24
711.904	1.42
712.085	1.32
712.265	1.38
712.446	1.25
712.627	1.47
712.807	1.45
712.988	1.48
713.168	1.41
713.349	1.57
713.53	1.31
713.71	1.43
713.891	1.46
714.071	1.7
714.252	1.66
714.432	1.67
714.613	1.54
714.793	1.72
714.974	1.82
715.154	1.84
715.334	1.93
715.515	1.94
715.695	1.74
715.876	1.82
716.056	1.91
716.236	1.92
716.417	1.92
716.597	1.95
716.777	2.17
716.957	2.12
717.138	2.14
717.318	2.1
717.498	2.09
717.678	2.19
717.859	2.22
718.039	2.3
718.219	2.33
718.399	2.38
718.579	2.31
718.759	2.32
718.939	2.49
719.12	2.53
719.3	2.56
719.48	2.45
719.66	2.5
719.84	2.81
720.02	2.77
720.2	2.78
720.38	2.85
720.56	2.99
720.74	2.85
720.92	2.95
721.1	3.07
721.279	3.11
721.459	3.18
721.639	3.08
721.819	3.1
721.999	3.27
722.179	3.37
722.359	3.35
722.538	3.39
722.718	3.51
722.898	3.51
723.078	3.61
723.257	3.59
723.437	3.71
723.617	3.71
723.797	3.73
723.976	3.75
724.156	4.05
724.336	3.94
724.515	4.12
724.695	4.02
724.874	4.13
725.054	4.23
725.234	4.14
725.413	4.27
725.593	4.28
725.772	4.37
725.952	4.32
726.131	4.49
726.311	4.53
726.49	4.48
726.67	4.64
726.849	4.67
727.028	4.73
727.208	4.93
727.387	4.96
727.567	4.88
727.746	4.97
727.925	5.01
728.105	5
728.284	5.07
728.463	5.16
728.643	5.25
728.822	5.17
729.001	5.28
729.18	5.5
729.359	5.48
729.539	5.71
729.718	5.67
729.897	5.73
730.076	5.72
730.255	5.89
730.434	5.91
730.614	6.07
730.793	6.2
730.972	6.23
731.151	6.17
731.33	6.44
731.509	6.58
731.688	6.45
731.867	6.62
732.046	6.4
732.225	6.91
732.404	6.58
732.583	6.67
732.762	6.82
732.941	7.06
733.12	7.14
733.298	7.1
733.477	7.31
733.656	7.25
733.835	7.23
734.014	7.38
734.193	7.3
734.371	7.65
734.55	7.64
734.729	7.47
734.908	7.51
735.086	7.73
735.265	7.79
735.444	7.35
735.623	7.73
735.801	7.72
735.98	7.82
736.159	7.62
736.337	8.06
736.516	7.75
736.694	7.9
736.873	7.62
737.052	7.9
737.23	7.6
737.409	7.52
737.587	7.84
737.766	7.31
737.944	7.6
738.123	7.72
738.301	7.56
738.479	7.6
738.658	7.19
738.836	7.08
739.015	7.04
739.193	7.09
739.371	6.83
739.55	6.75
739.728	6.38
739.906	6.77
740.085	6.63
740.263	6.41
740.441	5.93
740.62	6.33
740.798	6.12
740.976	5.61
741.154	5.42
741.332	5.7
741.511	5.27
741.689	5.13
741.867	5.24
742.045	4.8
742.223	4.64
742.401	4.53
742.579	4.35
742.757	4.44
742.935	4.14
743.114	4.13
743.292	3.97
743.47	3.89
743.648	3.77
743.826	3.74
744.004	3.46
744.181	3.45
744.359	3.2
744.537	3.12
744.715	2.93
744.893	2.88
745.071	2.78
745.249	2.77
745.427	2.71
745.605	2.64
745.782	2.53
745.96	2.49
746.138	2.61
746.316	2.3
746.493	2.09
746.671	2.23
746.849	2
747.027	2.07
747.204	1.86
747.382	1.89
747.56	1.53
747.737	1.76
747.915	1.57
748.093	1.65
748.27	1.44
748.448	1.46
748.625	1.28
748.803	1.23
748.98	1.33
749.158	1.36
749.335	1.42
749.513	1.2
749.69	1.15
749.868	1.02
750.045	1.19
750.223	0.94
750.4	0.83
750.578	1.19
750.755	0.86
750.932	0.81
751.11	1.04
751.287	0.79
751.464	1.04
751.642	0.83
751.819	0.89
751.996	0.76
752.173	0.72
752.351	0.67
752.528	0.76
752.705	0.67
752.882	0.68
753.06	0.68
753.237	0.68
753.414	0.75
753.591	0.74
753.768	0.49
753.945	0.46
754.122	0.35
754.299	0.66
754.476	0.33
754.654	0.52
754.831	0.54
755.008	0.41
755.185	0.42
755.362	0.34
755.539	0.47
755.716	0.39
755.892	0.47
756.069	0.33
756.246	0.2
756.423	0.45
756.6	0.52
756.777	0.33
756.954	0.41
757.131	0.31
757.307	0.25
757.484	0.16
757.661	0.37
757.838	0.29
758.015	0.14
758.191	0.42
758.368	0.51
758.545	0.35
758.721	0.43
758.898	0.25
759.075	0.32
759.251	0.29
759.428	0.37
759.605	0.12
759.781	0.13
759.958	0.33
760.134	0.24
760.311	0.12
760.488	0.33
760.664	0.39
760.841	0.16
761.017	-0.01
761.194	0.24
761.37	0.25
761.547	0.17
761.723	0.1
761.899	0.16
762.076	0.17
762.252	0.02
762.429	0.1
762.605	0.32
762.781	0.11
762.958	0.21
763.134	0.04
763.31	-0.03
763.486	0.16
763.663	-0.1
763.839	0.13
764.015	0.08
764.191	0.03
764.368	0.04
764.544	0.07
764.72	0.11
764.896	0.14
765.072	0.14
765.248	0.12
765.425	0.02
765.601	0.09
765.777	0.08
765.953	-0.03
766.129	0.09
766.305	0.03
766.481	0.2
766.657	0.08
766.833	0.32
767.009	-0.17
767.185	0.01
767.361	0.08
767.537	-0.06
767.713	0.33
767.889	0.02
768.065	-0.09
768.24	0.14
768.416	0.17
768.592	-0.06
768.768	0.12
768.944	0.13
769.12	-0.03
769.295	-0.08
769.471	0.05
769.647	0.02
769.823	0.17
769.998	-0.04
770.174	0.01
770.35	0.3
770.525	0.26
770.701	0.04
770.877	0.05
771.052	0.02
771.228	0.12
771.403	-0.01
771.579	0.09
771.755	0.33
771.93	-0.03
772.106	-0.08
772.281	-0.21
772.457	0.15
772.632	0.12
772.808	-0.09
772.983	0.09
773.159	-0.13
773.334	0.34
773.509	0.11
773.685	-0.11
773.86	0.33
774.036	0.23
774.211	0
774.386	0.17
774.562	0.06
774.737	0.07
774.912	-0.07
775.087	0.15
775.263	-0.12
775.438	0.06
775.613	-0.1
775.788	-0.05
775.964	0.05
776.139	0.35
776.314	-0.17
776.489	-0.06
776.664	0.05
776.839	-0.04
777.014	0.24
777.19	0.08
777.365	0.28
777.54	0.19
777.715	0.05
777.89	-0.02
778.065	-0.27
778.24	0.06
778.415	0.16
778.59	-0.15
778.765	0.04
778.94	0.05
779.115	-0.18
779.289	0.03
779.464	0.12
779.639	-0
779.814	-0.12
779.989	-0.21
780.164	0.4
780.339	0.05
780.513	-0.14
780.688	-0.07
780.863	0.11
781.038	0.08
781.212	-0.02
781.387	-0.04
781.562	0.22
781.737	-0.19
781.911	-0.01
782.086	0
782.261	0.06
782.435	0.28
782.61	-0.01
782.784	-0.06
782.959	0.17
783.134	-0.16
783.308	-0.23
783.483	-0.03
783.657	0.35
783.832	0.12
784.006	-0.39
784.181	-0.02
784.355	0.06
784.53	-0.4
784.704	-0.13
784.878	0.2
785.053	0.14
785.227	0.4
785.402	0.28
785.576	-0.2
785.75	-0.15
785.925	-0.12
786.099	0.02
786.273	0.12
786.448	0.24
786.622	0.42
786.796	0.01
786.97	-0.07
787.145	0.34
787.319	-0.25
787.493	-0.18
787.667	-0.47
787.841	-0.1
788.015	-0.09
788.19	-0.07
788.364	0.25
788.538	0.05
788.712	0.34
788.886	0
789.06	0.17
789.234	0.13
789.408	-0.14
789.582	0.01
789.756	-0.08
789.93	-0.12
790.104	0.09
790.278	0.04
790.452	-0.25
790.626	0.24
790.8	-0.12
790.973	0.33
791.147	-0.06
791.321	0.22
791.495	0.19
791.669	-0.03
791.843	0
792.016	-0.11
792.19	0.28
792.364	-0.14
792.538	0.62
792.711	0.3
792.885	-0.09
793.059	-0.01
793.233	-0.53
793.406	0.19
793.58	0.18
793.754	0.11
793.927	0.07
794.101	0.31
794.274	-0.06
794.448	0.34
794.622	-0.31
794.795	0.25
794.969	-0.02
795.142	0.44
795.316	-0.08
795.489	-0.14
795.663	0.26
795.836	0.02
796.009	-0.17
796.183	0.12
796.356	0.26
796.53	-0.1
796.703	0.07
796.876	0.43
797.05	-0.12
797.223	-0.23
797.396	0.15
797.57	0.2
797.743	0.49
797.916	0.09
798.09	-0.14
798.263	0.29
798.436	-0.08
798.609	-0.26
798.782	-0.3
798.956	0.19
799.129	-0.06
799.302	-0.12
799.475	-0.3
799.648	-0.08
799.821	-0
799.994	0.07
800.167	-0.36
800.34	0.14
800.514	0.31
800.687	-0.15
800.86	-0.29
801.033	0.02
801.206	0.32
801.379	-0.43
801.551	0.22
801.724	0.03
801.897	0.31
802.07	-0.36
802.243	-0.59
802.416	-0.01
802.589	-0.16
802.762	0.25
802.935	-0.22
803.107	0.02
803.28	0.19
803.453	0.22
803.626	-0.18
803.798	-0.16
803.971	-0.23
804.144	-0.03
804.317	-0.02
804.489	0
804.662	0.15
804.835	0.07
805.007	-0.29
805.18	0.42
805.353	0.23
805.525	-0.61
805.698	-0.12
805.87	0.07
806.043	0.44
806.215	-0.43
806.388	-0.27
806.56	0.56
806.733	0.4
806.905	0.11
807.078	-0.3
807.25	-0.11
807.423	0.43
807.595	0
807.768	-0.1
807.94	0.55
808.112	0.06
808.285	0.26
808.457	-0.17
808.629	0.21
808.802	-0.03
808.974	-0.03
809.146	-0.13
809.318	0.07
809.491	-0.17
809.663	0.15
809.835	-0.23
810.007	-0.15
810.18	-0.06
810.352	-0.34
810.524	-0.24
810.696	-0.02
810.868	0.58
811.04	-0.2
811.212	-0.05
811.384	0.12
811.556	0.13
811.728	-0.04
811.901	0.67
812.073	0.02
812.245	0.45
812.417	0.13
812.589	-0.43
812.76	0.32
812.932	0.14
813.104	0.24
813.276	-0.24
813.448	0.13
813.62	-0.19
813.792	0.04
813.964	0.29
814.136	0.16
814.307	0.15
814.479	-0.04
814.651	-0.1
814.823	1.05
814.995	-0.29
815.166	-0.53
815.338	-0.21
815.51	-0.44
815.681	0.58
815.853	-0.24
816.025	-0.22
816.196	0.51
816.368	0.49
816.54	0
816.711	-0.35
816.883	0.43
817.054	0.89
817.226	-0.73
817.398	0.31
817.569	0.01
817.741	-0.03
817.912	0.15
818.084	-0.2
818.255	0.06
818.426	-0.37
818.598	-0.13
818.769	0.12
818.941	-0.07
819.112	0.55
819.283	0.18
819.455	-0.49
819.626	-0.14
819.798	0.15
819.969	-0.17
820.14	0.03
820.311	-0.1
820.483	0.51
820.654	0.09
820.825	-0.2
820.996	-0.26
821.168	-0.29
821.339	-0.04
821.51	-0.5
821.681	0.93
821.852	0.05
822.023	-0.59
822.195	-0.25
822.366	0.41
822.537	-0.34
822.708	0.11
822.879	-0.49
823.05	0.42
823.221	-0.34
823.392	0.23
823.563	-0.18
823.734	-0.26
823.905	-0.38
824.076	-0.31
824.247	-0.33
824.418	-0.13
824.589	0.5
824.759	0.12
824.93	0.03
825.101	-0.54
825.272	0.03
825.443	0.63
825.614	0.79
825.784	-1.26
825.955	0.95
826.126	0.78
826.297	-0.34
826.467	0.9
826.638	0.31
826.809	-0.56
826.98	-0.2
827.15	0.1
827.321	0.37
827.492	0.55
827.662	0.4
827.833	0.9
828.003	0.28
828.174	-0.99
828.345	-0.76
828.515	0.11
828.686	0.26
828.856	-0.31
829.027	-0.45
829.197	0.06
829.368	0.35
829.538	-0.57
829.709	-0.45
829.879	0.16
830.049	-0.08
830.22	-0.24
830.39	0.34
830.56	0.51
830.731	-0.5
830.901	-0.41
831.072	0.01
831.242	0.15
831.412	0.01
831.582	-0.02
831.753	-0.54
831.923	0.22
832.093	0.19
832.263	0.37
832.434	-0.48
832.604	-0.42
832.774	0.44
832.944	-0.24
833.114	-0.2
833.284	0.3
833.454	-1.18
833.624	-0.24
833.795	-0.23
833.965	0.12
834.135	0.63
834.305	-1.08
834.475	-0.88
834.645	0.39
834.815	-0.21
834.985	-0.67
835.155	-0.08
835.325	0.27
835.494	-0.41
835.664	-0.49
835.834	-0.72
836.004	-0.04
836.174	0.2
836.344	0.6
836.514	-0.97
836.684	-0.45
836.853	-0.06
837.023	0.18
837.193	-0.53
837.363	0.97
837.532	0.85
837.702	-0.04
837.872	0.09
838.041	0.52
838.211	1.38
838.381	-1.03
838.55	-0.04
838.72	1.8
838.89	0.71
839.059	-0.8
839.229	-0.22
839.398	0.41
839.568	0.49
839.738	-0.11
839.907	0.78
840.077	-0.01
840.246	-0.88
840.416	-0.71
840.585	-1.2
840.755	0.86
840.924	0.84
841.093	-0.99
841.263	0.12
841.432	0.23
841.602	-1.24
841.771	-1.39
841.94	-0.84
842.11	1.43
842.279	1.51
842.448	-0.53
842.617	-1.07
842.787	1.03
842.956	-1.05
843.125	0
843.294	0.84
843.464	1.56
843.633	-0.81
843.802	-1.34
843.971	0.27
844.14	0.73
844.309	0.8
844.479	-0.45
844.648	-0.53
844.817	-0.62
844.986	-0.41
845.155	-0.96
845.324	-0.41
845.493	0.13
845.662	-0.4
845.831	0.15
846	0.08
846.169	0.12
846.338	0.66
846.507	0.01
846.676	0.35
846.844	-0.31
847.013	-0.62
847.182	-0.45
847.351	-0.51
847.52	0.14
847.689	0.09
847.858	0.25
848.026	-0.75
848.195	-0.32
848.364	-0.45
848.533	-0.61
848.701	0.3
848.87	-0.08
849.039	0.24
849.207	1.56
849.376	0.53
849.545	0.94
849.713	-0.75
849.882	-0.52
850.051	-0.27
850.219	-0.46
850.388	0.43
850.556	-0.2
850.725	-0.48
850.893	-0.24
851.062	-0.45
851.23	0.58
851.399	-0.95
851.567	-1.15
851.736	-1.09
851.904	-1.28
852.073	0.78
852.241	0.62
852.41	-0.52
852.578	-1
852.746	-1.46
852.915	1.12
853.083	0.14
853.251	-1.2
853.42	0.17
853.588	-0.07
853.756	1.68
853.924	-0.22
854.093	-0.74
854.261	-0.12
854.429	-1.6
854.597	0.97
854.765	-1.19
854.934	0.65
855.102	0.14
855.27	-0.22
855.438	0.85
855.606	1.78
855.774	1.73
855.942	-0.63
856.11	-1.03
856.278	-0.01
856.446	0.92
856.614	-0.41
856.782	-0.4
856.95	0.05
857.118	-0.48
857.286	-0.11
857.454	-0.35
857.622	1.36
857.79	-0.42
857.958	0.16
858.126	-0.03
858.294	-1.85
858.462	-0.29
858.629	-0.34
858.797	-0.95
858.965	-0.91
859.133	0.57
859.301	-1.37
859.468	0.58
859.636	-1.25
859.804	2.23
859.971	1.18
860.139	-0.54
860.307	1.47
860.474	0.46
860.642	-0.69
860.81	0.62
860.977	-0.69
861.145	1.65
861.313	-0.23
861.48	0.61
861.648	-0.7
861.815	-1.07
861.983	-1.66
862.15	0.08
862.318	0.64
862.485	1.76
862.653	-0.36
862.82	-0.1
862.988	1.75
863.155	-0.37
863.322	-1.06
863.49	-1.33
863.657	-0.14
863.824	3.44
863.992	-0.63
864.159	1.14
864.326	1.61
864.494	-0.82
864.661	2.23
864.828	-0.51
864.996	1.14
865.163	2.52
865.33	0.49
865.497	-2.08
865.664	-0.81
865.832	-1.82
865.999	-0.69
866.166	-1.06
866.333	-0.23
866.5	0.86
866.667	0.34
866.834	-0.26
867.001	2.02
867.168	-1.57
867.335	-0.6
867.502	-1.4
867.669	-0.07
867.836	2.75
868.003	-0.32
868.17	1.32
868.337	-1.23
868.504	2.19
868.671	-2.19
868.838	-0.04
869.005	0.67
869.172	0.71
869.339	-1.01
869.505	-0.37
869.672	0.39
869.839	1.03
870.006	-0.06
870.173	-1.96
870.339	0.8
870.506	1.65
870.673	-1.82
870.84	0.64
871.006	-0.23
871.173	0.9
871.34	1.05
871.506	-1.79
871.673	0.8
871.839	-2.65
872.006	0.73
872.173	-1.16
872.339	-0.27
872.506	3.68
872.672	-0.06
872.839	-1.56
873.005	0.17
873.172	4.03
873.338	0.56
873.505	-0.43
873.671	2.26
873.838	0.03
874.004	-1.44
874.171	-0.67
874.337	0.3
874.503	1.93
874.67	0.71
874.836	-0.51
875.002	2.2
875.169	-0.43
875.335	1.14
875.501	0.18
875.668	0.29
875.834	-0.35
876	0.01
876.166	0.37
876.332	0.35
876.499	3.2
876.665	1.86
876.831	0.76
876.997	2.81
877.163	-0.43
877.329	0.36
877.495	1.18
877.662	0.54
877.828	0.63
877.994	0.52
878.16	0.21
878.326	-0.97
878.492	0.77
878.658	-1.79
878.824	0.71
878.99	0.99
879.156	0.14
879.322	3.09
879.487	-0.23
879.653	0.38
879.819	-0.18
879.985	-0.57
880.151	1.97
880.317	1.13
880.483	0.91
880.648	1.47
880.814	-2.49
880.98	0.35
881.146	-1.1
881.312	-1.17
881.477	-1.62
881.643	0.91
881.809	1.33
881.974	1.01
882.14	-1.14
882.306	-1.04
882.471	2.82
882.637	-0.89
882.803	1.99
882.968	1
883.134	3.11
883.299	-1.06
883.465	0.78
883.63	-0.55
883.796	0.48
883.961	1.7
884.127	0.59
884.292	-3.13
884.458	-1.17
884.623	-1.17
