Data from Apollo_Calib_20240827__AbsoluteIrradiance__451__06-40-02-135.txt Node

Date: Wed Aug 28 06:40:02 BST 2024
User: biology
Spectrometer: FLMT08252
Trigger mode: 0
Integration Time (sec): 5.000000E-1
Scans to average: 5
Electric dark correction enabled: true
Nonlinearity correction enabled: false
Boxcar width: 0
XAxis mode: Wavelengths
Number of Pixels in Spectrum: 3648
>>>>>Begin Spectral Data<<<<<
179.588	-0
179.809	-0
180.03	-0
180.251	-0
180.473	-0
180.694	0
180.915	0
181.136	-0
181.357	0
181.578	-0
181.799	-0
182.02	-0
182.241	0
182.462	-0
182.683	0
182.904	-0
183.125	0
183.346	-0
183.567	0
183.788	0
184.009	0
184.23	0
184.451	0
184.672	0
184.892	0
185.113	0
185.334	0
185.555	0
185.776	0
185.996	0
186.217	0
186.438	0
186.659	0
186.879	0
187.1	0
187.321	0
187.541	0
187.762	0
187.983	0
188.203	0
188.424	0
188.644	0
188.865	0
189.086	0
189.306	0
189.527	0
189.747	0
189.968	0
190.188	0
190.409	0
190.629	0
190.849	0
191.07	0
191.29	0
191.511	0
191.731	0
191.951	0
192.172	0
192.392	0
192.612	0
192.833	0
193.053	0
193.273	0
193.493	0
193.714	0
193.934	0
194.154	0
194.374	0
194.594	0
194.815	0
195.035	0
195.255	0
195.475	0
195.695	0
195.915	0
196.135	0
196.355	0
196.575	0
196.795	0
197.015	0
197.235	0
197.455	0
197.675	0
197.895	0
198.115	0
198.335	0
198.555	0
198.775	0
198.995	0
199.214	0
199.434	0
199.654	0
199.874	0
200.094	-0.35
200.313	1.6
200.533	1.52
200.753	0.48
200.973	2.4
201.192	1.54
201.412	0.25
201.632	1.27
201.851	1.94
202.071	1.07
202.291	0.5
202.51	0.63
202.73	1.43
202.95	1.48
203.169	0.22
203.389	1.41
203.608	1.27
203.828	0.63
204.047	0.66
204.267	1.27
204.486	1.14
204.706	1.17
204.925	0.93
205.145	0.51
205.364	1.44
205.583	1.36
205.803	0.78
206.022	0.62
206.242	1.09
206.461	0.67
206.68	0.94
206.9	0.87
207.119	1.26
207.338	1.34
207.557	0.35
207.777	0.88
207.996	0.72
208.215	1.24
208.434	0.56
208.654	0.21
208.873	0.97
209.092	1.22
209.311	0.82
209.53	0.55
209.749	0.56
209.968	0.57
210.187	0.33
210.407	0.09
210.626	0.74
210.845	1.06
211.064	0.6
211.283	0.43
211.502	0.74
211.721	0.82
211.94	0.39
212.159	0.82
212.377	0.88
212.596	0.91
212.815	0.66
213.034	0.57
213.253	1.04
213.472	0.85
213.691	0.45
213.91	0.24
214.128	0.34
214.347	0.78
214.566	0.21
214.785	0.04
215.003	0.91
215.222	0.73
215.441	0.54
215.66	0.38
215.878	0.55
216.097	0.6
216.316	0.26
216.534	0.63
216.753	0.49
216.972	0.34
217.19	0.58
217.409	0.24
217.627	0.27
217.846	0.49
218.064	0.5
218.283	0.29
218.501	0.88
218.72	0.56
218.938	0.18
219.157	0.5
219.375	0.68
219.594	0.54
219.812	0.2
220.031	0.37
220.249	0.64
220.467	0.69
220.686	0.41
220.904	0.12
221.122	0.29
221.341	0.75
221.559	0.49
221.777	0.22
221.995	0.28
222.214	0.51
222.432	0.26
222.65	0.6
222.868	0.44
223.086	0.47
223.305	0.53
223.523	0.23
223.741	0.7
223.959	0.3
224.177	0.27
224.395	0.28
224.613	0.41
224.831	0.48
225.049	0.24
225.267	0.23
225.485	0.45
225.703	0.33
225.921	0.33
226.139	0.2
226.357	0.52
226.575	0.43
226.793	0.28
227.011	1.04
227.229	0.32
227.447	0.47
227.665	0.27
227.883	0.14
228.1	0.3
228.318	0.55
228.536	0.05
228.754	0.25
228.972	0.32
229.189	0.47
229.407	0.22
229.625	0.27
229.843	0.5
230.06	0.43
230.278	0.28
230.496	0.38
230.713	0.46
230.931	0.54
231.149	0.28
231.366	0.13
231.584	0.31
231.801	0.63
232.019	0.3
232.236	0.17
232.454	0.2
232.671	0.28
232.889	0.34
233.106	0.14
233.324	0.21
233.541	0.18
233.759	0.3
233.976	0.16
234.194	0.35
234.411	0.37
234.628	0.17
234.846	0.25
235.063	0.31
235.28	0.24
235.498	0.24
235.715	0.11
235.932	0.35
236.149	0.21
236.367	0.15
236.584	0.29
236.801	0.33
237.018	0.34
237.236	0.33
237.453	0.14
237.67	0.39
237.887	0.2
238.104	0.19
238.321	0.14
238.538	0.26
238.755	0.38
238.973	0.08
239.19	0.3
239.407	0.28
239.624	0.19
239.841	0.1
240.058	0.07
240.275	0.19
240.492	0.27
240.709	0.27
240.925	0.21
241.142	0.3
241.359	0.18
241.576	0.2
241.793	0.19
242.01	0.27
242.227	0.36
242.444	0.28
242.66	0.26
242.877	0.3
243.094	0.23
243.311	0.19
243.527	0.3
243.744	0.29
243.961	0.32
244.178	0.15
244.394	0.17
244.611	0.31
244.828	0.4
245.044	0.14
245.261	0.15
245.477	0.32
245.694	0.25
245.911	0.22
246.127	0.31
246.344	0.4
246.56	0.21
246.777	0.24
246.993	0.15
247.21	0.28
247.426	0.3
247.643	0.21
247.859	0.16
248.076	0.15
248.292	0.48
248.508	0.18
248.725	0.23
248.941	0.24
249.157	0.26
249.374	0.12
249.59	0.19
249.806	0.17
250.023	0.32
250.239	0.17
250.455	0.18
250.671	0.27
250.888	0.29
251.104	0.24
251.32	0.15
251.536	0.21
251.752	0.23
251.969	0.27
252.185	0.23
252.401	0.39
252.617	0.21
252.833	0.18
253.049	0.3
253.265	0.26
253.481	0.32
253.697	0.12
253.913	0.14
254.129	0.26
254.345	0.21
254.561	0.15
254.777	0.25
254.993	0.23
255.209	0.2
255.425	0.23
255.641	0.13
255.857	0.35
256.073	0.24
256.288	0.04
256.504	0.15
256.72	0.2
256.936	0.3
257.152	0.22
257.367	0.24
257.583	0.15
257.799	0.29
258.015	0.17
258.23	0.09
258.446	0.27
258.662	0.2
258.877	0.1
259.093	0.22
259.309	0.18
259.524	0.22
259.74	0.12
259.955	0.08
260.171	0.21
260.387	0.24
260.602	0.21
260.818	0.28
261.033	0.14
261.249	0.2
261.464	0.13
261.68	0.13
261.895	0.2
262.11	0.3
262.326	0.11
262.541	0.07
262.757	0.22
262.972	0.18
263.187	0.26
263.403	0.15
263.618	0.28
263.833	0.24
264.049	0.19
264.264	0.18
264.479	0.21
264.694	0.3
264.91	0.11
265.125	0.15
265.34	0.21
265.555	0.33
265.77	0.21
265.986	0.17
266.201	0.19
266.416	0.22
266.631	0.19
266.846	0.24
267.061	0.17
267.276	0.24
267.491	0.07
267.706	0.21
267.921	0.2
268.136	0.15
268.351	0.21
268.566	0.1
268.781	0.31
268.996	0.24
269.211	0.17
269.426	0.13
269.641	0.25
269.856	0.22
270.071	0.21
270.285	0.07
270.5	0.24
270.715	0.27
270.93	0.15
271.145	0.18
271.359	0.27
271.574	0.11
271.789	0.16
272.004	0.13
272.218	0.16
272.433	0.25
272.648	0.17
272.862	0.25
273.077	0.19
273.292	0.24
273.506	0.09
273.721	0.16
273.936	0.18
274.15	0.24
274.365	0.16
274.579	0.27
274.794	0.22
275.008	0.28
275.223	0.06
275.437	0.15
275.652	0.26
275.866	0.17
276.081	0.14
276.295	0.24
276.509	0.21
276.724	0.14
276.938	0.21
277.153	0.21
277.367	0.22
277.581	0.18
277.796	0.09
278.01	0.13
278.224	0.25
278.438	0.27
278.653	0.16
278.867	0.12
279.081	-0.01
279.295	0.18
279.51	0.22
279.724	0.07
279.938	0.22
280.152	0.2
280.366	0.11
280.58	0.16
280.794	0.25
281.008	0.18
281.222	0.2
281.437	0.3
281.651	0.18
281.865	0.19
282.079	0.14
282.293	-0.01
282.507	0.11
282.721	0.16
282.935	0.17
283.148	0.05
283.362	0.14
283.576	0.07
283.79	0.13
284.004	0.16
284.218	0.28
284.432	0.13
284.646	0.17
284.859	0.11
285.073	0.15
285.287	0.15
285.501	0.15
285.714	0.16
285.928	0.16
286.142	0.16
286.356	0.14
286.569	0.12
286.783	0.19
286.997	0.19
287.21	0.16
287.424	0.17
287.637	0.1
287.851	0.14
288.065	0.16
288.278	0.13
288.492	0.18
288.705	0.16
288.919	0.25
289.132	0.06
289.346	0.18
289.559	0.07
289.773	0.04
289.986	0.15
290.2	0.19
290.413	0.23
290.626	0.09
290.84	0.14
291.053	0.15
291.267	0.26
291.48	0.16
291.693	0.19
291.906	0.07
292.12	0.13
292.333	0.15
292.546	0.1
292.76	0.21
292.973	0.19
293.186	0.17
293.399	0.09
293.612	0.23
293.826	0.17
294.039	0.14
294.252	0.15
294.465	0.21
294.678	0.16
294.891	0.19
295.104	0.09
295.317	0.1
295.53	0.15
295.743	0.12
295.956	0.11
296.169	0.24
296.382	0.17
296.595	0.13
296.808	0.08
297.021	0.18
297.234	0.15
297.447	0.1
297.66	0.17
297.873	0.16
298.086	0.14
298.299	0.13
298.511	0.07
298.724	0.09
298.937	0.05
299.15	0.12
299.363	0.14
299.575	0.18
299.788	0.14
300.001	0.13
300.213	0.11
300.426	0.08
300.639	0.11
300.852	0.1
301.064	0.17
301.277	0.21
301.489	0.18
301.702	0.18
301.915	0.17
302.127	0.12
302.34	0.12
302.552	0.17
302.765	0.11
302.977	0.13
303.19	0.11
303.402	0.11
303.615	0.08
303.827	0.1
304.04	0.12
304.252	0.17
304.464	0.1
304.677	0.28
304.889	0.17
305.102	0.11
305.314	0.14
305.526	0.21
305.739	0.2
305.951	0.1
306.163	0.15
306.375	0.21
306.588	0.1
306.8	0.09
307.012	0.09
307.224	0.15
307.436	0.21
307.649	0.1
307.861	0.16
308.073	0.17
308.285	0.11
308.497	0.12
308.709	0.13
308.921	0.15
309.133	0.19
309.346	0.12
309.558	0.15
309.77	0.15
309.982	0.2
310.194	0.18
310.406	0.11
310.617	0.16
310.829	0.15
311.041	0.19
311.253	0.13
311.465	0.14
311.677	0.14
311.889	0.14
312.101	0.1
312.313	0.18
312.524	0.2
312.736	0.06
312.948	0.1
313.16	0.22
313.372	0.15
313.583	0.16
313.795	0.09
314.007	0.09
314.218	0.14
314.43	0.11
314.642	0.12
314.853	0.04
315.065	0.16
315.277	0.11
315.488	0.11
315.7	0.2
315.912	0.14
316.123	0.14
316.335	0.12
316.546	0.27
316.758	0.13
316.969	0.11
317.181	0.15
317.392	0.08
317.604	0.15
317.815	0.08
318.026	0.11
318.238	0.13
318.449	0.18
318.661	0.1
318.872	0.06
319.083	0.07
319.295	0.15
319.506	0.13
319.717	0.14
319.929	0.12
320.14	0.12
320.351	0.14
320.562	0.09
320.774	0.1
320.985	0.12
321.196	0.09
321.407	0.05
321.618	0.18
321.829	0.1
322.041	0.16
322.252	0.15
322.463	0.12
322.674	0.13
322.885	0.1
323.096	0.08
323.307	0.1
323.518	0.14
323.729	0.11
323.94	0.14
324.151	0.15
324.362	0.17
324.573	0.15
324.784	0.12
324.995	0.18
325.206	0.1
325.417	0.1
325.628	0.11
325.838	0.12
326.049	0.15
326.26	0.14
326.471	0.11
326.682	0.14
326.892	0.12
327.103	0.07
327.314	0.1
327.525	0.19
327.735	0.17
327.946	0.16
328.157	0.12
328.368	0.18
328.578	0.11
328.789	0.13
328.999	0.14
329.21	0.14
329.421	0.2
329.631	0.15
329.842	0.08
330.052	0.17
330.263	0.14
330.473	0.15
330.684	0.14
330.894	0.13
331.105	0.15
331.315	0.13
331.526	0.07
331.736	0.22
331.947	0.14
332.157	0.15
332.367	0.09
332.578	0.13
332.788	0.17
332.999	0.15
333.209	0.11
333.419	0.11
333.629	0.1
333.84	0.13
334.05	0.1
334.26	0.23
334.47	0.12
334.681	0.15
334.891	0.11
335.101	0.13
335.311	0.21
335.521	0.16
335.732	0.09
335.942	0.18
336.152	0.18
336.362	0.13
336.572	0.16
336.782	0.16
336.992	0.08
337.202	0.07
337.412	0.07
337.622	0.2
337.832	0.17
338.042	0.14
338.252	0.09
338.462	0.12
338.672	0.1
338.882	0.11
339.092	0.08
339.302	0.2
339.511	0.17
339.721	0.1
339.931	0.06
340.141	0.2
340.351	0.16
340.561	0.11
340.77	0.11
340.98	0.13
341.19	0.15
341.4	0.1
341.609	0.08
341.819	0.12
342.029	0.05
342.238	0.13
342.448	0.14
342.658	0.16
342.867	0.11
343.077	0.14
343.286	0.12
343.496	0.14
343.706	0.19
343.915	0.08
344.125	0.11
344.334	0.15
344.544	0.04
344.753	0.1
344.963	0.06
345.172	0.12
345.381	0.15
345.591	0.08
345.8	0.11
346.01	0.18
346.219	0.16
346.428	-0.01
346.638	0.14
346.847	0.12
347.056	0.19
347.266	0.13
347.475	0.11
347.684	0.17
347.893	0.14
348.103	0.14
348.312	0.13
348.521	0.15
348.73	0.17
348.94	0.11
349.149	0.09
349.358	0.11
349.567	0.1
349.776	0.06
349.985	0.09
350.194	0.15
350.403	0.16
350.612	0.09
350.821	0.11
351.03	0.11
351.239	0.09
351.448	0.11
351.657	0.09
351.866	0.2
352.075	0.12
352.284	0.15
352.493	0.1
352.702	0.15
352.911	0.14
353.12	0.13
353.329	0.14
353.538	0.15
353.746	0.13
353.955	0.07
354.164	0.13
354.373	0.11
354.582	0.12
354.79	0.15
354.999	0.19
355.208	0.13
355.416	0.15
355.625	0.06
355.834	0.1
356.042	0.15
356.251	0.14
356.46	0.07
356.668	0.14
356.877	0.22
357.085	0.15
357.294	0.07
357.503	0.13
357.711	0.1
357.92	0.31
358.128	0.18
358.337	0.1
358.545	0.12
358.754	0.08
358.962	0.18
359.17	0.13
359.379	0.12
359.587	0.18
359.796	0.16
360.004	0.17
360.212	0.16
360.421	0.19
360.629	0.13
360.837	0.12
361.046	0.17
361.254	0.19
361.462	0.14
361.67	0.12
361.879	0.13
362.087	0.15
362.295	0.12
362.503	0.09
362.711	0.07
362.92	0.08
363.128	0.12
363.336	0.09
363.544	0.06
363.752	0.12
363.96	0.13
364.168	0.1
364.376	0.15
364.584	0.1
364.792	0.17
365	0.16
365.208	0.14
365.416	0.12
365.624	0.19
365.832	0.12
366.04	0.18
366.248	0.14
366.456	0.19
366.664	0.14
366.872	0.14
367.079	0.12
367.287	0.11
367.495	0.12
367.703	0.12
367.911	0.12
368.118	0.12
368.326	0.12
368.534	0.07
368.742	0.2
368.949	0.09
369.157	0.1
369.365	0.15
369.572	0.11
369.78	0.08
369.988	0.19
370.195	0.17
370.403	0.13
370.61	0.12
370.818	0.13
371.026	0.17
371.233	0.1
371.441	0.12
371.648	0.08
371.856	0.13
372.063	0.15
372.271	0.09
372.478	0.13
372.685	0.09
372.893	0.17
373.1	0.1
373.308	0.12
373.515	0.21
373.722	0.17
373.93	0.09
374.137	0.15
374.344	0.2
374.552	0.18
374.759	0.16
374.966	0.15
375.173	0.14
375.381	0.2
375.588	0.14
375.795	0.11
376.002	0.1
376.209	0.08
376.417	0.13
376.624	0.12
376.831	0.17
377.038	0.08
377.245	0.09
377.452	0.15
377.659	0.14
377.866	0.11
378.073	0.15
378.28	0.13
378.487	0.19
378.694	0.18
378.901	0.15
379.108	0.11
379.315	0.16
379.522	0.23
379.729	0.14
379.936	0.15
380.143	0.15
380.35	0.12
380.557	0.1
380.763	0.12
380.97	0.14
381.177	0.15
381.384	0.14
381.591	0.11
381.797	0.12
382.004	0.18
382.211	0.18
382.418	0.11
382.624	0.14
382.831	0.17
383.038	0.12
383.244	0.16
383.451	0.15
383.658	0.15
383.864	0.13
384.071	0.13
384.277	0.18
384.484	0.11
384.69	0.16
384.897	0.12
385.103	0.13
385.31	0.15
385.516	0.09
385.723	0.12
385.929	0.14
386.136	0.12
386.342	0.12
386.549	0.1
386.755	0.16
386.961	0.2
387.168	0.1
387.374	0.15
387.58	0.13
387.787	0.16
387.993	0.2
388.199	0.12
388.406	0.14
388.612	0.13
388.818	0.1
389.024	0.08
389.231	0.14
389.437	0.21
389.643	0.16
389.849	0.17
390.055	0.17
390.261	0.1
390.467	0.17
390.674	0.11
390.88	0.15
391.086	0.16
391.292	0.1
391.498	0.18
391.704	0.17
391.91	0.13
392.116	0.11
392.322	0.07
392.528	0.18
392.734	0.12
392.94	0.17
393.146	0.13
393.352	0.15
393.557	0.13
393.763	0.12
393.969	0.18
394.175	0.1
394.381	0.19
394.587	0.14
394.792	0.16
394.998	0.25
395.204	0.17
395.41	0.1
395.615	0.16
395.821	0.19
396.027	0.15
396.233	0.12
396.438	0.23
396.644	0.24
396.85	0.17
397.055	0.16
397.261	0.19
397.466	0.16
397.672	0.18
397.878	0.18
398.083	0.2
398.289	0.14
398.494	0.2
398.7	0.17
398.905	0.07
399.111	0.22
399.316	0.11
399.522	0.15
399.727	0.16
399.932	0.15
400.138	0.18
400.343	0.22
400.549	0.23
400.754	0.2
400.959	0.15
401.165	0.21
401.37	0.2
401.575	0.2
401.78	0.18
401.986	0.19
402.191	0.12
402.396	0.17
402.601	0.2
402.807	0.18
403.012	0.13
403.217	0.23
403.422	0.19
403.627	0.11
403.832	0.12
404.037	0.19
404.243	0.22
404.448	0.18
404.653	0.19
404.858	0.21
405.063	0.25
405.268	0.11
405.473	0.13
405.678	0.19
405.883	0.32
406.088	0.28
406.293	0.16
406.498	0.18
406.703	0.24
406.907	0.15
407.112	0.14
407.317	0.18
407.522	0.23
407.727	0.14
407.932	0.22
408.136	0.24
408.341	0.15
408.546	0.2
408.751	0.19
408.956	0.2
409.16	0.25
409.365	0.18
409.57	0.18
409.774	0.18
409.979	0.21
410.184	0.24
410.388	0.16
410.593	0.26
410.798	0.21
411.002	0.16
411.207	0.2
411.411	0.21
411.616	0.18
411.82	0.16
412.025	0.23
412.229	0.16
412.434	0.25
412.638	0.23
412.843	0.13
413.047	0.2
413.252	0.13
413.456	0.18
413.66	0.22
413.865	0.17
414.069	0.24
414.273	0.15
414.478	0.15
414.682	0.18
414.886	0.22
415.091	0.13
415.295	0.09
415.499	0.21
415.703	0.12
415.908	0.2
416.112	0.12
416.316	0.27
416.52	0.16
416.724	0.15
416.929	0.16
417.133	0.31
417.337	0.16
417.541	0.18
417.745	0.18
417.949	0.21
418.153	0.19
418.357	0.15
418.561	0.29
418.765	0.2
418.969	0.29
419.173	0.29
419.377	0.19
419.581	0.31
419.785	0.22
419.989	0.16
420.193	0.22
420.397	0.16
420.601	0.26
420.804	0.24
421.008	0.22
421.212	0.24
421.416	0.27
421.62	0.24
421.823	0.2
422.027	0.28
422.231	0.24
422.435	0.2
422.638	0.22
422.842	0.23
423.046	0.16
423.249	0.24
423.453	0.28
423.657	0.22
423.86	0.26
424.064	0.21
424.268	0.31
424.471	0.19
424.675	0.31
424.878	0.26
425.082	0.23
425.285	0.27
425.489	0.2
425.692	0.18
425.896	0.18
426.099	0.24
426.303	0.2
426.506	0.15
426.71	0.23
426.913	0.28
427.116	0.24
427.32	0.25
427.523	0.21
427.726	0.33
427.93	0.21
428.133	0.24
428.336	0.21
428.54	0.24
428.743	0.25
428.946	0.32
429.149	0.23
429.353	0.3
429.556	0.21
429.759	0.25
429.962	0.16
430.165	0.26
430.368	0.21
430.571	0.22
430.775	0.24
430.978	0.2
431.181	0.22
431.384	0.23
431.587	0.23
431.79	0.24
431.993	0.28
432.196	0.22
432.399	0.18
432.602	0.31
432.805	0.19
433.008	0.25
433.211	0.16
433.414	0.28
433.616	0.27
433.819	0.27
434.022	0.14
434.225	0.31
434.428	0.24
434.631	0.36
434.833	0.27
435.036	0.23
435.239	0.29
435.442	0.27
435.645	0.21
435.847	0.27
436.05	0.33
436.253	0.26
436.455	0.2
436.658	0.21
436.861	0.33
437.063	0.21
437.266	0.24
437.468	0.28
437.671	0.41
437.874	0.27
438.076	0.15
438.279	0.19
438.481	0.24
438.684	0.2
438.886	0.26
439.089	0.2
439.291	0.34
439.494	0.29
439.696	0.28
439.899	0.26
440.101	0.29
440.303	0.16
440.506	0.29
440.708	0.24
440.91	0.32
441.113	0.25
441.315	0.35
441.517	0.19
441.72	0.31
441.922	0.22
442.124	0.21
442.326	0.29
442.529	0.33
442.731	0.22
442.933	0.34
443.135	0.22
443.337	0.25
443.539	0.28
443.742	0.28
443.944	0.3
444.146	0.2
444.348	0.29
444.55	0.31
444.752	0.22
444.954	0.22
445.156	0.31
445.358	0.27
445.56	0.3
445.762	0.22
445.964	0.26
446.166	0.24
446.368	0.28
446.57	0.3
446.772	0.28
446.974	0.24
447.175	0.29
447.377	0.27
447.579	0.27
447.781	0.23
447.983	0.34
448.184	0.32
448.386	0.32
448.588	0.2
448.79	0.26
448.991	0.27
449.193	0.28
449.395	0.27
449.597	0.28
449.798	0.31
450	0.29
450.202	0.31
450.403	0.35
450.605	0.38
450.806	0.3
451.008	0.22
451.21	0.33
451.411	0.31
451.613	0.32
451.814	0.35
452.016	0.35
452.217	0.26
452.419	0.33
452.62	0.34
452.821	0.34
453.023	0.34
453.224	0.38
453.426	0.32
453.627	0.34
453.828	0.35
454.03	0.39
454.231	0.37
454.432	0.26
454.634	0.46
454.835	0.31
455.036	0.28
455.238	0.41
455.439	0.4
455.64	0.29
455.841	0.28
456.042	0.51
456.244	0.36
456.445	0.34
456.646	0.3
456.847	0.33
457.048	0.41
457.249	0.37
457.45	0.62
457.651	0.32
457.852	0.38
458.054	0.4
458.255	0.39
458.456	0.45
458.657	0.39
458.858	0.32
459.058	0.39
459.259	0.45
459.46	0.37
459.661	0.4
459.862	0.54
460.063	0.4
460.264	0.45
460.465	0.32
460.666	0.53
460.866	0.39
461.067	0.43
461.268	0.37
461.469	0.37
461.67	0.41
461.87	0.39
462.071	0.37
462.272	0.38
462.473	0.42
462.673	0.48
462.874	0.43
463.075	0.48
463.275	0.44
463.476	0.5
463.676	0.49
463.877	0.49
464.078	0.5
464.278	0.5
464.479	0.53
464.679	0.51
464.88	0.57
465.08	0.53
465.281	0.49
465.481	0.48
465.682	0.51
465.882	0.57
466.083	0.48
466.283	0.52
466.483	0.49
466.684	0.46
466.884	0.5
467.085	0.55
467.285	0.62
467.485	0.54
467.686	0.57
467.886	0.51
468.086	0.57
468.286	0.57
468.487	0.64
468.687	0.53
468.887	0.62
469.087	0.65
469.287	0.62
469.488	0.56
469.688	0.65
469.888	0.73
470.088	0.67
470.288	0.7
470.488	0.71
470.688	0.68
470.888	0.64
471.088	0.66
471.288	0.77
471.488	0.73
471.688	0.76
471.888	0.72
472.088	0.86
472.288	0.79
472.488	0.79
472.688	0.77
472.888	0.86
473.088	0.87
473.288	0.88
473.488	0.87
473.688	1
473.887	0.91
474.087	0.9
474.287	0.94
474.487	0.93
474.687	0.97
474.886	0.94
475.086	0.98
475.286	1.01
475.486	0.99
475.685	1.04
475.885	1.03
476.085	1.09
476.284	1.11
476.484	1.17
476.684	1.15
476.883	1.2
477.083	1.17
477.282	1.15
477.482	1.23
477.681	1.26
477.881	1.19
478.08	1.24
478.28	1.21
478.479	1.27
478.679	1.37
478.878	1.33
479.078	1.33
479.277	1.39
479.477	1.42
479.676	1.39
479.875	1.44
480.075	1.44
480.274	1.52
480.473	1.59
480.673	1.51
480.872	1.66
481.071	1.67
481.271	1.68
481.47	1.68
481.669	1.72
481.868	1.68
482.067	1.75
482.267	1.74
482.466	1.82
482.665	1.84
482.864	1.87
483.063	1.94
483.262	1.99
483.461	2.05
483.661	2.1
483.86	2.07
484.059	2.18
484.258	2.17
484.457	2.18
484.656	2.28
484.855	2.35
485.054	2.2
485.253	2.3
485.452	2.32
485.651	2.42
485.849	2.44
486.048	2.46
486.247	2.56
486.446	2.6
486.645	2.6
486.844	2.68
487.043	2.69
487.241	2.75
487.44	2.79
487.639	2.91
487.838	2.9
488.037	2.89
488.235	3.04
488.434	3.14
488.633	2.96
488.831	3.24
489.03	3.3
489.229	3.27
489.427	3.34
489.626	3.38
489.825	3.45
490.023	3.56
490.222	3.55
490.42	3.58
490.619	3.71
490.817	3.76
491.016	3.79
491.214	3.89
491.413	4
491.611	3.99
491.81	3.97
492.008	4.08
492.207	4.23
492.405	4.27
492.604	4.21
492.802	4.41
493	4.48
493.199	4.6
493.397	4.67
493.595	4.77
493.794	4.77
493.992	4.95
494.19	5.03
494.388	5.11
494.587	5.04
494.785	5.16
494.983	5.13
495.181	5.31
495.379	5.49
495.578	5.6
495.776	5.62
495.974	5.59
496.172	5.78
496.37	5.99
496.568	6.08
496.766	6.13
496.964	6.26
497.162	6.31
497.36	6.51
497.558	6.51
497.756	6.77
497.954	6.75
498.152	6.96
498.35	7.13
498.548	7.02
498.746	7.12
498.944	7.22
499.142	7.38
499.34	7.53
499.538	7.81
499.736	7.63
499.933	7.81
500.131	7.93
500.329	8.33
500.527	8.3
500.725	8.56
500.922	8.68
501.12	8.75
501.318	9.01
501.516	9.01
501.713	9.23
501.911	9.28
502.109	9.21
502.306	9.59
502.504	9.51
502.701	9.73
502.899	9.91
503.097	10.26
503.294	10.19
503.492	10.55
503.689	10.72
503.887	10.64
504.084	10.88
504.282	10.92
504.479	10.97
504.677	11.36
504.874	11.49
505.072	11.32
505.269	11.91
505.466	12.02
505.664	12.24
505.861	12.18
506.059	12.5
506.256	12.52
506.453	12.79
506.651	13.07
506.848	13.27
507.045	13.12
507.242	13.31
507.44	13.59
507.637	13.72
507.834	13.77
508.031	14.18
508.229	14.16
508.426	13.97
508.623	14.51
508.82	14.76
509.017	14.74
509.214	14.81
509.411	15.17
509.608	15.1
509.805	15.53
510.003	15.53
510.2	15.73
510.397	16.09
510.594	15.99
510.791	16.25
510.988	16.35
511.184	16.19
511.381	16.01
511.578	16.63
511.775	16.97
511.972	16.82
512.169	17.04
512.366	17.12
512.563	17.51
512.76	17.69
512.956	17.63
513.153	17.61
513.35	17.53
513.547	17.65
513.744	18
513.94	18.05
514.137	18.38
514.334	18.23
514.53	18.4
514.727	19.03
514.924	18.47
515.12	18.62
515.317	18.76
515.514	18.51
515.71	18.49
515.907	19.18
516.103	19.11
516.3	18.85
516.497	19.2
516.693	19.08
516.89	19.24
517.086	19.31
517.283	19.3
517.479	18.87
517.676	19.53
517.872	19.45
518.068	19.4
518.265	19.3
518.461	19.23
518.658	19.62
518.854	19.4
519.05	19.62
519.247	19.7
519.443	19.31
519.639	19.74
519.836	19.23
520.032	19.18
520.228	19.46
520.424	19.14
520.621	19.25
520.817	19.42
521.013	19.12
521.209	19.55
521.405	19.31
521.601	19.08
521.798	18.97
521.994	18.87
522.19	18.68
522.386	18.78
522.582	18.88
522.778	18.98
522.974	18.63
523.17	18.45
523.366	18.23
523.562	18.44
523.758	18.29
523.954	17.81
524.15	18.09
524.346	18.03
524.542	17.98
524.738	17.75
524.934	17.86
525.129	17.66
525.325	17.3
525.521	17.18
525.717	17.49
525.913	16.99
526.109	17.04
526.304	17.05
526.5	16.89
526.696	16.76
526.892	16.47
527.087	16.78
527.283	16.44
527.479	16.21
527.674	15.72
527.87	16
528.066	15.81
528.261	15.75
528.457	15.32
528.653	15.54
528.848	15.37
529.044	15.31
529.239	14.97
529.435	14.84
529.63	14.57
529.826	14.42
530.021	14.43
530.217	14.39
530.412	14.18
530.608	14.02
530.803	13.88
530.999	13.61
531.194	13.66
531.389	13.66
531.585	13.44
531.78	13.49
531.975	13.18
532.171	13.13
532.366	12.94
532.561	12.87
532.757	12.59
532.952	12.75
533.147	12.25
533.342	12.37
533.538	12.07
533.733	12.18
533.928	11.68
534.123	11.81
534.318	11.75
534.513	11.46
534.709	11.64
534.904	11.38
535.099	11.32
535.294	11.24
535.489	11.12
535.684	10.93
535.879	10.76
536.074	10.77
536.269	10.59
536.464	10.49
536.659	10.29
536.854	10.25
537.049	10.19
537.244	10.04
537.439	9.93
537.634	9.75
537.828	9.74
538.023	9.65
538.218	9.5
538.413	9.3
538.608	9.31
538.803	9.18
538.997	9.06
539.192	8.95
539.387	8.85
539.582	8.77
539.776	8.58
539.971	8.59
540.166	8.63
540.36	8.39
540.555	8.52
540.75	8.26
540.944	8.2
541.139	8.16
541.334	7.98
541.528	7.91
541.723	7.88
541.917	7.82
542.112	7.56
542.306	7.42
542.501	7.36
542.695	7.42
542.89	7.21
543.084	7.17
543.279	7.13
543.473	7.14
543.668	7.11
543.862	6.84
544.056	6.73
544.251	6.78
544.445	6.71
544.64	6.71
544.834	6.33
545.028	6.22
545.222	6.42
545.417	6.46
545.611	6.29
545.805	6.2
546	5.93
546.194	6.02
546.388	5.95
546.582	5.83
546.776	5.74
546.97	5.76
547.165	5.66
547.359	5.6
547.553	5.46
547.747	5.45
547.941	5.52
548.135	5.31
548.329	5.3
548.523	5.26
548.717	5.11
548.911	5.05
549.105	4.97
549.299	4.97
549.493	4.94
549.687	4.81
549.881	4.84
550.075	4.72
550.269	4.55
550.463	4.65
550.657	4.51
550.85	4.46
551.044	4.41
551.238	4.34
551.432	4.31
551.626	4.26
551.82	4.19
552.013	4.07
552.207	4.13
552.401	4.09
552.594	4.01
552.788	3.9
552.982	3.85
553.176	3.81
553.369	3.88
553.563	3.82
553.756	3.66
553.95	3.69
554.144	3.63
554.337	3.62
554.531	3.5
554.724	3.5
554.918	3.43
555.111	3.4
555.305	3.36
555.498	3.36
555.692	3.3
555.885	3.23
556.079	3.19
556.272	3.09
556.466	3.1
556.659	3.05
556.852	3.05
557.046	2.97
557.239	2.91
557.432	2.87
557.626	2.84
557.819	2.91
558.012	2.84
558.206	2.85
558.399	2.74
558.592	2.68
558.785	2.58
558.979	2.66
559.172	2.62
559.365	2.58
559.558	2.51
559.751	2.46
559.944	2.48
560.138	2.4
560.331	2.44
560.524	2.42
560.717	2.35
560.91	2.3
561.103	2.3
561.296	2.22
561.489	2.27
561.682	2.25
561.875	2.21
562.068	2.19
562.261	2.12
562.454	2.18
562.647	2.04
562.84	2.09
563.032	2
563.225	1.97
563.418	1.98
563.611	2
563.804	1.94
563.997	1.88
564.19	1.81
564.382	1.9
564.575	1.82
564.768	1.81
564.961	1.8
565.153	1.73
565.346	1.75
565.539	1.75
565.731	1.72
565.924	1.71
566.117	1.69
566.309	1.68
566.502	1.61
566.695	1.59
566.887	1.57
567.08	1.56
567.272	1.54
567.465	1.52
567.657	1.53
567.85	1.48
568.042	1.49
568.235	1.47
568.427	1.39
568.62	1.41
568.812	1.35
569.005	1.39
569.197	1.32
569.389	1.33
569.582	1.34
569.774	1.34
569.966	1.25
570.159	1.24
570.351	1.27
570.543	1.23
570.736	1.25
570.928	1.18
571.12	1.22
571.312	1.16
571.505	1.09
571.697	1.2
571.889	1.12
572.081	1.13
572.273	1.08
572.465	1.13
572.658	1.06
572.85	1.09
573.042	1.09
573.234	1.04
573.426	1.06
573.618	1.01
573.81	1.02
574.002	1.05
574.194	1.01
574.386	0.93
574.578	0.9
574.77	0.92
574.962	0.93
575.154	0.91
575.346	0.92
575.538	0.92
575.729	0.88
575.921	0.91
576.113	0.86
576.305	0.93
576.497	0.85
576.689	0.87
576.88	0.81
577.072	0.84
577.264	0.81
577.456	0.81
577.647	0.73
577.839	0.8
578.031	0.82
578.223	0.76
578.414	0.73
578.606	0.77
578.798	0.75
578.989	0.72
579.181	0.73
579.372	0.71
579.564	0.7
579.755	0.7
579.947	0.71
580.139	0.74
580.33	0.6
580.522	0.64
580.713	0.59
580.905	0.65
581.096	0.65
581.287	0.63
581.479	0.64
581.67	0.62
581.862	0.62
582.053	0.58
582.244	0.53
582.436	0.61
582.627	0.58
582.818	0.57
583.01	0.54
583.201	0.6
583.392	0.56
583.583	0.54
583.775	0.53
583.966	0.54
584.157	0.52
584.348	0.53
584.54	0.5
584.731	0.53
584.922	0.5
585.113	0.46
585.304	0.55
585.495	0.51
585.686	0.52
585.877	0.52
586.068	0.5
586.259	0.5
586.45	0.49
586.641	0.44
586.832	0.41
587.023	0.49
587.214	0.43
587.405	0.47
587.596	0.42
587.787	0.47
587.978	0.45
588.169	0.41
588.36	0.39
588.551	0.43
588.742	0.4
588.932	0.43
589.123	0.4
589.314	0.43
589.505	0.41
589.696	0.44
589.886	0.41
590.077	0.37
590.268	0.41
590.458	0.36
590.649	0.34
590.84	0.44
591.03	0.35
591.221	0.33
591.412	0.32
591.602	0.41
591.793	0.38
591.984	0.32
592.174	0.37
592.365	0.43
592.555	0.32
592.746	0.36
592.936	0.35
593.127	0.36
593.317	0.39
593.508	0.33
593.698	0.32
593.889	0.34
594.079	0.34
594.269	0.28
594.46	0.32
594.65	0.31
594.84	0.32
595.031	0.27
595.221	0.3
595.411	0.27
595.602	0.34
595.792	0.3
595.982	0.32
596.172	0.34
596.363	0.28
596.553	0.29
596.743	0.3
596.933	0.29
597.123	0.31
597.314	0.22
597.504	0.25
597.694	0.34
597.884	0.31
598.074	0.26
598.264	0.28
598.454	0.29
598.644	0.24
598.834	0.26
599.024	0.19
599.214	0.26
599.404	0.29
599.594	0.23
599.784	0.23
599.974	0.29
600.164	0.27
600.354	0.22
600.544	0.21
600.734	0.25
600.924	0.28
601.114	0.23
601.303	0.23
601.493	0.26
601.683	0.24
601.873	0.25
602.063	0.2
602.252	0.25
602.442	0.17
602.632	0.21
602.821	0.21
603.011	0.24
603.201	0.22
603.39	0.17
603.58	0.2
603.77	0.24
603.959	0.25
604.149	0.22
604.339	0.2
604.528	0.26
604.718	0.25
604.907	0.21
605.097	0.2
605.286	0.16
605.476	0.23
605.665	0.22
605.855	0.17
606.044	0.17
606.234	0.21
606.423	0.19
606.612	0.17
606.802	0.19
606.991	0.22
607.181	0.23
607.37	0.17
607.559	0.17
607.749	0.15
607.938	0.2
608.127	0.2
608.316	0.15
608.506	0.18
608.695	0.2
608.884	0.14
609.073	0.18
609.263	0.23
609.452	0.21
609.641	0.22
609.83	0.12
610.019	0.18
610.208	0.18
610.397	0.19
610.586	0.21
610.775	0.13
610.965	0.17
611.154	0.15
611.343	0.18
611.532	0.16
611.721	0.14
611.91	0.17
612.099	0.18
612.287	0.19
612.476	0.13
612.665	0.18
612.854	0.18
613.043	0.22
613.232	0.18
613.421	0.14
613.61	0.2
613.798	0.17
613.987	0.22
614.176	0.16
614.365	0.18
614.554	0.18
614.742	0.2
614.931	0.17
615.12	0.19
615.309	0.18
615.497	0.14
615.686	0.14
615.875	0.14
616.063	0.16
616.252	0.15
616.44	0.13
616.629	0.17
616.818	0.18
617.006	0.15
617.195	0.14
617.383	0.17
617.572	0.15
617.76	0.17
617.949	0.15
618.137	0.2
618.326	0.19
618.514	0.14
618.703	0.12
618.891	0.17
619.079	0.11
619.268	0.17
619.456	0.14
619.644	0.2
619.833	0.15
620.021	0.14
620.209	0.09
620.398	0.16
620.586	0.15
620.774	0.19
620.962	0.13
621.151	0.18
621.339	0.17
621.527	0.12
621.715	0.11
621.903	0.14
622.092	0.13
622.28	0.16
622.468	0.15
622.656	0.16
622.844	0.16
623.032	0.13
623.22	0.08
623.408	0.18
623.596	0.18
623.784	0.16
623.972	0.14
624.16	0.1
624.348	0.17
624.536	0.15
624.724	0.11
624.912	0.19
625.1	0.18
625.288	0.14
625.476	0.1
625.664	0.17
625.851	0.12
626.039	0.15
626.227	0.17
626.415	0.14
626.603	0.09
626.79	0.12
626.978	0.12
627.166	0.14
627.354	0.14
627.541	0.12
627.729	0.08
627.917	0.17
628.104	0.17
628.292	0.14
628.48	0.11
628.667	0.16
628.855	0.16
629.042	0.14
629.23	0.14
629.418	0.12
629.605	0.13
629.793	0.13
629.98	0.08
630.168	0.14
630.355	0.16
630.543	0.15
630.73	0.12
630.917	0.18
631.105	0.17
631.292	0.11
631.48	0.13
631.667	0.19
631.854	0.14
632.042	0.11
632.229	0.07
632.416	0.15
632.604	0.14
632.791	0.1
632.978	0.17
633.165	0.15
633.353	0.18
633.54	0.15
633.727	0.05
633.914	0.1
634.101	0.06
634.289	0.16
634.476	0.09
634.663	0.11
634.85	0.13
635.037	0.1
635.224	0.05
635.411	0.15
635.598	0.18
635.785	0.13
635.972	0.11
636.159	0.17
636.346	0.07
636.533	0.1
636.72	0.1
636.907	0.14
637.094	0.15
637.281	0.08
637.468	0.16
637.655	0.11
637.842	0.14
638.029	0.08
638.215	0.17
638.402	0.1
638.589	0.08
638.776	0.1
638.963	0.09
639.149	0.14
639.336	0.18
639.523	0.12
639.709	0.13
639.896	0.09
640.083	0.21
640.27	0.13
640.456	0.1
640.643	0.11
640.829	0.08
641.016	0.11
641.203	0.11
641.389	0.15
641.576	0.13
641.762	0.14
641.949	0.11
642.135	0.11
642.322	0.14
642.508	0.08
642.695	0.13
642.881	0.09
643.068	0.08
643.254	0.11
643.441	0.12
643.627	0.1
643.813	0.09
644	0.16
644.186	0.11
644.372	0.11
644.559	0.16
644.745	0.13
644.931	0.08
645.118	0.1
645.304	0.12
645.49	0.09
645.676	0.05
645.862	0.14
646.049	0.15
646.235	0.12
646.421	0.19
646.607	0.17
646.793	0.1
646.979	0.09
647.165	0.14
647.352	0.14
647.538	0.15
647.724	0.12
647.91	0.14
648.096	0.16
648.282	0.16
648.468	0.07
648.654	0.11
648.84	0.1
649.026	0.13
649.212	0.1
649.397	0.09
649.583	0.09
649.769	0.16
649.955	0.11
650.141	0.11
650.327	0.17
650.513	0.08
650.698	0.14
650.884	0.06
651.07	0.11
651.256	0.13
651.442	0.07
651.627	0.1
651.813	0.15
651.999	0.15
652.184	0.14
652.37	0.09
652.556	0.1
652.741	0.16
652.927	0.08
653.113	0.11
653.298	0.09
653.484	0.12
653.669	0.07
653.855	0.13
654.04	0.14
654.226	0.13
654.412	0.09
654.597	0.08
654.782	0.12
654.968	0.13
655.153	0.13
655.339	0.12
655.524	0.09
655.71	0.13
655.895	0.09
656.08	0.07
656.266	0.15
656.451	0.16
656.636	0.08
656.822	0.16
657.007	0.09
657.192	0.12
657.378	0.07
657.563	0.12
657.748	0.13
657.933	0.13
658.118	0.08
658.304	0.08
658.489	0.18
658.674	0.13
658.859	0.08
659.044	0.15
659.229	0.13
659.414	0.07
659.599	0.11
659.785	0.07
659.97	0.12
660.155	0.14
660.34	0.11
660.525	0.12
660.71	0.1
660.895	0.14
661.08	0.1
661.264	0.12
661.449	0.14
661.634	0.14
661.819	0.13
662.004	0.13
662.189	0.07
662.374	0.07
662.559	0.06
662.743	0.07
662.928	0.11
663.113	0.1
663.298	0.06
663.483	0.12
663.667	0.14
663.852	0.07
664.037	0.15
664.221	0.05
664.406	0.17
664.591	0.14
664.775	0.1
664.96	0.12
665.145	0.11
665.329	0.16
665.514	0.09
665.698	0.13
665.883	0.08
666.068	0.19
666.252	0.15
666.437	0.07
666.621	0.13
666.806	0.14
666.99	0.12
667.174	0.07
667.359	0.16
667.543	0.13
667.728	0.11
667.912	0.03
668.096	0.14
668.281	0.11
668.465	0.13
668.649	0.16
668.834	0.08
669.018	0.13
669.202	0.11
669.387	0.15
669.571	0.18
669.755	0.08
669.939	0.1
670.124	0.1
670.308	0.19
670.492	0.21
670.676	0.13
670.86	0.11
671.044	0.09
671.228	0.19
671.413	0.1
671.597	0.11
671.781	0.13
671.965	0.15
672.149	0.13
672.333	0.14
672.517	0.12
672.701	0.15
672.885	0.16
673.069	0.07
673.253	0.19
673.437	0.12
673.621	0.08
673.804	0.1
673.988	0.15
674.172	0.12
674.356	0.08
674.54	0.12
674.724	0.25
674.908	0.15
675.091	0.18
675.275	0.17
675.459	0.19
675.643	0.11
675.826	0.17
676.01	0.09
676.194	0.14
676.377	0.17
676.561	0.17
676.745	0.17
676.928	0.18
677.112	0.21
677.296	0.07
677.479	0.13
677.663	0.14
677.846	0.19
678.03	0.15
678.213	0.16
678.397	0.17
678.58	0.13
678.764	0.17
678.947	0.1
679.131	0.1
679.314	0.18
679.498	0.14
679.681	0.18
679.865	0.19
680.048	0.15
680.231	0.15
680.415	0.16
680.598	0.13
680.781	0.12
680.965	0.2
681.148	0.15
681.331	0.13
681.514	0.18
681.698	0.12
681.881	0.16
682.064	0.13
682.247	0.18
682.43	0.08
682.614	0.18
682.797	0.2
682.98	0.19
683.163	0.08
683.346	0.19
683.529	0.1
683.712	0.11
683.895	0.16
684.078	0.06
684.261	0.11
684.444	0.15
684.627	0.13
684.81	0.14
684.993	0.14
685.176	0.2
685.359	0.1
685.542	0.15
685.725	0.18
685.908	0.14
686.091	0.12
686.274	0.19
686.457	0.19
686.639	0.12
686.822	0.21
687.005	0.17
687.188	0.16
687.371	0.27
687.553	0.15
687.736	0.17
687.919	0.22
688.102	0.24
688.284	0.1
688.467	0.13
688.65	0.13
688.832	0.11
689.015	0.15
689.197	0.06
689.38	0.22
689.563	0.22
689.745	0.09
689.928	0.12
690.11	0.17
690.293	0.14
690.475	0.05
690.658	0.18
690.84	0.13
691.023	0.19
691.205	0.14
691.388	0.11
691.57	0.17
691.752	0.14
691.935	0.08
692.117	0.08
692.3	0.16
692.482	0.14
692.664	0.13
692.847	0.15
693.029	0.23
693.211	0.18
693.393	0.07
693.576	0.12
693.758	0.13
693.94	0.11
694.122	0.12
694.304	0.14
694.487	0.13
694.669	0.23
694.851	0.1
695.033	0.18
695.215	0.11
695.397	0.12
695.579	0.13
695.761	0.09
695.943	0.08
696.125	0.19
696.308	0.17
696.49	0.04
696.671	0.24
696.853	0.12
697.035	0.26
697.217	0.08
697.399	0.2
697.581	0.11
697.763	0.15
697.945	0.14
698.127	0.15
698.309	0.2
698.491	0.13
698.672	0.24
698.854	0.19
699.036	0.17
699.218	0.12
699.399	0.21
699.581	0.18
699.763	0.16
699.945	0.1
700.126	0.13
700.308	0.14
700.49	0.21
700.671	0.08
700.853	0.14
701.035	0.11
701.216	0.16
701.398	0.11
701.579	0.16
701.761	0.21
701.943	0.12
702.124	0.09
702.306	0.12
702.487	0.26
702.669	0.12
702.85	0.08
703.031	0.12
703.213	0.26
703.394	0.2
703.576	0.15
703.757	0.21
703.938	0.21
704.12	0.28
704.301	0.12
704.483	0.14
704.664	0.11
704.845	0.22
705.026	0.17
705.208	0.17
705.389	0.14
705.57	0.19
705.751	0.15
705.933	0.18
706.114	0.24
706.295	0.15
706.476	0.1
706.657	0.24
706.838	0.24
707.02	0.23
707.201	0.15
707.382	0.15
707.563	0.13
707.744	0.14
707.925	0.09
708.106	0.14
708.287	0.15
708.468	0.24
708.649	0.15
708.83	0.22
709.011	0.1
709.192	0.19
709.373	0.09
709.554	0.15
709.734	0.24
709.915	0.24
710.096	0.14
710.277	0.02
710.458	0.19
710.639	0.12
710.819	0.03
711	0.11
711.181	0.18
711.362	0.19
711.542	0.15
711.723	0.16
711.904	0.19
712.085	0.1
712.265	0.16
712.446	0.17
712.627	0.14
712.807	0.12
712.988	0.21
713.168	0.07
713.349	0.2
713.53	0.03
713.71	0.09
713.891	0.06
714.071	0.1
714.252	0.14
714.432	0.17
714.613	0.07
714.793	0.11
714.974	0.25
715.154	0.2
715.334	0.22
715.515	0.2
715.695	0.16
715.876	0.11
716.056	0.15
716.236	0.09
716.417	0.12
716.597	0.13
716.777	0.25
716.957	0.18
717.138	0.12
717.318	0.19
717.498	0.08
717.678	0.18
717.859	0.15
718.039	0.1
718.219	0.16
718.399	0.12
718.579	0.04
718.759	0.09
718.939	0.17
719.12	0.15
719.3	0.13
719.48	0
719.66	0.04
719.84	0.17
720.02	0.15
720.2	0.08
720.38	0.14
720.56	0.26
720.74	0.1
720.92	0.19
721.1	0.21
721.279	0.22
721.459	0.09
721.639	0.07
721.819	0.17
721.999	0.09
722.179	0.17
722.359	0.03
722.538	0.14
722.718	0.15
722.898	0.16
723.078	0.11
723.257	0.11
723.437	0.18
723.617	0.12
723.797	0.16
723.976	0.15
724.156	0.21
724.336	0.27
724.515	0.29
724.695	-0.01
724.874	0.12
725.054	0.21
725.234	0.08
725.413	0.18
725.593	0.18
725.772	0.19
725.952	0.13
726.131	0.22
726.311	0.16
726.49	0.22
726.67	0.12
726.849	0.12
727.028	0.25
727.208	0.19
727.387	0.11
727.567	0.1
727.746	0.14
727.925	0.07
728.105	0.07
728.284	0.14
728.463	0.14
728.643	0.19
728.822	0.03
729.001	0.23
729.18	0.12
729.359	0.23
729.539	0.21
729.718	0.1
729.897	0.24
730.076	0.12
730.255	0.06
730.434	0.17
730.614	0.23
730.793	0.32
730.972	0.11
731.151	0.22
731.33	0.29
731.509	0.23
731.688	0.19
731.867	0.12
732.046	-0.02
732.225	0.28
732.404	0.07
732.583	0.02
732.762	0.18
732.941	0.24
733.12	0.21
733.298	0.1
733.477	0.24
733.656	0.21
733.835	0.08
734.014	0.2
734.193	0.12
734.371	0.15
734.55	0.14
734.729	0.11
734.908	0.21
735.086	0.2
735.265	0.19
735.444	0.09
735.623	0.12
735.801	0.15
735.98	0.18
736.159	0.24
736.337	0.27
736.516	0.18
736.694	0.21
736.873	0.15
737.052	0.3
737.23	0.31
737.409	0.1
737.587	0.32
737.766	0.04
737.944	0.12
738.123	0.27
738.301	0.26
738.479	0.18
738.658	0.22
738.836	0.03
739.015	0.23
739.193	0.33
739.371	0.08
739.55	0.12
739.728	0.1
739.906	0.26
740.085	0.52
740.263	0.27
740.441	-0.05
740.62	0.4
740.798	0.33
740.976	0.15
741.154	0.04
741.332	0.2
741.511	0.1
741.689	0.2
741.867	0.25
742.045	0.16
742.223	0.14
742.401	0.18
742.579	0.1
742.757	0.14
742.935	0.05
743.114	0.13
743.292	0.17
743.47	0.24
743.648	0.16
743.826	0.03
744.004	0.25
744.181	0.29
744.359	0.13
744.537	0.17
744.715	0.12
744.893	0.11
745.071	0.18
745.249	0.13
745.427	0.18
745.605	0.18
745.782	0.24
745.96	0.24
746.138	0.17
746.316	0.21
746.493	0.16
746.671	0.13
746.849	0.18
747.027	0.19
747.204	0.07
747.382	0.22
747.56	0.03
747.737	0.12
747.915	0.1
748.093	0.13
748.27	0.13
748.448	0.14
748.625	0.03
748.803	0.16
748.98	0.12
749.158	0.15
749.335	0.26
749.513	0.2
749.69	0.06
749.868	0.18
750.045	0.24
750.223	0.06
750.4	0.01
750.578	0.35
750.755	0.23
750.932	0
751.11	0.28
751.287	0
751.464	0.29
751.642	-0.02
751.819	0.21
751.996	0.17
752.173	0.1
752.351	-0.03
752.528	0.2
752.705	0.11
752.882	0.15
753.06	0.25
753.237	0.19
753.414	0.32
753.591	0.25
753.768	0.17
753.945	0.16
754.122	0.15
754.299	0.24
754.476	0.09
754.654	0.17
754.831	0.24
755.008	0.12
755.185	0.13
755.362	0.06
755.539	0.15
755.716	0.12
755.892	0.07
756.069	0.09
756.246	0.14
756.423	0.17
756.6	0.31
756.777	0.1
756.954	0.26
757.131	0.08
757.307	-0.05
757.484	0.05
757.661	0.26
757.838	0.24
758.015	0.17
758.191	0.26
758.368	0.18
758.545	0.36
758.721	0.23
758.898	0.15
759.075	0.29
759.251	0.31
759.428	0.18
759.605	0.02
759.781	0.15
759.958	0.21
760.134	0.15
760.311	-0.01
760.488	0.33
760.664	0.3
760.841	0.17
761.017	0.07
761.194	0.3
761.37	0.16
761.547	0.26
761.723	0.15
761.899	0.24
762.076	0.07
762.252	0.1
762.429	0.06
762.605	0.25
762.781	0.09
762.958	0.24
763.134	0.13
763.31	0.16
763.486	0.12
763.663	0.07
763.839	0.18
764.015	-0.03
764.191	0.09
764.368	0.21
764.544	0.14
764.72	0.2
764.896	0.25
765.072	0.18
765.248	0.1
765.425	0.18
765.601	0.18
765.777	0.2
765.953	0.04
766.129	-0.04
766.305	0.01
766.481	0.2
766.657	0.24
766.833	0.39
767.009	0.13
767.185	0.22
767.361	0.15
767.537	0.04
767.713	0.48
767.889	0.09
768.065	0.13
768.24	0.13
768.416	0.18
768.592	0.01
768.768	0.11
768.944	0.22
769.12	0.01
769.295	0.19
769.471	0.23
769.647	0.16
769.823	0.25
769.998	0.03
770.174	0.07
770.35	0.44
770.525	0.47
770.701	0.3
770.877	0.21
771.052	-0.02
771.228	0.33
771.403	0.22
771.579	0.23
771.755	0.37
771.93	0.24
772.106	0.03
772.281	-0.07
772.457	0.17
772.632	0.26
772.808	0.05
772.983	0.21
773.159	-0.12
773.334	0.2
773.509	0.09
773.685	0.04
773.86	0.47
774.036	0.43
774.211	0.21
774.386	0.11
774.562	0.08
774.737	0.43
774.912	-0.01
775.087	0.32
775.263	0.14
775.438	0.2
775.613	0.1
775.788	0.25
775.964	0.24
776.139	0.55
776.314	-0.02
776.489	0.19
776.664	0.2
776.839	0.03
777.014	0.27
777.19	0.24
777.365	0.42
777.54	0.34
777.715	0.15
777.89	0.25
778.065	0.04
778.24	0.16
778.415	0.4
778.59	0.07
778.765	0.24
778.94	0.19
779.115	0.12
779.289	0.12
779.464	0.08
779.639	0.11
779.814	-0.04
779.989	0.05
780.164	0.41
780.339	0.3
780.513	0.04
780.688	0.01
780.863	0.24
781.038	0.36
781.212	0.16
781.387	0.23
781.562	0.53
781.737	0.08
781.911	0.44
782.086	0.06
782.261	0.11
782.435	0.25
782.61	-0.02
782.784	0.02
782.959	0.35
783.134	-0.01
783.308	0.04
783.483	0.11
783.657	0.56
783.832	0.3
784.006	-0.11
784.181	0.24
784.355	0.34
784.53	0.1
784.704	0.18
784.878	0.64
785.053	0.11
785.227	0.42
785.402	0.55
785.576	-0.06
785.75	0.23
785.925	0.13
786.099	0.03
786.273	0.28
786.448	0.45
786.622	0.54
786.796	0.17
786.97	0.25
787.145	0.69
787.319	-0.19
787.493	0.15
787.667	-0.2
787.841	0.18
788.015	0.3
788.19	-0.05
788.364	0.28
788.538	0.36
788.712	0.4
788.886	0.2
789.06	0.42
789.234	0.48
789.408	-0.08
789.582	0.14
789.756	0.19
789.93	0.01
790.104	0.1
790.278	0.2
790.452	-0.09
790.626	0.49
790.8	0.17
790.973	0.49
791.147	0.46
791.321	0.46
791.495	0.43
791.669	0.23
791.843	0.26
792.016	0.37
792.19	0.85
792.364	-0
792.538	0.64
792.711	0.48
792.885	0.1
793.059	0.06
793.233	-0.48
793.406	0.41
793.58	0.33
793.754	0.04
793.927	0.23
794.101	0.65
794.274	0.15
794.448	0.25
794.622	-0.05
794.795	0.54
794.969	-0.01
795.142	0.66
795.316	0.21
795.489	0.08
795.663	0.66
795.836	-0.06
796.009	-0.03
796.183	0.32
796.356	0.37
796.53	0.43
796.703	0.27
796.876	0.67
797.05	0.18
797.223	0.14
797.396	0.42
797.57	0.53
797.743	0.52
797.916	0.21
798.09	0.18
798.263	0.27
798.436	0.36
798.609	0.07
798.782	0.22
798.956	0.24
799.129	0.34
799.302	0.21
799.475	0.25
799.648	0.2
799.821	0.06
799.994	0.2
800.167	-0.03
800.34	0.28
800.514	0.13
800.687	0.21
800.86	0.03
801.033	0.24
801.206	0.17
801.379	-0.02
801.551	0.44
801.724	0.52
801.897	0.5
802.07	0.14
802.243	-0.01
802.416	0.27
802.589	0.28
802.762	0.43
802.935	0.28
803.107	0.65
803.28	0.56
803.453	0.47
803.626	0.06
803.798	0.17
803.971	-0.38
804.144	0.33
804.317	0.51
804.489	0.34
804.662	0.35
804.835	0.21
805.007	-0.1
805.18	0.6
805.353	0.3
805.525	0.08
805.698	0.11
805.87	0.45
806.043	0.68
806.215	0.13
806.388	-0.13
806.56	0.39
806.733	0.49
806.905	0.62
807.078	-0.02
807.25	-0.11
807.423	0.45
807.595	0.37
807.768	0.51
807.94	0.64
808.112	0.27
808.285	0.44
808.457	0.16
808.629	0.37
808.802	0.84
808.974	0.53
809.146	0.03
809.318	0.06
809.491	0.47
809.663	0.88
809.835	-0.26
810.007	0.19
810.18	0.26
810.352	0.02
810.524	0.06
810.696	0.28
810.868	0.69
811.04	0.31
811.212	0.22
811.384	0.62
811.556	0.41
811.728	-0.04
811.901	0.7
812.073	0.37
812.245	0.46
812.417	0.47
812.589	-0.16
812.76	0.53
812.932	0.72
813.104	0.65
813.276	0.15
813.448	0.62
813.62	0.47
813.792	0.35
813.964	0.55
814.136	0.33
814.307	-0.17
814.479	0.17
814.651	0.04
814.823	1.16
814.995	0.23
815.166	0.33
815.338	0.06
815.51	-0.01
815.681	1.52
815.853	0.26
816.025	0.2
816.196	0.65
816.368	0.67
816.54	-0.22
816.711	-0.38
816.883	0.55
817.054	1.26
817.226	-0.39
817.398	0.21
817.569	0.23
817.741	0.16
817.912	0.76
818.084	0.39
818.255	0.46
818.426	0.33
818.598	-0.19
818.769	0.22
818.941	0.26
819.112	0.61
819.283	0.24
819.455	0.03
819.626	0.29
819.798	0.82
819.969	0.57
820.14	0.51
820.311	-0.1
820.483	0.54
820.654	0.45
820.825	0.31
820.996	0.2
821.168	-0.22
821.339	-0.19
821.51	-0.31
821.681	0.16
821.852	0.43
822.023	-0.09
822.195	-0.58
822.366	0.38
822.537	0.38
822.708	0.41
822.879	0
823.05	0.75
823.221	0.31
823.392	1.02
823.563	1.03
823.734	0.28
823.905	0.6
824.076	-0.02
824.247	0.22
824.418	0.12
824.589	0.78
824.759	-0.05
824.93	-0.16
825.101	-0.71
825.272	1.07
825.443	0.7
825.614	1
825.784	-0.2
825.955	1.58
826.126	0.71
826.297	0.45
826.467	0.96
826.638	0.99
826.809	-0.5
826.98	0.14
827.15	0.35
827.321	0.34
827.492	1.17
827.662	0.04
827.833	1.54
828.003	0.29
828.174	-0.19
828.345	-0.01
828.515	0.99
828.686	0.22
828.856	0.26
829.027	0.76
829.197	0.76
829.368	0.7
829.538	-0.05
829.709	-0.13
829.879	0.36
830.049	0.61
830.22	0.48
830.39	0.81
830.56	1.03
830.731	0.26
830.901	0.17
831.072	0.23
831.242	0.94
831.412	-0
831.582	0.21
831.753	-0.08
831.923	0.31
832.093	0.35
832.263	0.07
832.434	-0.3
832.604	0.18
832.774	1.08
832.944	0.66
833.114	0.33
833.284	0.28
833.454	-0.17
833.624	-0.17
833.795	-0.31
833.965	1.52
834.135	1.4
834.305	-0.35
834.475	-0.28
834.645	0.64
834.815	-0.1
834.985	-0.08
835.155	-0.1
835.325	0.87
835.494	1.55
835.664	0.2
835.834	0.13
836.004	0.28
836.174	0.69
836.344	0.82
836.514	-0.24
836.684	0.15
836.853	-0.04
837.023	0.44
837.193	0.46
837.363	1
837.532	0.91
837.702	0.32
837.872	-0.57
838.041	1.06
838.211	1.99
838.381	-0.02
838.55	0.46
838.72	2.31
838.89	1.67
839.059	0.19
839.229	-0
839.398	1.9
839.568	1.05
839.738	0.09
839.907	1.36
840.077	1.02
840.246	0.13
840.416	-0.67
840.585	-0.58
840.755	1.41
840.924	0.51
841.093	-0.32
841.263	0.63
841.432	0.88
841.602	-0.45
841.771	-0.39
841.94	0.78
842.11	2.01
842.279	2.19
842.448	0.6
842.617	0.18
842.787	1.65
842.956	-0.32
843.125	1
843.294	1.12
843.464	1.71
843.633	0.96
843.802	-0.15
843.971	1.01
844.14	1.41
844.309	0.71
844.479	0.59
844.648	-0.05
844.817	-0.14
844.986	0.37
845.155	-0.35
845.324	0.12
845.493	0.47
845.662	-0.19
845.831	1.2
846	1.36
846.169	0.45
846.338	1.23
846.507	1.19
846.676	0.88
846.844	0.61
847.013	0.68
847.182	0.66
847.351	0.8
847.52	0.48
847.689	1.91
847.858	0.7
848.026	0.01
848.195	0.4
848.364	-0.54
848.533	-0.42
848.701	-0.82
848.87	0.54
849.039	1.32
849.207	0.96
849.376	1.58
849.545	1.5
849.713	0.57
849.882	0.44
850.051	0.84
850.219	0.82
850.388	2.82
850.556	-0.23
850.725	0.33
850.893	1.03
851.062	0.65
851.23	1.56
851.399	-0.74
851.567	0.32
851.736	-0.32
851.904	0.18
852.073	1.12
852.241	1.61
852.41	0.71
852.578	0.13
852.746	0.88
852.915	1.34
853.083	0.75
853.251	-0.61
853.42	0.4
853.588	-0.38
853.756	2.33
853.924	-0.27
854.093	0.53
854.261	1.98
854.429	0.11
854.597	0.73
854.765	0.6
854.934	1.55
855.102	1.9
855.27	1.12
855.438	0.68
855.606	1.46
855.774	2.82
855.942	-0.88
856.11	-1.66
856.278	0.87
856.446	1.69
856.614	-0.39
856.782	-0.1
856.95	2.65
857.118	1.21
857.286	1.02
857.454	0.49
857.622	1.76
857.79	1.49
857.958	-0.37
858.126	0.82
858.294	-1.5
858.462	1.07
858.629	-0.17
858.797	0.43
858.965	1.07
859.133	1.36
859.301	1
859.468	0.58
859.636	-0.04
859.804	3.11
859.971	1.94
860.139	-0.1
860.307	1.46
860.474	1.02
860.642	-0.33
860.81	0.47
860.977	0.19
861.145	1.11
861.313	1.38
861.48	1.74
861.648	2.44
861.815	1.22
861.983	-0.29
862.15	0.13
862.318	1.64
862.485	2.69
862.653	0.4
862.82	-0.26
862.988	4.64
863.155	1.62
863.322	-0.47
863.49	-0.98
863.657	1.31
863.824	1.64
863.992	1.33
864.159	1.4
864.326	1.33
864.494	0.63
864.661	3.46
864.828	-1.52
864.996	2.99
865.163	2.38
865.33	1.13
865.497	-0.41
865.664	0.38
865.832	-2.28
865.999	0.46
866.166	0.77
866.333	-0.89
866.5	-0.19
866.667	0.67
866.834	0.62
867.001	3.54
867.168	0.69
867.335	0.82
867.502	-1.18
867.669	0.5
867.836	3.87
868.003	0.35
868.17	1.48
868.337	-1.32
868.504	2.53
868.671	0.07
868.838	-0.3
869.005	1.66
869.172	0.07
869.339	1.01
869.505	0.97
869.672	0.64
869.839	2.62
870.006	1.14
870.173	-0.88
870.339	1.27
870.506	4
870.673	-1.35
870.84	3.26
871.006	1.05
871.173	0.47
871.34	0.98
871.506	-0.12
871.673	2.1
871.839	-1.66
872.006	0.63
872.173	-0.5
872.339	-0.37
872.506	1.78
872.672	0.32
872.839	-1.22
873.005	2.17
873.172	4.11
873.338	1.74
873.505	1.55
873.671	2.31
873.838	1.53
874.004	-0.33
874.171	1.08
874.337	3.06
874.503	2.07
874.67	1.61
874.836	1.27
875.002	3.55
875.169	0.84
875.335	0.04
875.501	0.52
875.668	2.58
875.834	1.39
876	0.59
876.166	1.53
876.332	2.27
876.499	3.35
876.665	0.68
876.831	2.07
876.997	3.41
877.163	2.87
877.329	1.05
877.495	0.85
877.662	2.86
877.828	0.78
877.994	1.11
878.16	-1.1
878.326	0.49
878.492	1.58
878.658	1.14
878.824	1.25
878.99	2.59
879.156	0.68
879.322	2.55
879.487	1.32
879.653	1.32
879.819	1.07
879.985	-0.55
880.151	1.8
880.317	1.24
880.483	1.78
880.648	2.86
880.814	-0.09
880.98	0.23
881.146	0.31
881.312	0.16
881.477	-0.46
881.643	1.32
881.809	2.38
881.974	3.92
882.14	-1.7
882.306	0.25
882.471	3.15
882.637	0.38
882.803	0.14
882.968	5.56
883.134	4.7
883.299	1.92
883.465	0.4
883.63	4.19
883.796	2.43
883.961	2.14
884.127	2.48
884.292	-2.31
884.458	0.03
884.623	0.03
