Data from Apollo_Calib_20240827__AbsoluteIrradiance__417__06-06-00-612.txt Node

Date: Wed Aug 28 06:06:00 BST 2024
User: biology
Spectrometer: FLMT08252
Trigger mode: 0
Integration Time (sec): 5.000000E-1
Scans to average: 5
Electric dark correction enabled: true
Nonlinearity correction enabled: false
Boxcar width: 0
XAxis mode: Wavelengths
Number of Pixels in Spectrum: 3648
>>>>>Begin Spectral Data<<<<<
179.588	-0
179.809	-0
180.03	-0
180.251	-0
180.473	-0
180.694	0
180.915	0
181.136	-0
181.357	0
181.578	-0
181.799	-0
182.02	-0
182.241	0
182.462	-0
182.683	0
182.904	-0
183.125	-0
183.346	0
183.567	0
183.788	0
184.009	-0
184.23	0
184.451	0
184.672	-0
184.892	-0
185.113	0
185.334	0
185.555	0
185.776	-0
185.996	0
186.217	0
186.438	0
186.659	0
186.879	0
187.1	0
187.321	-0
187.541	-0
187.762	0
187.983	0
188.203	0
188.424	0
188.644	0
188.865	0
189.086	0
189.306	-0
189.527	0
189.747	0
189.968	0
190.188	0
190.409	0
190.629	0
190.849	0
191.07	0
191.29	0
191.511	0
191.731	0
191.951	-0
192.172	0
192.392	0
192.612	0
192.833	0
193.053	0
193.273	0
193.493	0
193.714	0
193.934	0
194.154	0
194.374	0
194.594	0
194.815	0
195.035	0
195.255	0
195.475	0
195.695	0
195.915	0
196.135	0
196.355	0
196.575	0
196.795	0
197.015	-0
197.235	0
197.455	0
197.675	0
197.895	-0
198.115	0
198.335	0
198.555	0
198.775	0
198.995	0
199.214	0
199.434	0
199.654	0
199.874	0
200.094	1.63
200.313	0.33
200.533	0.45
200.753	-0.39
200.973	1.57
201.192	1.19
201.412	-0.33
201.632	0.32
201.851	0.96
202.071	0.22
202.291	0.39
202.51	-0.12
202.73	1
202.95	0.73
203.169	0.22
203.389	0.29
203.608	0.61
203.828	-0.45
204.047	0.17
204.267	0.8
204.486	0.65
204.706	0.07
204.925	0.24
205.145	0.31
205.364	0.84
205.583	0.95
205.803	0.21
206.022	-0.38
206.242	0.61
206.461	0.63
206.68	-0.05
206.9	0.17
207.119	1.17
207.338	1.3
207.557	0.03
207.777	0.35
207.996	0.1
208.215	0.78
208.434	-0.1
208.654	-0.07
208.873	0.37
209.092	0.74
209.311	0.21
209.53	0.07
209.749	0.32
209.968	-0.09
210.187	0.23
210.407	-0.13
210.626	0.16
210.845	0.65
211.064	0.07
211.283	-0.16
211.502	0.64
211.721	0.44
211.94	0.07
212.159	0.25
212.377	0.51
212.596	0.68
212.815	0.34
213.034	0.41
213.253	0.2
213.472	0.57
213.691	0.12
213.91	0.06
214.128	0.1
214.347	0.56
214.566	-0.17
214.785	-0.06
215.003	0.39
215.222	0.4
215.441	0.42
215.66	-0.01
215.878	0.14
216.097	0.31
216.316	0.02
216.534	0.05
216.753	0.34
216.972	0.23
217.19	0.31
217.409	0.01
217.627	0.08
217.846	0.19
218.064	0.19
218.283	0.01
218.501	0.48
218.72	0.38
218.938	0.02
219.157	0.1
219.375	0.41
219.594	0.33
219.812	-0.01
220.031	0.15
220.249	0.39
220.467	0.53
220.686	-0.04
220.904	-0.01
221.122	0.17
221.341	0.31
221.559	0.2
221.777	0.03
221.995	0.26
222.214	0.33
222.432	0.17
222.65	0.32
222.868	0.19
223.086	0.18
223.305	0.37
223.523	0.17
223.741	0.39
223.959	0.07
224.177	0.03
224.395	0.06
224.613	0.24
224.831	0.22
225.049	-0.03
225.267	0.09
225.485	0.23
225.703	0.09
225.921	0.12
226.139	0.09
226.357	0.23
226.575	0.2
226.793	0.11
227.011	0.7
227.229	0.27
227.447	0.27
227.665	-0.07
227.883	0.03
228.1	0.1
228.318	0.24
228.536	-0.15
228.754	0.01
228.972	0.24
229.189	0.29
229.407	-0.02
229.625	0.04
229.843	0.18
230.06	0.22
230.278	0.16
230.496	0.18
230.713	0.23
230.931	0.24
231.149	0.08
231.366	-0.01
231.584	0.08
231.801	0.44
232.019	0.19
232.236	0.04
232.454	0.04
232.671	0.16
232.889	0.15
233.106	-0.02
233.324	0.03
233.541	0.15
233.759	0.11
233.976	0.07
234.194	0.23
234.411	0.13
234.628	0.05
234.846	0.11
235.063	0.12
235.28	0.04
235.498	0.14
235.715	0.06
235.932	0.23
236.149	0.17
236.367	-0.01
236.584	0.25
236.801	0.12
237.018	0.18
237.236	0.19
237.453	-0.08
237.67	0.25
237.887	0.13
238.104	0.08
238.321	-0.04
238.538	0.09
238.755	0.16
238.973	-0.04
239.19	0.07
239.407	0.23
239.624	0.16
239.841	0.05
240.058	0.05
240.275	0.07
240.492	0.15
240.709	0.1
240.925	0.12
241.142	0.15
241.359	0.02
241.576	-0.01
241.793	0.09
242.01	0.08
242.227	0.23
242.444	0.19
242.66	0.2
242.877	0.17
243.094	0.02
243.311	0.12
243.527	0.12
243.744	0.15
243.961	0.1
244.178	0.1
244.394	0.07
244.611	0.22
244.828	0.3
245.044	0.04
245.261	0.09
245.477	0.11
245.694	0.11
245.911	0.05
246.127	0.09
246.344	0.23
246.56	0.15
246.777	0.07
246.993	0.05
247.21	0.13
247.426	0.11
247.643	0.07
247.859	-0.01
248.076	0.06
248.292	0.32
248.508	0.09
248.725	0.14
248.941	0.14
249.157	0.29
249.374	0.04
249.59	0.14
249.806	0.13
250.023	0.22
250.239	0
250.455	0.03
250.671	0.2
250.888	0.19
251.104	0.07
251.32	0.11
251.536	0.18
251.752	0.06
251.969	0.2
252.185	0.12
252.401	0.35
252.617	0.16
252.833	0.04
253.049	0.09
253.265	0.15
253.481	0.01
253.697	0.03
253.913	0.04
254.129	0.15
254.345	0.12
254.561	0.06
254.777	0.1
254.993	0.09
255.209	0.19
255.425	0.11
255.641	0.04
255.857	0.16
256.073	0.12
256.288	-0.01
256.504	0.04
256.72	0.08
256.936	0.2
257.152	0.11
257.367	0.01
257.583	0.07
257.799	0.13
258.015	0.1
258.23	-0.01
258.446	0.27
258.662	0.13
258.877	0.05
259.093	0.02
259.309	0.06
259.524	0.08
259.74	0.09
259.955	-0.04
260.171	0.08
260.387	0.09
260.602	0.13
260.818	0.16
261.033	0.02
261.249	0.09
261.464	0.11
261.68	-0.04
261.895	0.15
262.11	0.15
262.326	0.06
262.541	0
262.757	0.17
262.972	0.1
263.187	0.2
263.403	0.04
263.618	0.15
263.833	0.03
264.049	0.07
264.264	0.1
264.479	0.11
264.694	0.18
264.91	0.05
265.125	0.06
265.34	0.12
265.555	0.25
265.77	0.1
265.986	0.01
266.201	0.18
266.416	0.17
266.631	0.02
266.846	0.09
267.061	0.11
267.276	0.11
267.491	-0.03
267.706	0.1
267.921	0.1
268.136	0.08
268.351	0.13
268.566	0.02
268.781	0.15
268.996	0.12
269.211	0.09
269.426	0.06
269.641	-0.04
269.856	0.11
270.071	-0.02
270.285	0.03
270.5	0.22
270.715	0.17
270.93	0.04
271.145	0.08
271.359	0.11
271.574	0.06
271.789	0.07
272.004	0.01
272.218	0.07
272.433	0.15
272.648	0
272.862	0.16
273.077	0.09
273.292	0.05
273.506	-0.04
273.721	0.06
273.936	0.06
274.15	0.13
274.365	0.05
274.579	0.14
274.794	0.1
275.008	0.1
275.223	-0.01
275.437	0.05
275.652	0.17
275.866	0.12
276.081	0.12
276.295	0.17
276.509	0.08
276.724	0.06
276.938	0.14
277.153	0.12
277.367	0.14
277.581	0.05
277.796	0
278.01	0.04
278.224	0.16
278.438	0.17
278.653	0.01
278.867	0.05
279.081	-0.11
279.295	0.01
279.51	0.07
279.724	-0.04
279.938	0.14
280.152	0.12
280.366	0.1
280.58	0.09
280.794	0.13
281.008	0.09
281.222	0.11
281.437	0.15
281.651	0.12
281.865	0.14
282.079	0.04
282.293	-0.06
282.507	0.03
282.721	0.07
282.935	0.09
283.148	-0.01
283.362	0.04
283.576	-0.02
283.79	0.08
284.004	0.02
284.218	0.12
284.432	0.07
284.646	0.02
284.859	0.07
285.073	0.08
285.287	0.08
285.501	0.05
285.714	0.09
285.928	0.08
286.142	0.09
286.356	0.06
286.569	0.07
286.783	0.1
286.997	0.09
287.21	0.08
287.424	0.09
287.637	0.07
287.851	0.06
288.065	0.11
288.278	0.08
288.492	0.05
288.705	0.06
288.919	0.11
289.132	0.05
289.346	0.15
289.559	0.02
289.773	-0.01
289.986	0.08
290.2	0.07
290.413	0.08
290.626	0.02
290.84	0.06
291.053	0.06
291.267	0.12
291.48	0.06
291.693	0.04
291.906	0.02
292.12	0.04
292.333	0.03
292.546	0.09
292.76	0.15
292.973	0.09
293.186	0.11
293.399	0.04
293.612	0.14
293.826	0.08
294.039	0.1
294.252	0.08
294.465	0.08
294.678	0.07
294.891	0.09
295.104	0.04
295.317	0.06
295.53	0.06
295.743	0.09
295.956	0.08
296.169	0.1
296.382	0.13
296.595	0.06
296.808	0.01
297.021	0.15
297.234	0.09
297.447	0.08
297.66	0.12
297.873	0.12
298.086	0.08
298.299	0.04
298.511	0.02
298.724	0.05
298.937	0.05
299.15	0.04
299.363	0.1
299.575	0.08
299.788	0.05
300.001	0.06
300.213	-0.01
300.426	0.03
300.639	0.05
300.852	0.04
301.064	0.08
301.277	0.11
301.489	0.11
301.702	0.11
301.915	0.1
302.127	0.08
302.34	0.12
302.552	0.04
302.765	0.04
302.977	0.12
303.19	0.06
303.402	0.04
303.615	0.06
303.827	0.07
304.04	0.05
304.252	0.04
304.464	0.1
304.677	0.16
304.889	0.14
305.102	0.04
305.314	0.03
305.526	0.14
305.739	0.11
305.951	0.05
306.163	0.06
306.375	0.15
306.588	0.04
306.8	0.02
307.012	0.03
307.224	0.06
307.436	0.16
307.649	0.02
307.861	0.09
308.073	0.05
308.285	0.03
308.497	-0.01
308.709	0.07
308.921	0.05
309.133	0.12
309.346	0.04
309.558	0.04
309.77	0.1
309.982	0.11
310.194	0.09
310.406	0.04
310.617	0.14
310.829	0.04
311.041	0.1
311.253	0.07
311.465	0
311.677	0.05
311.889	0.09
312.101	0.04
312.313	0.1
312.524	0.09
312.736	0.04
312.948	0.07
313.16	0.15
313.372	0.04
313.583	0.1
313.795	0.07
314.007	0.06
314.218	0.08
314.43	0.06
314.642	0.03
314.853	-0
315.065	0.15
315.277	0.06
315.488	0.05
315.7	0.05
315.912	0.09
316.123	0.05
316.335	0.04
316.546	0.18
316.758	0.05
316.969	0.05
317.181	0.04
317.392	0.05
317.604	0.08
317.815	0.02
318.026	0.06
318.238	0.04
318.449	0.07
318.661	0.01
318.872	0.01
319.083	0.03
319.295	0.07
319.506	0.07
319.717	0.09
319.929	0.08
320.14	0.06
320.351	0.09
320.562	0.03
320.774	0.08
320.985	0.08
321.196	-0
321.407	0.03
321.618	0.1
321.829	0.06
322.041	0.07
322.252	0.05
322.463	0.11
322.674	0.06
322.885	0.03
323.096	0.04
323.307	0.07
323.518	0.09
323.729	0.07
323.94	0.06
324.151	0.06
324.362	0.07
324.573	0.1
324.784	0.06
324.995	0.09
325.206	0.07
325.417	0.04
325.628	0.07
325.838	0.08
326.049	0.09
326.26	0.08
326.471	0.02
326.682	0.06
326.892	0.05
327.103	-0.01
327.314	0.02
327.525	0.1
327.735	0.08
327.946	0.06
328.157	0.05
328.368	0.08
328.578	0.03
328.789	0.08
328.999	0.1
329.21	0.01
329.421	0.12
329.631	0.05
329.842	0.02
330.052	0.06
330.263	0.08
330.473	0.13
330.684	0.06
330.894	0.03
331.105	0.05
331.315	0.08
331.526	0
331.736	0.16
331.947	0.04
332.157	0.09
332.367	0.02
332.578	0.1
332.788	0.14
332.999	0.13
333.209	0.1
333.419	0.04
333.629	0.09
333.84	0.06
334.05	0.05
334.26	0.1
334.47	0.06
334.681	0.1
334.891	0.03
335.101	0.13
335.311	0.17
335.521	0.05
335.732	-0.06
335.942	0.07
336.152	0.08
336.362	0.06
336.572	0.06
336.782	0.11
336.992	0.05
337.202	0.07
337.412	0.03
337.622	0.08
337.832	0.05
338.042	0.05
338.252	0.02
338.462	0.02
338.672	0.08
338.882	0.06
339.092	0.06
339.302	0.12
339.511	0.08
339.721	0.02
339.931	0.06
340.141	0.13
340.351	0.09
340.561	0.05
340.77	0.08
340.98	0.06
341.19	0.07
341.4	0.06
341.609	0.03
341.819	0.03
342.029	-0.02
342.238	0.06
342.448	0.03
342.658	0.1
342.867	0.06
343.077	0.07
343.286	0.08
343.496	0.02
343.706	0.08
343.915	0.03
344.125	0.08
344.334	0.06
344.544	-0
344.753	0.05
344.963	0.05
345.172	0.03
345.381	0.05
345.591	0.01
345.8	0.1
346.01	0.12
346.219	0.09
346.428	-0.06
346.638	0.03
346.847	0.07
347.056	0.1
347.266	0.02
347.475	0.08
347.684	0.08
347.893	0.08
348.103	0.06
348.312	0.03
348.521	0.06
348.73	0.05
348.94	0.08
349.149	-0
349.358	0.02
349.567	0.03
349.776	0
349.985	0.03
350.194	0.1
350.403	0.08
350.612	-0
350.821	0.07
351.03	0.09
351.239	0.02
351.448	0.07
351.657	0.08
351.866	0.15
352.075	0.04
352.284	0.11
352.493	0.02
352.702	0.09
352.911	0.08
353.12	0.07
353.329	0.03
353.538	0.09
353.746	0.04
353.955	0.05
354.164	0.1
354.373	0.05
354.582	0.09
354.79	0.08
354.999	0.11
355.208	0.05
355.416	0.12
355.625	-0
355.834	0.04
356.042	0.08
356.251	0.07
356.46	0.05
356.668	0.08
356.877	0.14
357.085	0.13
357.294	-0.03
357.503	0.05
357.711	0.07
357.92	0.17
358.128	0.08
358.337	0.05
358.545	0.09
358.754	0.04
358.962	0.11
359.17	0.03
359.379	0.08
359.587	0.07
359.796	0.06
360.004	0.15
360.212	0.08
360.421	0.11
360.629	0.06
360.837	0.06
361.046	0.13
361.254	0.13
361.462	0.09
361.67	0.02
361.879	0.05
362.087	0.1
362.295	0.08
362.503	0.05
362.711	0.01
362.92	0.04
363.128	0.06
363.336	0
363.544	0.01
363.752	0.01
363.96	0.07
364.168	0.03
364.376	0.04
364.584	0.08
364.792	0.1
365	0.09
365.208	0.07
365.416	0.07
365.624	0.09
365.832	0.06
366.04	0.13
366.248	0.09
366.456	0.08
366.664	0.09
366.872	0.04
367.079	0.07
367.287	0.07
367.495	0.04
367.703	0.1
367.911	0.07
368.118	0.08
368.326	0.04
368.534	0.02
368.742	0.12
368.949	0.02
369.157	0.05
369.365	0.11
369.572	0.04
369.78	0.03
369.988	0.08
370.195	0.08
370.403	0.12
370.61	0.03
370.818	0.09
371.026	0.11
371.233	0.07
371.441	0.05
371.648	0.05
371.856	0.07
372.063	0.09
372.271	0.07
372.478	0.07
372.685	0.03
372.893	0.12
373.1	0.06
373.308	0.05
373.515	0.15
373.722	0.09
373.93	0.04
374.137	0.07
374.344	0.14
374.552	0.12
374.759	0.07
374.966	0.07
375.173	0.05
375.381	0.14
375.588	0.02
375.795	0
376.002	0.05
376.209	0.01
376.417	0.06
376.624	0.05
376.831	0.12
377.038	0.04
377.245	-0.01
377.452	0.01
377.659	0.04
377.866	0.07
378.073	0.05
378.28	0.08
378.487	0.07
378.694	0.06
378.901	0.04
379.108	0.04
379.315	0.14
379.522	0.17
379.729	0.05
379.936	0.09
380.143	0.06
380.35	0.08
380.557	0.07
380.763	0.12
380.97	0.08
381.177	0.11
381.384	0.05
381.591	0.05
381.797	0.09
382.004	0.09
382.211	0.06
382.418	0.07
382.624	0.1
382.831	0.12
383.038	0.07
383.244	0.04
383.451	0.07
383.658	0.08
383.864	0.05
384.071	0.03
384.277	0.11
384.484	0.02
384.69	0.12
384.897	0.06
385.103	0.06
385.31	0.02
385.516	0.08
385.723	0.02
385.929	0.06
386.136	0.08
386.342	0.06
386.549	0.07
386.755	0.11
386.961	0.09
387.168	0.03
387.374	0.09
387.58	0.07
387.787	0.03
387.993	0.05
388.199	0.04
388.406	0.02
388.612	0.08
388.818	0.08
389.024	0.04
389.231	0.09
389.437	0.2
389.643	0.13
389.849	0.09
390.055	0.08
390.261	0.05
390.467	0.08
390.674	0.01
390.88	0.03
391.086	0.1
391.292	0.04
391.498	0.1
391.704	0.07
391.91	0.06
392.116	0.07
392.322	0
392.528	0.06
392.734	0.02
392.94	0.05
393.146	0.07
393.352	0.06
393.557	0.09
393.763	0.07
393.969	0.11
394.175	0.06
394.381	0.07
394.587	0.03
394.792	0.07
394.998	0.13
395.204	0.11
395.41	0.03
395.615	0.08
395.821	0.11
396.027	0.07
396.233	0.03
396.438	0.09
396.644	0.14
396.85	0.07
397.055	0.07
397.261	0.15
397.466	0.14
397.672	0.05
397.878	0.11
398.083	0.11
398.289	0.04
398.494	0.12
398.7	0.11
398.905	0.01
399.111	0.13
399.316	0.01
399.522	0.05
399.727	0.09
399.932	0.05
400.138	0.1
400.343	0.17
400.549	0.06
400.754	0.1
400.959	0.1
401.165	0.07
401.37	0.1
401.575	0.19
401.78	0.11
401.986	0.09
402.191	0.09
402.396	0.08
402.601	0.13
402.807	0.08
403.012	0.07
403.217	0.14
403.422	0.11
403.627	0.07
403.832	0.08
404.037	0.1
404.243	0.11
404.448	0.08
404.653	0.07
404.858	0.08
405.063	0.13
405.268	0.03
405.473	0.02
405.678	0.07
405.883	0.22
406.088	0.1
406.293	0.04
406.498	0.04
406.703	0.09
406.907	0.06
407.112	0.04
407.317	0.1
407.522	0.11
407.727	0.02
407.932	0.08
408.136	0.17
408.341	0.04
408.546	0.09
408.751	0.1
408.956	0.12
409.16	0.14
409.365	0.07
409.57	0.08
409.774	0.09
409.979	0.13
410.184	0.09
410.388	0.06
410.593	0.15
410.798	0.07
411.002	0.03
411.207	0.1
411.411	0.11
411.616	0.09
411.82	0.05
412.025	0.12
412.229	0
412.434	0.16
412.638	0.12
412.843	0.06
413.047	0.13
413.252	0.06
413.456	0.08
413.66	0.13
413.865	0.05
414.069	0.1
414.273	0.05
414.478	0.08
414.682	0.07
414.886	0.05
415.091	0.06
415.295	-0
415.499	0.07
415.703	0.05
415.908	0.12
416.112	0
416.316	0.16
416.52	0.07
416.724	0.08
416.929	0.05
417.133	0.19
417.337	0.07
417.541	0.02
417.745	0.08
417.949	0.13
418.153	0.14
418.357	0.02
418.561	0.16
418.765	0.08
418.969	0.21
419.173	0.16
419.377	0.07
419.581	0.15
419.785	0.07
419.989	0.02
420.193	0.06
420.397	0.1
420.601	0.12
420.804	0.18
421.008	0.08
421.212	0.12
421.416	0.09
421.62	0.06
421.823	0.1
422.027	0.18
422.231	0.1
422.435	0.12
422.638	0.13
422.842	0.08
423.046	0.05
423.249	0.12
423.453	0.16
423.657	0.16
423.86	0.08
424.064	0.11
424.268	0.14
424.471	0.14
424.675	0.16
424.878	0.2
425.082	0.13
425.285	0.14
425.489	0.16
425.692	0.12
425.896	0.06
426.099	0.14
426.303	0.12
426.506	0.06
426.71	0.13
426.913	0.19
427.116	0.1
427.32	0.11
427.523	0.12
427.726	0.2
427.93	0.09
428.133	0.12
428.336	0.05
428.54	0.09
428.743	0.14
428.946	0.18
429.149	0.13
429.353	0.14
429.556	0.11
429.759	0.15
429.962	0.06
430.165	0.12
430.368	0.08
430.571	0.1
430.775	0.11
430.978	0.1
431.181	0.14
431.384	0.13
431.587	0.06
431.79	0.14
431.993	0.12
432.196	0.06
432.399	0.1
432.602	0.17
432.805	0.09
433.008	0.11
433.211	0.04
433.414	0.13
433.616	0.21
433.819	0.1
434.022	0.03
434.225	0.21
434.428	0.17
434.631	0.2
434.833	0.16
435.036	0.1
435.239	0.17
435.442	0.15
435.645	0.1
435.847	0.13
436.05	0.13
436.253	0.1
436.455	0.1
436.658	0.1
436.861	0.17
437.063	0.1
437.266	0.09
437.468	0.09
437.671	0.23
437.874	0.11
438.076	0.1
438.279	0.04
438.481	0.09
438.684	0.05
438.886	0.15
439.089	0.04
439.291	0.18
439.494	0.16
439.696	0.08
439.899	0.06
440.101	0.15
440.303	0.08
440.506	0.16
440.708	0.14
440.91	0.18
441.113	0.06
441.315	0.21
441.517	0.07
441.72	0.17
441.922	0.07
442.124	0.09
442.326	0.17
442.529	0.16
442.731	0.08
442.933	0.23
443.135	0.13
443.337	0.11
443.539	0.1
443.742	0.12
443.944	0.11
444.146	0.1
444.348	0.13
444.55	0.11
444.752	0.13
444.954	0.11
445.156	0.14
445.358	0.12
445.56	0.2
445.762	0.15
445.964	0.1
446.166	0.09
446.368	0.11
446.57	0.21
446.772	0.1
446.974	0.12
447.175	0.14
447.377	0.12
447.579	0.13
447.781	0.06
447.983	0.22
448.184	0.13
448.386	0.16
448.588	0.05
448.79	0.18
448.991	0.1
449.193	0.11
449.395	0.17
449.597	0.22
449.798	0.16
450	0.17
450.202	0.16
450.403	0.14
450.605	0.14
450.806	0.12
451.008	0.08
451.21	0.13
451.411	0.1
451.613	0.09
451.814	0.14
452.016	0.19
452.217	0.15
452.419	0.2
452.62	0.14
452.821	0.2
453.023	0.21
453.224	0.17
453.426	0.15
453.627	0.17
453.828	0.18
454.03	0.16
454.231	0.15
454.432	0.14
454.634	0.25
454.835	0.12
455.036	0.11
455.238	0.15
455.439	0.18
455.64	0.07
455.841	0.1
456.042	0.27
456.244	0.19
456.445	0.11
456.646	0.11
456.847	0.15
457.048	0.22
457.249	0.18
457.45	0.36
457.651	0.11
457.852	0.21
458.054	0.16
458.255	0.17
458.456	0.22
458.657	0.19
458.858	0.11
459.058	0.16
459.259	0.25
459.46	0.14
459.661	0.13
459.862	0.31
460.063	0.15
460.264	0.25
460.465	0.1
460.666	0.23
460.866	0.15
461.067	0.18
461.268	0.16
461.469	0.11
461.67	0.19
461.87	0.15
462.071	0.11
462.272	0.17
462.473	0.17
462.673	0.2
462.874	0.13
463.075	0.18
463.275	0.15
463.476	0.21
463.676	0.23
463.877	0.21
464.078	0.14
464.278	0.23
464.479	0.17
464.679	0.23
464.88	0.19
465.08	0.27
465.281	0.2
465.481	0.17
465.682	0.21
465.882	0.2
466.083	0.19
466.283	0.19
466.483	0.19
466.684	0.18
466.884	0.17
467.085	0.19
467.285	0.27
467.485	0.2
467.686	0.23
467.886	0.17
468.086	0.17
468.286	0.22
468.487	0.25
468.687	0.16
468.887	0.23
469.087	0.26
469.287	0.24
469.488	0.17
469.688	0.23
469.888	0.26
470.088	0.29
470.288	0.28
470.488	0.29
470.688	0.2
470.888	0.22
471.088	0.21
471.288	0.27
471.488	0.27
471.688	0.31
471.888	0.25
472.088	0.32
472.288	0.3
472.488	0.25
472.688	0.21
472.888	0.31
473.088	0.3
473.288	0.31
473.488	0.27
473.688	0.37
473.887	0.31
474.087	0.31
474.287	0.33
474.487	0.29
474.687	0.35
474.886	0.32
475.086	0.32
475.286	0.34
475.486	0.31
475.685	0.37
475.885	0.29
476.085	0.33
476.284	0.39
476.484	0.36
476.684	0.4
476.883	0.47
477.083	0.39
477.282	0.35
477.482	0.45
477.681	0.45
477.881	0.41
478.08	0.39
478.28	0.38
478.479	0.41
478.679	0.46
478.878	0.4
479.078	0.41
479.277	0.47
479.477	0.45
479.676	0.49
479.875	0.48
480.075	0.45
480.274	0.48
480.473	0.53
480.673	0.47
480.872	0.54
481.071	0.53
481.271	0.55
481.47	0.55
481.669	0.55
481.868	0.53
482.067	0.53
482.267	0.53
482.466	0.58
482.665	0.57
482.864	0.59
483.063	0.61
483.262	0.67
483.461	0.69
483.661	0.7
483.86	0.68
484.059	0.73
484.258	0.73
484.457	0.72
484.656	0.72
484.855	0.82
485.054	0.71
485.253	0.75
485.452	0.74
485.651	0.81
485.849	0.77
486.048	0.81
486.247	0.82
486.446	0.88
486.645	0.85
486.844	0.85
487.043	0.89
487.241	0.94
487.44	0.93
487.639	0.97
487.838	0.99
488.037	1.01
488.235	1.09
488.434	1.06
488.633	1.02
488.831	1.14
489.03	1.13
489.229	1.16
489.427	1.14
489.626	1.19
489.825	1.21
490.023	1.25
490.222	1.22
490.42	1.29
490.619	1.3
490.817	1.37
491.016	1.33
491.214	1.41
491.413	1.38
491.611	1.41
491.81	1.46
492.008	1.51
492.207	1.54
492.405	1.56
492.604	1.54
492.802	1.61
493	1.66
493.199	1.68
493.397	1.77
493.595	1.76
493.794	1.71
493.992	1.88
494.19	1.83
494.388	1.96
494.587	1.9
494.785	1.96
494.983	1.89
495.181	2.03
495.379	2.09
495.578	2.15
495.776	2.16
495.974	2.18
496.172	2.21
496.37	2.31
496.568	2.32
496.766	2.38
496.964	2.47
497.162	2.48
497.36	2.56
497.558	2.57
497.756	2.68
497.954	2.71
498.152	2.78
498.35	2.86
498.548	2.84
498.746	2.88
498.944	2.89
499.142	2.98
499.34	3.1
499.538	3.18
499.736	3.09
499.933	3.25
500.131	3.26
500.329	3.44
500.527	3.51
500.725	3.63
500.922	3.59
501.12	3.69
501.318	3.74
501.516	3.82
501.713	3.94
501.911	3.99
502.109	3.97
502.306	4.12
502.504	4.11
502.701	4.25
502.899	4.32
503.097	4.59
503.294	4.44
503.492	4.62
503.689	4.74
503.887	4.77
504.084	4.92
504.282	4.91
504.479	4.92
504.677	5.17
504.874	5.21
505.072	5.13
505.269	5.46
505.466	5.55
505.664	5.64
505.861	5.56
506.059	5.75
506.256	5.85
506.453	5.94
506.651	6.18
506.848	6.24
507.045	6.23
507.242	6.39
507.44	6.47
507.637	6.57
507.834	6.62
508.031	6.88
508.229	6.86
508.426	6.86
508.623	7.12
508.82	7.23
509.017	7.22
509.214	7.27
509.411	7.55
509.608	7.54
509.805	7.82
510.003	7.86
510.2	7.98
510.397	8.24
510.594	8.13
510.791	8.34
510.988	8.36
511.184	8.38
511.381	8.34
511.578	8.7
511.775	8.85
511.972	8.82
512.169	8.96
512.366	9.05
512.563	9.39
512.76	9.39
512.956	9.54
513.153	9.46
513.35	9.45
513.547	9.54
513.744	9.78
513.94	9.89
514.137	10.01
514.334	10.09
514.53	10.23
514.727	10.6
514.924	10.4
515.12	10.44
515.317	10.48
515.514	10.48
515.71	10.46
515.907	10.92
516.103	10.93
516.3	10.85
516.497	11.07
516.693	11.06
516.89	11.21
517.086	11.25
517.283	11.23
517.479	11.12
517.676	11.43
517.872	11.48
518.068	11.44
518.265	11.53
518.461	11.39
518.658	11.67
518.854	11.67
519.05	11.82
519.247	11.88
519.443	11.71
519.639	11.88
519.836	11.79
520.032	11.63
520.228	11.97
520.424	11.83
520.621	11.87
520.817	11.95
521.013	11.82
521.209	12.09
521.405	11.99
521.601	11.97
521.798	11.88
521.994	11.8
522.19	11.76
522.386	11.76
522.582	11.9
522.778	12
522.974	11.69
523.17	11.72
523.366	11.65
523.562	11.73
523.758	11.66
523.954	11.35
524.15	11.63
524.346	11.58
524.542	11.6
524.738	11.38
524.934	11.54
525.129	11.44
525.325	11.23
525.521	11.13
525.717	11.4
525.913	10.97
526.109	11.03
526.304	11.09
526.5	10.91
526.696	10.89
526.892	10.7
527.087	10.96
527.283	10.76
527.479	10.62
527.674	10.22
527.87	10.48
528.066	10.28
528.261	10.31
528.457	10.1
528.653	10.25
528.848	10.11
529.044	10.09
529.239	9.78
529.435	9.78
529.63	9.58
529.826	9.48
530.021	9.48
530.217	9.48
530.412	9.32
530.608	9.23
530.803	9.24
530.999	8.94
531.194	8.97
531.389	8.97
531.585	8.82
531.78	8.9
531.975	8.63
532.171	8.53
532.366	8.54
532.561	8.45
532.757	8.3
532.952	8.39
533.147	8.04
533.342	8.16
533.538	7.9
533.733	8.06
533.928	7.63
534.123	7.71
534.318	7.71
534.513	7.49
534.709	7.59
534.904	7.5
535.099	7.45
535.294	7.31
535.489	7.3
535.684	7.09
535.879	7.04
536.074	7.02
536.269	6.93
536.464	6.9
536.659	6.75
536.854	6.67
537.049	6.66
537.244	6.58
537.439	6.47
537.634	6.41
537.828	6.35
538.023	6.33
538.218	6.24
538.413	6.09
538.608	6.05
538.803	6.02
538.997	5.93
539.192	5.91
539.387	5.83
539.582	5.75
539.776	5.65
539.971	5.69
540.166	5.6
540.36	5.45
540.555	5.48
540.75	5.44
540.944	5.39
541.139	5.26
541.334	5.2
541.528	5.15
541.723	5.19
541.917	5.11
542.112	4.97
542.306	4.87
542.501	4.85
542.695	4.76
542.89	4.74
543.084	4.73
543.279	4.71
543.473	4.65
543.668	4.64
543.862	4.47
544.056	4.45
544.251	4.48
544.445	4.41
544.64	4.37
544.834	4.14
545.028	4.08
545.222	4.18
545.417	4.22
545.611	4.14
545.805	4.06
546	3.91
546.194	4
546.388	3.91
546.582	3.88
546.776	3.74
546.97	3.8
547.165	3.72
547.359	3.68
547.553	3.61
547.747	3.57
547.941	3.64
548.135	3.47
548.329	3.49
548.523	3.45
548.717	3.32
548.911	3.29
549.105	3.25
549.299	3.27
549.493	3.22
549.687	3.15
549.881	3.17
550.075	3.12
550.269	3.01
550.463	3.05
550.657	2.93
550.85	2.94
551.044	2.87
551.238	2.87
551.432	2.77
551.626	2.84
551.82	2.76
552.013	2.66
552.207	2.72
552.401	2.71
552.594	2.61
552.788	2.55
552.982	2.5
553.176	2.49
553.369	2.54
553.563	2.47
553.756	2.39
553.95	2.35
554.144	2.37
554.337	2.36
554.531	2.26
554.724	2.24
554.918	2.25
555.111	2.21
555.305	2.19
555.498	2.18
555.692	2.14
555.885	2.08
556.079	2.06
556.272	2.01
556.466	2
556.659	1.97
556.852	1.99
557.046	1.91
557.239	1.86
557.432	1.86
557.626	1.84
557.819	1.81
558.012	1.82
558.206	1.83
558.399	1.74
558.592	1.71
558.785	1.68
558.979	1.7
559.172	1.66
559.365	1.67
559.558	1.63
559.751	1.55
559.944	1.61
560.138	1.6
560.331	1.52
560.524	1.52
560.717	1.5
560.91	1.47
561.103	1.43
561.296	1.41
561.489	1.43
561.682	1.43
561.875	1.43
562.068	1.38
562.261	1.34
562.454	1.36
562.647	1.32
562.84	1.29
563.032	1.25
563.225	1.25
563.418	1.24
563.611	1.25
563.804	1.22
563.997	1.14
564.19	1.11
564.382	1.19
564.575	1.11
564.768	1.14
564.961	1.13
565.153	1.11
565.346	1.09
565.539	1.11
565.731	1.08
565.924	1.07
566.117	1.07
566.309	1.03
566.502	0.99
566.695	0.96
566.887	1
567.08	0.98
567.272	0.95
567.465	0.94
567.657	0.94
567.85	0.93
568.042	0.92
568.235	0.92
568.427	0.87
568.62	0.88
568.812	0.91
569.005	0.87
569.197	0.82
569.389	0.86
569.582	0.86
569.774	0.82
569.966	0.79
570.159	0.78
570.351	0.77
570.543	0.78
570.736	0.77
570.928	0.71
571.12	0.77
571.312	0.73
571.505	0.67
571.697	0.74
571.889	0.72
572.081	0.71
572.273	0.66
572.465	0.74
572.658	0.67
572.85	0.67
573.042	0.66
573.234	0.63
573.426	0.67
573.618	0.61
573.81	0.64
574.002	0.67
574.194	0.65
574.386	0.56
574.578	0.52
574.77	0.58
574.962	0.58
575.154	0.56
575.346	0.55
575.538	0.56
575.729	0.52
575.921	0.56
576.113	0.53
576.305	0.55
576.497	0.52
576.689	0.52
576.88	0.5
577.072	0.51
577.264	0.47
577.456	0.49
577.647	0.41
577.839	0.52
578.031	0.51
578.223	0.45
578.414	0.42
578.606	0.48
578.798	0.46
578.989	0.42
579.181	0.43
579.372	0.43
579.564	0.41
579.755	0.46
579.947	0.44
580.139	0.43
580.33	0.34
580.522	0.37
580.713	0.32
580.905	0.4
581.096	0.4
581.287	0.4
581.479	0.36
581.67	0.4
581.862	0.34
582.053	0.34
582.244	0.3
582.436	0.35
582.627	0.34
582.818	0.32
583.01	0.32
583.201	0.33
583.392	0.32
583.583	0.34
583.775	0.29
583.966	0.32
584.157	0.31
584.348	0.32
584.54	0.27
584.731	0.34
584.922	0.3
585.113	0.26
585.304	0.33
585.495	0.33
585.686	0.3
585.877	0.28
586.068	0.3
586.259	0.29
586.45	0.3
586.641	0.28
586.832	0.23
587.023	0.25
587.214	0.26
587.405	0.26
587.596	0.24
587.787	0.3
587.978	0.31
588.169	0.22
588.36	0.22
588.551	0.25
588.742	0.23
588.932	0.26
589.123	0.23
589.314	0.27
589.505	0.24
589.696	0.22
589.886	0.22
590.077	0.18
590.268	0.23
590.458	0.21
590.649	0.18
590.84	0.22
591.03	0.17
591.221	0.19
591.412	0.14
591.602	0.23
591.793	0.23
591.984	0.18
592.174	0.2
592.365	0.28
592.555	0.17
592.746	0.21
592.936	0.18
593.127	0.2
593.317	0.24
593.508	0.16
593.698	0.17
593.889	0.19
594.079	0.18
594.269	0.17
594.46	0.18
594.65	0.17
594.84	0.17
595.031	0.15
595.221	0.16
595.411	0.1
595.602	0.21
595.792	0.18
595.982	0.12
596.172	0.2
596.363	0.16
596.553	0.19
596.743	0.15
596.933	0.17
597.123	0.19
597.314	0.14
597.504	0.16
597.694	0.2
597.884	0.16
598.074	0.16
598.264	0.14
598.454	0.18
598.644	0.15
598.834	0.15
599.024	0.09
599.214	0.13
599.404	0.16
599.594	0.15
599.784	0.13
599.974	0.17
600.164	0.14
600.354	0.11
600.544	0.07
600.734	0.16
600.924	0.18
601.114	0.11
601.303	0.14
601.493	0.14
601.683	0.12
601.873	0.13
602.063	0.11
602.252	0.18
602.442	0.08
602.632	0.12
602.821	0.11
603.011	0.14
603.201	0.11
603.39	0.1
603.58	0.13
603.77	0.12
603.959	0.18
604.149	0.12
604.339	0.1
604.528	0.16
604.718	0.15
604.907	0.09
605.097	0.1
605.286	0.06
605.476	0.15
605.665	0.15
605.855	0.11
606.044	0.16
606.234	0.12
606.423	0.09
606.612	0.09
606.802	0.11
606.991	0.13
607.181	0.12
607.37	0.07
607.559	0.09
607.749	0.09
607.938	0.11
608.127	0.11
608.316	0.11
608.506	0.1
608.695	0.1
608.884	0.08
609.073	0.09
609.263	0.12
609.452	0.12
609.641	0.1
609.83	0.06
610.019	0.09
610.208	0.06
610.397	0.09
610.586	0.11
610.775	0.07
610.965	0.07
611.154	0.07
611.343	0.09
611.532	0.09
611.721	0.06
611.91	0.05
612.099	0.12
612.287	0.07
612.476	0.05
612.665	0.09
612.854	0.06
613.043	0.11
613.232	0.06
613.421	0.08
613.61	0.1
613.798	0.05
613.987	0.13
614.176	0.09
614.365	0.11
614.554	0.09
614.742	0.14
614.931	0.05
615.12	0.11
615.309	0.08
615.497	0.12
615.686	0.05
615.875	0.08
616.063	0.1
616.252	0.07
616.44	0.09
616.629	0.1
616.818	0.12
617.006	0.08
617.195	0.07
617.383	0.08
617.572	0.08
617.76	0.06
617.949	0.08
618.137	0.09
618.326	0.17
618.514	0.09
618.703	0.04
618.891	0.15
619.079	0.04
619.268	0.09
619.456	0.04
619.644	0.12
619.833	0.08
620.021	0.04
620.209	0.06
620.398	0.08
620.586	0.1
620.774	0.07
620.962	0.05
621.151	0.11
621.339	0.09
621.527	0.04
621.715	0.02
621.903	0.03
622.092	0.06
622.28	0.09
622.468	0.09
622.656	0.05
622.844	0.1
623.032	0.08
623.22	0.02
623.408	0.1
623.596	0.11
623.784	0.11
623.972	0.06
624.16	0.06
624.348	0.13
624.536	0.05
624.724	0.06
624.912	0.12
625.1	0.11
625.288	0.06
625.476	0.03
625.664	0.1
625.851	0.05
626.039	0.04
626.227	0.07
626.415	0.08
626.603	0.01
626.79	0.05
626.978	0.04
627.166	0.11
627.354	0.08
627.541	0.03
627.729	0.01
627.917	0.07
628.104	0.11
628.292	0.08
628.48	0.07
628.667	0.08
628.855	0.08
629.042	0.07
629.23	0.06
629.418	0.06
629.605	0.06
629.793	0.04
629.98	0.06
630.168	0.07
630.355	0.07
630.543	0.09
630.73	0.04
630.917	0.1
631.105	0.11
631.292	0.04
631.48	0.07
631.667	0.16
631.854	0.08
632.042	0.02
632.229	0
632.416	0.06
632.604	0.06
632.791	0.05
632.978	0.09
633.165	0.06
633.353	0.11
633.54	0.08
633.727	0.02
633.914	0.03
634.101	-0.01
634.289	0.08
634.476	0.02
634.663	0.01
634.85	0.1
635.037	0.01
635.224	0.01
635.411	0.08
635.598	0.14
635.785	0.04
635.972	0.04
636.159	0.1
636.346	0.03
636.533	0.06
636.72	0.06
636.907	0.04
637.094	0.1
637.281	0.04
637.468	0.08
637.655	0.05
637.842	0.04
638.029	0.01
638.215	0.08
638.402	0.08
638.589	0.02
638.776	0.04
638.963	0.02
639.149	0.1
639.336	0.13
639.523	0.06
639.709	0.05
639.896	0.03
640.083	0.1
640.27	0.09
640.456	0.05
640.643	0.09
640.829	0.01
641.016	0.03
641.203	0.06
641.389	0.1
641.576	0.09
641.762	0.03
641.949	0.02
642.135	0.08
642.322	0.05
642.508	0.03
642.695	0.04
642.881	0.05
643.068	0.03
643.254	0.05
643.441	0.1
643.627	0.08
643.813	0.02
644	0.09
644.186	0.01
644.372	0.03
644.559	0.06
644.745	0.06
644.931	0.03
645.118	0.05
645.304	0.04
645.49	0.03
645.676	0.06
645.862	0.04
646.049	0.12
646.235	0.08
646.421	0.12
646.607	0.12
646.793	0.05
646.979	0.04
647.165	0.05
647.352	0.04
647.538	0.08
647.724	0.07
647.91	0.04
648.096	0.13
648.282	0.12
648.468	0.04
648.654	0.08
648.84	0.05
649.026	0.07
649.212	0.04
649.397	0.02
649.583	-0.01
649.769	0.07
649.955	0.03
650.141	0.07
650.327	0.12
650.513	0.03
650.698	0.09
650.884	-0.02
651.07	0.08
651.256	0.05
651.442	0.04
651.627	0.05
651.813	0.05
651.999	0.04
652.184	0.06
652.37	0.02
652.556	0.05
652.741	0.13
652.927	-0.02
653.113	0.05
653.298	0.06
653.484	0.06
653.669	0.01
653.855	0.04
654.04	0.06
654.226	0.06
654.412	0.05
654.597	0.03
654.782	0.03
654.968	0.09
655.153	0.08
655.339	0.03
655.524	0.03
655.71	0.04
655.895	0.04
656.08	0.04
656.266	0.11
656.451	0.09
656.636	0.03
656.822	0.03
657.007	0.02
657.192	0.02
657.378	-0.01
657.563	0.05
657.748	0.06
657.933	0.07
658.118	0.06
658.304	0.03
658.489	0.12
658.674	0.08
658.859	0.01
659.044	0.04
659.229	0.09
659.414	0.03
659.599	0.05
659.785	-0.01
659.97	0.04
660.155	0.06
660.34	0.04
660.525	0.04
660.71	0.04
660.895	0.11
661.08	0.06
661.264	0.05
661.449	0.11
661.634	0.09
661.819	0.1
662.004	0.1
662.189	0.02
662.374	0.02
662.559	0.01
662.743	0.01
662.928	0.06
663.113	0.07
663.298	0.02
663.483	0.05
663.667	0.1
663.852	0
664.037	0.11
664.221	0.03
664.406	0.09
664.591	0.08
664.775	0.08
664.96	0.08
665.145	0.08
665.329	0.1
665.514	0.04
665.698	0.04
665.883	-0
666.068	0.1
666.252	0.09
666.437	0.03
666.621	0.05
666.806	0.12
666.99	0.05
667.174	0.02
667.359	0.12
667.543	0.04
667.728	0.02
667.912	0.01
668.096	0.09
668.281	0.07
668.465	0.08
668.649	0.06
668.834	0.05
669.018	0.05
669.202	0.03
669.387	0.04
669.571	0.12
669.755	0.07
669.939	0.08
670.124	0.07
670.308	0.09
670.492	0.11
670.676	0.06
670.86	0.08
671.044	0.03
671.228	0.08
671.413	0.07
671.597	0.02
671.781	0.01
671.965	0.08
672.149	0.1
672.333	0.05
672.517	0.07
672.701	0.1
672.885	0.06
673.069	-0.02
673.253	0.14
673.437	0.08
673.621	0.04
673.804	0.03
673.988	0.1
674.172	0.09
674.356	0.07
674.54	0.04
674.724	0.15
674.908	0.06
675.091	0.11
675.275	0.05
675.459	0.1
675.643	0.05
675.826	0.09
676.01	0.08
676.194	0.07
676.377	0.13
676.561	0.09
676.745	0.11
676.928	0.12
677.112	0.14
677.296	0.01
677.479	0.05
677.663	0.05
677.846	0.13
678.03	0.03
678.213	0.08
678.397	0.11
678.58	0.06
678.764	0.07
678.947	0.05
679.131	0.01
679.314	0.15
679.498	0.03
679.681	0.08
679.865	0.09
680.048	0.06
680.231	0.07
680.415	0.09
680.598	0.09
680.781	0.02
680.965	0.04
681.148	0.08
681.331	0.09
681.514	0.13
681.698	0.07
681.881	0.1
682.064	0.09
682.247	0.08
682.43	0.03
682.614	0.12
682.797	0.15
682.98	0.11
683.163	0.05
683.346	0.1
683.529	0.03
683.712	0.03
683.895	0.1
684.078	-0.01
684.261	0.07
684.444	0.09
684.627	0.08
684.81	0.02
684.993	0.07
685.176	0.13
685.359	0.01
685.542	0.02
685.725	0.16
685.908	0.06
686.091	0.05
686.274	0.11
686.457	0.12
686.639	0.02
686.822	0.11
687.005	0.07
687.188	0.08
687.371	0.13
687.553	0.08
687.736	0.1
687.919	0.13
688.102	0.15
688.284	0
688.467	0.08
688.65	0.1
688.832	0.07
689.015	0.09
689.197	-0
689.38	0.17
689.563	0.15
689.745	0.01
689.928	0.01
690.11	0.04
690.293	0.06
690.475	-0.01
690.658	0.1
690.84	0.06
691.023	0.05
691.205	0.04
691.388	0.07
691.57	0.08
691.752	0.09
691.935	-0.03
692.117	0.02
692.3	0.11
692.482	0.13
692.664	0.03
692.847	0.03
693.029	0.15
693.211	0.11
693.393	0.01
693.576	0.01
693.758	0.03
693.94	0.06
694.122	0.04
694.304	0.1
694.487	0.07
694.669	0.17
694.851	0.03
695.033	0.08
695.215	0.04
695.397	0.03
695.579	0.11
695.761	0.04
695.943	0.01
696.125	0.11
696.308	0.1
696.49	-0.06
696.671	0.19
696.853	0.03
697.035	0.15
697.217	0.11
697.399	0.07
697.581	-0.01
697.763	0.08
697.945	0.01
698.127	0.08
698.309	0.17
698.491	0.11
698.672	0.14
698.854	0.09
699.036	0.16
699.218	0.03
699.399	0.18
699.581	0.07
699.763	0.12
699.945	0.06
700.126	0.02
700.308	0.11
700.49	0.05
700.671	-0.03
700.853	0.05
701.035	0.01
701.216	0.04
701.398	0.01
701.579	0.04
701.761	0.06
701.943	0.02
702.124	0.04
702.306	0.09
702.487	0.23
702.669	0.06
702.85	0.04
703.031	0.03
703.213	0.16
703.394	0.14
703.576	0.06
703.757	0.12
703.938	0.1
704.12	0.18
704.301	0.08
704.483	0.02
704.664	0.13
704.845	0.12
705.026	0.12
705.208	0.06
705.389	0.11
705.57	0.08
705.751	0.13
705.933	0.06
706.114	0.1
706.295	0.05
706.476	0.03
706.657	0.17
706.838	0.09
707.02	0.09
707.201	0.1
707.382	-0.01
707.563	0.12
707.744	0.04
707.925	0
708.106	0.03
708.287	0.12
708.468	0.13
708.649	0.09
708.83	0.08
709.011	0.06
709.192	0.13
709.373	0.05
709.554	0.04
709.734	0.11
709.915	0.12
710.096	0.07
710.277	-0.02
710.458	0.09
710.639	0.07
710.819	0.01
711	0.11
711.181	0.08
711.362	0.14
711.542	0.06
711.723	0.11
711.904	0.14
712.085	0.12
712.265	0.06
712.446	0.04
712.627	0.06
712.807	0.11
712.988	0.1
713.168	-0
713.349	0.08
713.53	-0.07
713.71	0.01
713.891	-0.01
714.071	0.07
714.252	0.03
714.432	0.03
714.613	-0.03
714.793	0.06
714.974	0.12
715.154	0.18
715.334	0.14
715.515	0.15
715.695	-0.02
715.876	0
716.056	0.13
716.236	0.08
716.417	0.07
716.597	-0.03
716.777	0.23
716.957	0.11
717.138	0.09
717.318	0.04
717.498	-0.04
717.678	0.12
717.859	0.07
718.039	-0.09
718.219	0.07
718.399	0.14
718.579	-0.07
718.759	-0
718.939	0.12
719.12	0.09
719.3	0.1
719.48	-0.09
719.66	-0.02
719.84	0.14
720.02	-0.01
720.2	0.06
720.38	0.06
720.56	0.1
720.74	0.06
720.92	0.07
721.1	0.17
721.279	0.11
721.459	0.07
721.639	0
721.819	0.13
721.999	0.07
722.179	0.17
722.359	-0.03
722.538	0.06
722.718	0.08
722.898	-0
723.078	-0
723.257	0.01
723.437	0.08
723.617	0.15
723.797	-0.03
723.976	0.06
724.156	0.06
724.336	0.12
724.515	0.22
724.695	-0.06
724.874	0.08
725.054	0.09
725.234	0.01
725.413	0.07
725.593	-0.02
725.772	0.03
725.952	0.08
726.131	0.02
726.311	-0.01
726.49	0.07
726.67	-0.04
726.849	0.03
727.028	0.19
727.208	0.02
727.387	0.17
727.567	-0.06
727.746	0.05
727.925	-0
728.105	0.04
728.284	0.02
728.463	0.07
728.643	0.11
728.822	-0.03
729.001	-0.02
729.18	0.03
729.359	0.13
729.539	0.11
729.718	0.11
729.897	0.09
730.076	0.09
730.255	-0.01
730.434	0.02
730.614	0.11
730.793	0.12
730.972	0.03
731.151	0.12
731.33	0.14
731.509	0.05
731.688	0.06
731.867	0.06
732.046	0.02
732.225	0.26
732.404	-0.03
732.583	-0.01
732.762	-0
732.941	0.16
733.12	0.04
733.298	0.05
733.477	0.15
733.656	0.09
733.835	0.02
734.014	0.25
734.193	0.06
734.371	0.17
734.55	0.16
734.729	-0.03
734.908	0.12
735.086	0.13
735.265	0.15
735.444	-0.01
735.623	0.04
735.801	-0.15
735.98	0.03
736.159	0.07
736.337	0.15
736.516	0.16
736.694	0.12
736.873	0.03
737.052	0.11
737.23	0.18
737.409	0
737.587	0.22
737.766	0.01
737.944	0.03
738.123	0.12
738.301	0.15
738.479	-0.03
738.658	0.08
738.836	-0.17
739.015	0.18
739.193	0.2
739.371	-0.04
739.55	0.03
739.728	-0.08
739.906	0.22
740.085	0.25
740.263	0.01
740.441	-0.17
740.62	0.27
740.798	0.09
740.976	0.13
741.154	-0.05
741.332	0.28
741.511	0.08
741.689	0.13
741.867	0.19
742.045	-0.03
742.223	0.01
742.401	0
742.579	-0.11
742.757	0.04
742.935	0.05
743.114	0.05
743.292	0.05
743.47	0.07
743.648	0.1
743.826	0.12
744.004	0.24
744.181	0.23
744.359	0.07
744.537	0.04
744.715	0.02
744.893	0.07
745.071	0.09
745.249	0.09
745.427	0.01
745.605	0.1
745.782	-0.01
745.96	0.16
746.138	0.16
746.316	0.1
746.493	0.02
746.671	0.06
746.849	-0.03
747.027	0.19
747.204	0.04
747.382	0.13
747.56	-0.07
747.737	0.06
747.915	-0.03
748.093	0.05
748.27	-0.01
748.448	-0.04
748.625	0.06
748.803	-0.03
748.98	-0.04
749.158	0.07
749.335	0.21
749.513	0.03
749.69	0.08
749.868	0.1
750.045	0.04
750.223	-0.02
750.4	-0.2
750.578	0.19
750.755	0.04
750.932	-0.04
751.11	0.08
751.287	0
751.464	0.24
751.642	0.05
751.819	0.16
751.996	-0.05
752.173	0.1
752.351	-0.07
752.528	0.1
752.705	0.1
752.882	0.06
753.06	0.16
753.237	0.06
753.414	0.21
753.591	0.31
753.768	0.06
753.945	-0.01
754.122	-0.01
754.299	0.17
754.476	-0.07
754.654	0.09
754.831	0.09
755.008	0.06
755.185	0.03
755.362	-0.1
755.539	0.1
755.716	-0.04
755.892	0.04
756.069	-0.01
756.246	-0
756.423	0.06
756.6	0.17
756.777	0.12
756.954	0.13
757.131	-0.02
757.307	-0.07
757.484	-0.06
757.661	0.1
757.838	0.13
758.015	-0.09
758.191	0.09
758.368	0.17
758.545	0.1
758.721	0.16
758.898	-0.05
759.075	0.2
759.251	0.16
759.428	0.05
759.605	-0.09
759.781	0.12
759.958	0.23
760.134	0.15
760.311	0.04
760.488	0.06
760.664	0.23
760.841	0.17
761.017	-0.01
761.194	0.15
761.37	0.2
761.547	0.1
761.723	0.12
761.899	0.18
762.076	0.01
762.252	-0.04
762.429	0.11
762.605	0.17
762.781	0.06
762.958	0.18
763.134	0.01
763.31	-0.09
763.486	0.14
763.663	-0.07
763.839	0.12
764.015	-0.11
764.191	-0.06
764.368	-0.02
764.544	0.04
764.72	0.12
764.896	0.1
765.072	0.05
765.248	-0.03
765.425	0.12
765.601	0.08
765.777	0.14
765.953	-0.13
766.129	-0.04
766.305	-0.02
766.481	0.1
766.657	0.03
766.833	0.25
767.009	0.06
767.185	0.16
767.361	0.17
767.537	-0.02
767.713	0.15
767.889	-0.01
768.065	0.05
768.24	0.16
768.416	0.17
768.592	-0.09
768.768	0.09
768.944	0.11
769.12	-0.08
769.295	-0.04
769.471	0.09
769.647	-0.01
769.823	0.24
769.998	-0.02
770.174	-0.22
770.35	0.42
770.525	0.27
770.701	0.11
770.877	0.02
771.052	-0.08
771.228	0.22
771.403	0.22
771.579	0.26
771.755	0.32
771.93	0.06
772.106	0.03
772.281	-0.15
772.457	0.11
772.632	0.1
772.808	-0.05
772.983	0.08
773.159	-0.07
773.334	0.1
773.509	-0.01
773.685	-0.17
773.86	0.34
774.036	0.27
774.211	0.18
774.386	0.01
774.562	0.2
774.737	0.08
774.912	0.01
775.087	0.16
775.263	-0.01
775.438	-0
775.613	-0.06
775.788	0
775.964	0.2
776.139	0.36
776.314	-0.12
776.489	0.11
776.664	0.11
776.839	-0.06
777.014	0.09
777.19	0.2
777.365	0.19
777.54	0.29
777.715	-0.09
777.89	0.03
778.065	-0.13
778.24	0.03
778.415	0.2
778.59	-0.05
778.765	0.03
778.94	0.05
779.115	0.02
779.289	0.06
779.464	0.08
779.639	0.12
779.814	-0.14
779.989	-0.1
780.164	0.22
780.339	0.03
780.513	-0.06
780.688	-0.06
780.863	-0.05
781.038	0.3
781.212	0.15
781.387	0.07
781.562	0.36
781.737	-0.03
781.911	0.33
782.086	-0.07
782.261	-0.03
782.435	0.37
782.61	-0.09
782.784	-0.04
782.959	0.3
783.134	0.02
783.308	-0.02
783.483	0.07
783.657	0.29
783.832	0.09
784.006	-0.26
784.181	-0.06
784.355	0.18
784.53	-0.04
784.704	-0.01
784.878	0.32
785.053	0.12
785.227	0.26
785.402	0.29
785.576	-0.1
785.75	-0
785.925	0.13
786.099	0.05
786.273	0.17
786.448	0.25
786.622	0.19
786.796	0.07
786.97	-0.06
787.145	0.5
787.319	-0.35
787.493	-0.15
787.667	-0.2
787.841	0.35
788.015	0.24
788.19	0.12
788.364	-0.06
788.538	0.34
788.712	0.31
788.886	0.15
789.06	0.25
789.234	0.17
789.408	-0.01
789.582	0.08
789.756	-0.09
789.93	-0.26
790.104	0.12
790.278	0.03
790.452	-0.01
790.626	0.29
790.8	-0.11
790.973	0.13
791.147	0.38
791.321	0.39
791.495	0.19
791.669	0.24
791.843	0.14
792.016	-0.01
792.19	0.71
792.364	-0.03
792.538	0.43
792.711	0.14
792.885	-0.02
793.059	-0.01
793.233	-0.32
793.406	0.2
793.58	0.29
793.754	0.14
793.927	-0.18
794.101	0.49
794.274	-0.02
794.448	0.29
794.622	-0.11
794.795	0.32
794.969	0.05
795.142	0.18
795.316	-0.23
795.489	-0.02
795.663	0.37
795.836	-0
796.009	0.03
796.183	0.38
796.356	0.06
796.53	0.24
796.703	0.18
796.876	0.81
797.05	0.09
797.223	-0.01
797.396	0.2
797.57	0.08
797.743	0.43
797.916	0.08
798.09	0.15
798.263	0.17
798.436	0.27
798.609	-0.24
798.782	0.05
798.956	0.07
799.129	0.15
799.302	0.07
799.475	-0.44
799.648	-0.15
799.821	-0.08
799.994	0.09
800.167	-0.47
800.34	0.05
800.514	0.1
800.687	0.21
800.86	-0.28
801.033	-0.12
801.206	0.2
801.379	-0.35
801.551	0.36
801.724	0.15
801.897	0.56
802.07	0.11
802.243	-0.47
802.416	-0.11
802.589	-0.2
802.762	0.21
802.935	0.12
803.107	0.31
803.28	0.26
803.453	0.34
803.626	-0
803.798	-0.2
803.971	0.19
804.144	0.21
804.317	0.27
804.489	0.28
804.662	0.05
804.835	0.08
805.007	-0.24
805.18	0.69
805.353	0.21
805.525	-0.03
805.698	-0.33
805.87	0.42
806.043	0.25
806.215	-0.02
806.388	-0.08
806.56	0.26
806.733	0.35
806.905	0.12
807.078	-0.06
807.25	-0.22
807.423	0.4
807.595	0.01
807.768	-0.08
807.94	0.7
808.112	0.68
808.285	0.21
808.457	0
808.629	0.1
808.802	0.26
808.974	-0.12
809.146	-0.28
809.318	-0.1
809.491	-0.02
809.663	0.29
809.835	-0.27
810.007	0.4
810.18	0.19
810.352	-0.05
810.524	-0.12
810.696	0.2
810.868	0.21
811.04	-0.01
811.212	-0.03
811.384	0.49
811.556	-0.01
811.728	0.3
811.901	0.58
812.073	0.2
812.245	0.65
812.417	-0.05
812.589	-0.59
812.76	0.18
812.932	-0.05
813.104	0.58
813.276	0.12
813.448	0.29
813.62	0.04
813.792	0.02
813.964	-0.17
814.136	0.16
814.307	0.04
814.479	-0.29
814.651	-0.43
814.823	0.95
814.995	0.04
815.166	0.63
815.338	-0.34
815.51	-0.37
815.681	0.76
815.853	0.18
816.025	-0.13
816.196	0.61
816.368	0.56
816.54	-0.15
816.711	-0.18
816.883	0.08
817.054	1.08
817.226	-0.5
817.398	0.12
817.569	0.19
817.741	0.63
817.912	-0.11
818.084	-0.14
818.255	0.42
818.426	-0.15
818.598	-0.02
818.769	-0.21
818.941	0.62
819.112	0.55
819.283	0.13
819.455	-0.58
819.626	0.12
819.798	0.54
819.969	0.25
820.14	-0.01
820.311	-0.19
820.483	0.23
820.654	0.2
820.825	0.12
820.996	0.03
821.168	-0.41
821.339	0.23
821.51	-0.3
821.681	-0.18
821.852	-0.08
822.023	-0.1
822.195	-0.28
822.366	0.73
822.537	-0.17
822.708	0.26
822.879	-0.27
823.05	0.71
823.221	-0.08
823.392	0.69
823.563	0.38
823.734	0.41
823.905	0.07
824.076	-0.07
824.247	-0.26
824.418	0.21
824.589	0.21
824.759	-0.2
824.93	-0.21
825.101	-0.24
825.272	0.58
825.443	0.67
825.614	0.19
825.784	-0.42
825.955	1.1
826.126	0.6
826.297	0.43
826.467	1.04
826.638	0.78
826.809	-0.5
826.98	-0.23
827.15	-0.08
827.321	0.51
827.492	0.55
827.662	-0.11
827.833	0.93
828.003	0.81
828.174	-0.15
828.345	-0.46
828.515	0.45
828.686	0.31
828.856	-0.6
829.027	-0.25
829.197	-0.5
829.368	0.38
829.538	0.14
829.709	-0.08
829.879	0.22
830.049	0.36
830.22	0.13
830.39	0.23
830.56	0.39
830.731	0.28
830.901	-0.53
831.072	0.66
831.242	0.44
831.412	0.25
831.582	0.51
831.753	-0.23
831.923	-0.2
832.093	0.29
832.263	0.03
832.434	-0.06
832.604	0.2
832.774	0.82
832.944	0.14
833.114	0.41
833.284	0.34
833.454	-0.9
833.624	-0.17
833.795	0.13
833.965	0.91
834.135	1.28
834.305	-0.64
834.475	-0.8
834.645	-0.02
834.815	-0.31
834.985	-0.26
835.155	-0.2
835.325	0.38
835.494	0.4
835.664	-0.33
835.834	-0.51
836.004	0.2
836.174	0.24
836.344	0.45
836.514	-0.57
836.684	-0.09
836.853	-0.17
837.023	-0.49
837.193	0.04
837.363	0.79
837.532	1.32
837.702	-0.18
837.872	-0.53
838.041	0.83
838.211	1.62
838.381	-0.23
838.55	0.22
838.72	1.6
838.89	1.37
839.059	-0.42
839.229	-0.74
839.398	0.73
839.568	0.11
839.738	-0.49
839.907	0.68
840.077	0.26
840.246	0.02
840.416	-0.25
840.585	-0.12
840.755	1.5
840.924	1.13
841.093	-1.03
841.263	0.54
841.432	0.98
841.602	-0.55
841.771	-0.55
841.94	0.02
842.11	2.02
842.279	1.31
842.448	-0.4
842.617	-1.09
842.787	1.29
842.956	-0.34
843.125	0.42
843.294	0.66
843.464	0.6
843.633	0.2
843.802	-1.16
843.971	-0.05
844.14	0.76
844.309	1.04
844.479	-0.27
844.648	-0.87
844.817	-0.3
844.986	0.33
845.155	-0.15
845.324	-0.65
845.493	0.29
845.662	-0.78
845.831	0.54
846	0.51
846.169	-0.43
846.338	1.63
846.507	0.06
846.676	0.59
846.844	-0.24
847.013	1.01
847.182	0.92
847.351	-0.83
847.52	-0.11
847.689	1.09
847.858	0.58
848.026	0
848.195	0.17
848.364	-0.69
848.533	-0.8
848.701	-0.18
848.87	0.43
849.039	1.49
849.207	1.16
849.376	1.07
849.545	1.51
849.713	0.09
849.882	0.21
850.051	-0.61
850.219	-0.15
850.388	1.04
850.556	-0.98
850.725	-0.66
850.893	0.01
851.062	1.17
851.23	1.12
851.399	-0.35
851.567	-0.78
851.736	-0.1
851.904	-0.22
852.073	-0.73
852.241	0.95
852.41	0.81
852.578	-0.32
852.746	0.07
852.915	1.36
853.083	0.28
853.251	-1.65
853.42	-0.79
853.588	0.97
853.756	0.87
853.924	0.18
854.093	-1.03
854.261	-0.07
854.429	-1.63
854.597	0.23
854.765	-0.38
854.934	0.43
855.102	0.8
855.27	-0.34
855.438	0.58
855.606	1.51
855.774	1.25
855.942	-1.08
856.11	-1.35
856.278	1.27
856.446	0.98
856.614	0.3
856.782	-0.61
856.95	2.21
857.118	0.37
857.286	0.5
857.454	0.5
857.622	0.22
857.79	1.7
857.958	-0.77
858.126	-0.28
858.294	-1.45
858.462	0.11
858.629	-0.38
858.797	-0.72
858.965	1.44
859.133	-0.27
859.301	0.21
859.468	0.5
859.636	-0.63
859.804	1.83
859.971	1.9
860.139	-0.68
860.307	1.22
860.474	-0.18
860.642	-0.27
860.81	-0.89
860.977	-0.04
861.145	0.47
861.313	0.26
861.48	0.06
861.648	1.49
861.815	1.07
861.983	-0.94
862.15	0.13
862.318	2.56
862.485	0.65
862.653	-1.56
862.82	-0.17
862.988	0.33
863.155	0.75
863.322	-1.14
863.49	-0.89
863.657	0.22
863.824	2.94
863.992	1.02
864.159	1.48
864.326	2.28
864.494	-0.48
864.661	3.58
864.828	-1.48
864.996	1.99
865.163	1.93
865.33	-1.45
865.497	-1.84
865.664	-0.66
865.832	-0.89
865.999	0.16
866.166	-1.43
866.333	-0.68
866.5	0.02
866.667	0.18
866.834	-0.69
867.001	1.39
867.168	-1.54
867.335	0.37
867.502	-1.27
867.669	1.14
867.836	2.58
868.003	-0.12
868.17	2.32
868.337	-0.31
868.504	2.94
868.671	-2.15
868.838	-0.2
869.005	2.51
869.172	1.59
869.339	-0.47
869.505	-1.08
869.672	-1.28
869.839	2.87
870.006	0.74
870.173	-1.59
870.339	0.38
870.506	3.24
870.673	-0.39
870.84	0.74
871.006	0.99
871.173	-0.41
871.34	-0.19
871.506	-0.64
871.673	0.7
871.839	-1.73
872.006	1.38
872.173	-0.42
872.339	-0.24
872.506	2.7
872.672	-0.56
872.839	0.45
873.005	0.4
873.172	3.44
873.338	1.57
873.505	0.09
873.671	-0.52
873.838	0.49
874.004	-0.35
874.171	-0.97
874.337	0.05
874.503	0.97
874.67	0.38
874.836	0.11
875.002	1.52
875.169	1.41
875.335	0.81
875.501	-1.17
875.668	1.89
875.834	-0.46
876	0.39
876.166	2.94
876.332	1.53
876.499	2.19
876.665	-1.3
876.831	1.74
876.997	3.04
877.163	1.73
877.329	-1.1
877.495	0.88
877.662	-0.6
877.828	1.56
877.994	-0.46
878.16	-0.99
878.326	-0.22
878.492	0.56
878.658	-0.72
878.824	-0.59
878.99	0.17
879.156	-1.19
879.322	1.81
879.487	1.67
879.653	0.15
879.819	-0.41
879.985	0.04
880.151	0.82
880.317	-0.28
880.483	0.62
880.648	2.09
880.814	-0.54
880.98	2.22
881.146	-1.44
881.312	-0.07
881.477	1.05
881.643	-0.64
881.809	1.62
881.974	1.85
882.14	-1.42
882.306	-1.16
882.471	3.94
882.637	-0.79
882.803	-0.15
882.968	4.49
883.134	2.68
883.299	-0.2
883.465	-1.79
883.63	1.79
883.796	1.55
883.961	-0.56
884.127	1.42
884.292	-3.69
884.458	-1.53
884.623	-1.53
