Data from Apollo_Calib_20240827__AbsoluteIrradiance__425__06-14-00-594.txt Node

Date: Wed Aug 28 06:14:00 BST 2024
User: biology
Spectrometer: FLMT08252
Trigger mode: 0
Integration Time (sec): 5.000000E-1
Scans to average: 5
Electric dark correction enabled: true
Nonlinearity correction enabled: false
Boxcar width: 0
XAxis mode: Wavelengths
Number of Pixels in Spectrum: 3648
>>>>>Begin Spectral Data<<<<<
179.588	-0
179.809	-0
180.03	-0
180.251	-0
180.473	-0
180.694	0
180.915	0
181.136	-0
181.357	0
181.578	-0
181.799	0
182.02	-0
182.241	0
182.462	-0
182.683	0
182.904	-0
183.125	-0
183.346	0
183.567	0
183.788	0
184.009	0
184.23	0
184.451	0
184.672	0
184.892	-0
185.113	0
185.334	0
185.555	0
185.776	0
185.996	0
186.217	0
186.438	0
186.659	-0
186.879	0
187.1	0
187.321	0
187.541	-0
187.762	0
187.983	0
188.203	0
188.424	0
188.644	0
188.865	0
189.086	0
189.306	0
189.527	0
189.747	0
189.968	0
190.188	0
190.409	0
190.629	0
190.849	-0
191.07	0
191.29	0
191.511	0
191.731	-0
191.951	0
192.172	0
192.392	0
192.612	0
192.833	0
193.053	0
193.273	0
193.493	0
193.714	0
193.934	0
194.154	0
194.374	0
194.594	0
194.815	0
195.035	0
195.255	0
195.475	0
195.695	0
195.915	0
196.135	0
196.355	0
196.575	0
196.795	0
197.015	-0
197.235	0
197.455	0
197.675	0
197.895	0
198.115	0
198.335	0
198.555	0
198.775	0
198.995	0
199.214	0
199.434	0
199.654	0
199.874	0
200.094	1.82
200.313	0.62
200.533	0.54
200.753	0.08
200.973	1.51
201.192	1.71
201.412	0.08
201.632	0.28
201.851	1.72
202.071	0.25
202.291	0.89
202.51	0.1
202.73	0.95
202.95	0.69
203.169	-0.02
203.389	0.54
203.608	0.95
203.828	-0.14
204.047	0.29
204.267	0.68
204.486	1.08
204.706	0.73
204.925	0.24
205.145	0.6
205.364	0.89
205.583	1.25
205.803	0.2
206.022	0.22
206.242	0.58
206.461	0.39
206.68	-0.02
206.9	0.63
207.119	1.09
207.338	0.94
207.557	0.13
207.777	0.4
207.996	0.58
208.215	0.73
208.434	0.23
208.654	-0.07
208.873	0.48
209.092	0.95
209.311	0.39
209.53	0.3
209.749	0.41
209.968	0.17
210.187	0.16
210.407	0.01
210.626	0.54
210.845	0.7
211.064	0.32
211.283	-0.04
211.502	0.53
211.721	0.43
211.94	0.5
212.159	0.46
212.377	0.8
212.596	0.74
212.815	0.39
213.034	0.36
213.253	0.5
213.472	0.75
213.691	0.08
213.91	0.08
214.128	0.29
214.347	0.68
214.566	-0.08
214.785	-0.06
215.003	0.42
215.222	0.35
215.441	0.25
215.66	0.19
215.878	0.28
216.097	0.57
216.316	0.18
216.534	0.2
216.753	0.17
216.972	0.34
217.19	0.13
217.409	0.18
217.627	0.1
217.846	0.26
218.064	0.34
218.283	0.1
218.501	0.58
218.72	0.58
218.938	-0.04
219.157	0.17
219.375	0.43
219.594	0.34
219.812	-0.03
220.031	0.14
220.249	0.44
220.467	0.43
220.686	0.22
220.904	0.16
221.122	0.11
221.341	0.63
221.559	0.42
221.777	0.25
221.995	0.25
222.214	0.31
222.432	0.08
222.65	0.39
222.868	0.32
223.086	0.29
223.305	0.26
223.523	0.29
223.741	0.43
223.959	0.1
224.177	0.04
224.395	0.16
224.613	0.21
224.831	0.33
225.049	0.11
225.267	0.1
225.485	0.26
225.703	0.01
225.921	0.21
226.139	0.12
226.357	0.42
226.575	0.29
226.793	0.06
227.011	0.75
227.229	0.23
227.447	0.38
227.665	0.03
227.883	0.03
228.1	0.28
228.318	0.18
228.536	-0.14
228.754	0.08
228.972	0.24
229.189	0.19
229.407	0.09
229.625	0.12
229.843	0.39
230.06	0.35
230.278	0.06
230.496	0.15
230.713	0.24
230.931	0.34
231.149	0.13
231.366	-0.05
231.584	0.08
231.801	0.43
232.019	0.12
232.236	0.02
232.454	0.08
232.671	0.24
232.889	0.09
233.106	0.07
233.324	0.11
233.541	0.17
233.759	0.21
233.976	0.07
234.194	0.08
234.411	0.2
234.628	0.12
234.846	0.16
235.063	0.1
235.28	0.09
235.498	0.11
235.715	0.01
235.932	0.31
236.149	0.17
236.367	0.05
236.584	0.15
236.801	0.12
237.018	0.11
237.236	0.14
237.453	0.05
237.67	0.27
237.887	0.13
238.104	0.12
238.321	0.04
238.538	0.06
238.755	0.32
238.973	-0.04
239.19	0.12
239.407	0.24
239.624	0.25
239.841	0.01
240.058	0.06
240.275	0.2
240.492	0.1
240.709	0.15
240.925	0.14
241.142	0.16
241.359	0.04
241.576	0.08
241.793	0.06
242.01	0.12
242.227	0.25
242.444	0.16
242.66	0.27
242.877	0.12
243.094	0.15
243.311	0.16
243.527	0.18
243.744	0.17
243.961	0.15
244.178	0.1
244.394	0.16
244.611	0.24
244.828	0.26
245.044	0.03
245.261	0.17
245.477	0.23
245.694	0.21
245.911	0.09
246.127	0.12
246.344	0.3
246.56	0.14
246.777	0.11
246.993	0.06
247.21	0.21
247.426	0.29
247.643	0.11
247.859	0.05
248.076	0.08
248.292	0.3
248.508	0.12
248.725	0.15
248.941	0.22
249.157	0.22
249.374	0.05
249.59	0.1
249.806	0.14
250.023	0.25
250.239	0.06
250.455	-0
250.671	0.14
250.888	0.25
251.104	0.13
251.32	0.06
251.536	0.1
251.752	0.11
251.969	0.11
252.185	0.13
252.401	0.32
252.617	0.13
252.833	0.1
253.049	0.15
253.265	0.14
253.481	0.12
253.697	0.07
253.913	0.05
254.129	0.17
254.345	0.1
254.561	0.1
254.777	0.1
254.993	0.14
255.209	0.15
255.425	0.07
255.641	0.03
255.857	0.18
256.073	0.18
256.288	0.03
256.504	0.04
256.72	0.07
256.936	0.28
257.152	0.05
257.367	0.06
257.583	0.13
257.799	0.14
258.015	0.06
258.23	0.11
258.446	0.22
258.662	0.1
258.877	0.09
259.093	0.03
259.309	0.15
259.524	0.14
259.74	0.11
259.955	0.08
260.171	0.07
260.387	0.03
260.602	0.13
260.818	0.14
261.033	0.01
261.249	0.03
261.464	0.11
261.68	0.03
261.895	0.1
262.11	0.2
262.326	0.07
262.541	0.01
262.757	0.23
262.972	0.16
263.187	0.16
263.403	0.02
263.618	0.16
263.833	0.12
264.049	0.13
264.264	0.09
264.479	0.16
264.694	0.27
264.91	0.01
265.125	0.09
265.34	0.21
265.555	0.27
265.77	0.13
265.986	0.08
266.201	0.16
266.416	0.16
266.631	0.06
266.846	0.09
267.061	0.13
267.276	0.16
267.491	0.01
267.706	0.11
267.921	0.18
268.136	0.06
268.351	0.13
268.566	-0
268.781	0.24
268.996	0.16
269.211	0.13
269.426	0.06
269.641	0.13
269.856	0.18
270.071	0.03
270.285	0.03
270.5	0.12
270.715	0.16
270.93	0.12
271.145	0.13
271.359	0.19
271.574	-0.02
271.789	0.07
272.004	0.04
272.218	0.04
272.433	0.2
272.648	0.03
272.862	0.17
273.077	0.11
273.292	0.16
273.506	0.06
273.721	0.06
273.936	0.15
274.15	0.18
274.365	0.11
274.579	0.15
274.794	0.09
275.008	0.17
275.223	0.04
275.437	0.14
275.652	0.13
275.866	0.13
276.081	0.12
276.295	0.08
276.509	0.14
276.724	0.12
276.938	0.14
277.153	0.09
277.367	0.15
277.581	0.04
277.796	0.04
278.01	0.06
278.224	0.17
278.438	0.26
278.653	0.03
278.867	0.05
279.081	-0.03
279.295	0.08
279.51	0.13
279.724	-0.02
279.938	0.17
280.152	0.12
280.366	0.03
280.58	0.11
280.794	0.12
281.008	0.16
281.222	0.12
281.437	0.21
281.651	0.14
281.865	0.18
282.079	0.12
282.293	-0.03
282.507	0.04
282.721	0.07
282.935	0.1
283.148	0
283.362	0.03
283.576	0.04
283.79	0.08
284.004	0.04
284.218	0.14
284.432	0.03
284.646	0.08
284.859	0.03
285.073	0.09
285.287	0.1
285.501	0.07
285.714	0.11
285.928	0.12
286.142	0.12
286.356	0.08
286.569	0.07
286.783	0.15
286.997	0.1
287.21	0.11
287.424	0.1
287.637	0.07
287.851	0.1
288.065	0.1
288.278	0.07
288.492	0.12
288.705	0.08
288.919	0.12
289.132	0.05
289.346	0.15
289.559	0.02
289.773	0.07
289.986	0.06
290.2	0.11
290.413	0.13
290.626	0.06
290.84	0.03
291.053	0.11
291.267	0.16
291.48	0.1
291.693	0.12
291.906	0.08
292.12	0.05
292.333	0.02
292.546	0.09
292.76	0.16
292.973	0.09
293.186	0.11
293.399	0.08
293.612	0.14
293.826	0.06
294.039	0.12
294.252	0.09
294.465	0.13
294.678	0.11
294.891	0.09
295.104	0.02
295.317	0.04
295.53	0.05
295.743	0.09
295.956	0.06
296.169	0.14
296.382	0.14
296.595	0.06
296.808	0.04
297.021	0.13
297.234	0.15
297.447	0.1
297.66	0.08
297.873	0.08
298.086	0.12
298.299	0.04
298.511	-0.02
298.724	0.07
298.937	0
299.15	0.07
299.363	0.11
299.575	0.1
299.788	0.09
300.001	0.06
300.213	0.03
300.426	0.06
300.639	0.09
300.852	0.06
301.064	0.13
301.277	0.14
301.489	0.15
301.702	0.08
301.915	0.12
302.127	0.07
302.34	0.08
302.552	0.12
302.765	0.09
302.977	0.13
303.19	0.08
303.402	0.06
303.615	0.07
303.827	0.09
304.04	0.09
304.252	0.08
304.464	0.06
304.677	0.16
304.889	0.16
305.102	0.02
305.314	0.05
305.526	0.12
305.739	0.11
305.951	0.03
306.163	0.04
306.375	0.12
306.588	0.07
306.8	0.05
307.012	0.04
307.224	0.11
307.436	0.17
307.649	0.04
307.861	0.08
308.073	0.1
308.285	0.05
308.497	0.04
308.709	0.07
308.921	0.11
309.133	0.12
309.346	0.06
309.558	0.09
309.77	0.12
309.982	0.13
310.194	0.11
310.406	0.07
310.617	0.12
310.829	0.12
311.041	0.1
311.253	0.04
311.465	0.08
311.677	0.09
311.889	0.08
312.101	0.05
312.313	0.11
312.524	0.14
312.736	0.01
312.948	0.06
313.16	0.12
313.372	0.1
313.583	0.12
313.795	0.09
314.007	0.05
314.218	0.09
314.43	0.03
314.642	0.08
314.853	0.02
315.065	0.12
315.277	0.09
315.488	0.09
315.7	0.14
315.912	0.14
316.123	0.05
316.335	0.08
316.546	0.2
316.758	0.03
316.969	0.06
317.181	0.02
317.392	0.1
317.604	0.09
317.815	0.02
318.026	0.06
318.238	0.06
318.449	0.11
318.661	-0.01
318.872	0.04
319.083	0.05
319.295	0.08
319.506	0.03
319.717	0.09
319.929	0.12
320.14	0.09
320.351	0.11
320.562	0.02
320.774	0.1
320.985	0.08
321.196	0.05
321.407	0.04
321.618	0.11
321.829	0.11
322.041	0.09
322.252	0.09
322.463	0.13
322.674	0.09
322.885	0.07
323.096	0.03
323.307	0.04
323.518	0.06
323.729	0.05
323.94	0.06
324.151	0.06
324.362	0.11
324.573	0.06
324.784	0.11
324.995	0.12
325.206	0.11
325.417	0.06
325.628	0.06
325.838	0.03
326.049	0.08
326.26	0.07
326.471	0.05
326.682	0.11
326.892	0.06
327.103	0.06
327.314	0.04
327.525	0.13
327.735	0.11
327.946	0.06
328.157	0.05
328.368	0.12
328.578	0.03
328.789	0.08
328.999	0.08
329.21	0.05
329.421	0.14
329.631	0.02
329.842	0.04
330.052	0.09
330.263	0.13
330.473	0.14
330.684	0.07
330.894	0.06
331.105	0.05
331.315	0.11
331.526	0.05
331.736	0.15
331.947	0.09
332.157	0.1
332.367	0.02
332.578	0.12
332.788	0.11
332.999	0.12
333.209	0.07
333.419	0.05
333.629	0.08
333.84	0.1
334.05	0.08
334.26	0.16
334.47	0.07
334.681	0.13
334.891	0.06
335.101	0.08
335.311	0.14
335.521	0.11
335.732	0
335.942	0.14
336.152	0.13
336.362	0.1
336.572	0.06
336.782	0.15
336.992	0.1
337.202	0.04
337.412	0.02
337.622	0.08
337.832	0.1
338.042	0.09
338.252	0.09
338.462	0.09
338.672	0.11
338.882	0.03
339.092	0.08
339.302	0.09
339.511	0.15
339.721	0.06
339.931	0.05
340.141	0.13
340.351	0.11
340.561	0.08
340.77	0.1
340.98	0.06
341.19	0.11
341.4	0.05
341.609	0.07
341.819	0.08
342.029	-0
342.238	0.04
342.448	0.05
342.658	0.1
342.867	0.05
343.077	0.06
343.286	0.08
343.496	0.06
343.706	0.17
343.915	0.03
344.125	0.06
344.334	0.1
344.544	0
344.753	0.03
344.963	0.08
345.172	0.06
345.381	0.06
345.591	0.06
345.8	0.09
346.01	0.13
346.219	0.17
346.428	-0.07
346.638	0.05
346.847	0.06
347.056	0.1
347.266	0.06
347.475	0.05
347.684	0.09
347.893	0.11
348.103	0.1
348.312	0.03
348.521	0.04
348.73	0.07
348.94	0.08
349.149	0.05
349.358	0.03
349.567	0.09
349.776	0.06
349.985	0.08
350.194	0.09
350.403	0.13
350.612	0.04
350.821	0.09
351.03	0.06
351.239	0.02
351.448	0.1
351.657	0.06
351.866	0.16
352.075	0.07
352.284	0.11
352.493	0.03
352.702	0.11
352.911	0.1
353.12	0.07
353.329	0.07
353.538	0.1
353.746	0.11
353.955	0.03
354.164	0.06
354.373	0.08
354.582	0.1
354.79	0.08
354.999	0.11
355.208	0.1
355.416	0.12
355.625	0.04
355.834	0.07
356.042	0.09
356.251	0.09
356.46	0.04
356.668	0.1
356.877	0.18
357.085	0.13
357.294	-0.04
357.503	0.07
357.711	0.04
357.92	0.19
358.128	0.07
358.337	0.04
358.545	0.08
358.754	0.06
358.962	0.14
359.17	0.06
359.379	0.07
359.587	0.07
359.796	0.07
360.004	0.13
360.212	0.1
360.421	0.13
360.629	0.07
360.837	0.04
361.046	0.13
361.254	0.15
361.462	0.06
361.67	0.04
361.879	0.08
362.087	0.13
362.295	0.09
362.503	0.08
362.711	0.05
362.92	0.02
363.128	0.01
363.336	-0.01
363.544	0.06
363.752	0.05
363.96	0.04
364.168	0.05
364.376	0.06
364.584	0.04
364.792	0.13
365	0.07
365.208	0.07
365.416	0.1
365.624	0.11
365.832	0.06
366.04	0.13
366.248	0.08
366.456	0.07
366.664	0.06
366.872	0.08
367.079	0.06
367.287	0.12
367.495	0.11
367.703	0.11
367.911	0.08
368.118	0.1
368.326	0.07
368.534	0.05
368.742	0.09
368.949	0.05
369.157	0.08
369.365	0.12
369.572	0.12
369.78	0.04
369.988	0.1
370.195	0.05
370.403	0.11
370.61	0.06
370.818	0.09
371.026	0.17
371.233	0.08
371.441	0.1
371.648	0.06
371.856	0.12
372.063	0.08
372.271	0.07
372.478	0.06
372.685	0.06
372.893	0.13
373.1	0.06
373.308	0.04
373.515	0.15
373.722	0.08
373.93	0.06
374.137	0.07
374.344	0.12
374.552	0.12
374.759	0.09
374.966	0.09
375.173	0.09
375.381	0.13
375.588	0.09
375.795	0.04
376.002	0.05
376.209	0.05
376.417	0.05
376.624	0.11
376.831	0.13
377.038	0.04
377.245	0.04
377.452	0.06
377.659	0.12
377.866	0.04
378.073	0.1
378.28	0.08
378.487	0.09
378.694	0.1
378.901	0.03
379.108	0.09
379.315	0.07
379.522	0.16
379.729	0.14
379.936	0.02
380.143	0.1
380.35	0.11
380.557	0.06
380.763	0.05
380.97	0.09
381.177	0.1
381.384	0.12
381.591	0.06
381.797	0.09
382.004	0.08
382.211	0.1
382.418	0.07
382.624	0.13
382.831	0.16
383.038	0.1
383.244	0.07
383.451	0.07
383.658	0.11
383.864	0.07
384.071	0.05
384.277	0.14
384.484	0.05
384.69	0.14
384.897	0.08
385.103	0.03
385.31	0.06
385.516	0.08
385.723	0.06
385.929	0.09
386.136	0.07
386.342	0.12
386.549	0.05
386.755	0.16
386.961	0.11
387.168	0.09
387.374	0.08
387.58	0.15
387.787	0.06
387.993	0.08
388.199	0.1
388.406	0.07
388.612	0.08
388.818	0.05
389.024	0.06
389.231	0.1
389.437	0.13
389.643	0.14
389.849	0.1
390.055	0.06
390.261	0.06
390.467	0.15
390.674	0.07
390.88	0.11
391.086	0.1
391.292	0.07
391.498	0.11
391.704	0.12
391.91	0.03
392.116	0.04
392.322	0.03
392.528	0.09
392.734	0.05
392.94	0.1
393.146	0.09
393.352	0.1
393.557	0.12
393.763	0.07
393.969	0.13
394.175	0.09
394.381	0.12
394.587	0.08
394.792	0.09
394.998	0.12
395.204	0.14
395.41	0.05
395.615	0.12
395.821	0.11
396.027	0.1
396.233	0.05
396.438	0.08
396.644	0.16
396.85	0.13
397.055	0.1
397.261	0.11
397.466	0.18
397.672	0.1
397.878	0.19
398.083	0.09
398.289	0.06
398.494	0.14
398.7	0.11
398.905	0.01
399.111	0.17
399.316	0.04
399.522	0.09
399.727	0.09
399.932	0.12
400.138	0.07
400.343	0.13
400.549	0.09
400.754	0.15
400.959	0.11
401.165	0.07
401.37	0.11
401.575	0.15
401.78	0.07
401.986	0.09
402.191	0.11
402.396	0.09
402.601	0.15
402.807	0.13
403.012	0.14
403.217	0.13
403.422	0.1
403.627	0.1
403.832	0.08
404.037	0.12
404.243	0.16
404.448	0.08
404.653	0.1
404.858	0.14
405.063	0.15
405.268	0.08
405.473	0.03
405.678	0.05
405.883	0.25
406.088	0.16
406.293	0.07
406.498	0.09
406.703	0.12
406.907	0.09
407.112	0.07
407.317	0.14
407.522	0.13
407.727	0.11
407.932	0.15
408.136	0.2
408.341	0.06
408.546	0.11
408.751	0.13
408.956	0.11
409.16	0.1
409.365	0.1
409.57	0.08
409.774	0.12
409.979	0.11
410.184	0.1
410.388	0.1
410.593	0.17
410.798	0.13
411.002	0.06
411.207	0.13
411.411	0.14
411.616	0.06
411.82	0.1
412.025	0.13
412.229	0.1
412.434	0.2
412.638	0.15
412.843	0.12
413.047	0.1
413.252	0.13
413.456	0.1
413.66	0.16
413.865	0.11
414.069	0.21
414.273	0.09
414.478	0.1
414.682	0.1
414.886	0.08
415.091	0.05
415.295	0
415.499	0.14
415.703	0.12
415.908	0.15
416.112	0.01
416.316	0.19
416.52	0.14
416.724	0.02
416.929	0.07
417.133	0.19
417.337	0.12
417.541	0.12
417.745	0.11
417.949	0.13
418.153	0.11
418.357	0.06
418.561	0.2
418.765	0.12
418.969	0.25
419.173	0.13
419.377	0.16
419.581	0.2
419.785	0.1
419.989	0.08
420.193	0.15
420.397	0.13
420.601	0.18
420.804	0.19
421.008	0.12
421.212	0.16
421.416	0.22
421.62	0.11
421.823	0.13
422.027	0.25
422.231	0.11
422.435	0.15
422.638	0.16
422.842	0.14
423.046	0.1
423.249	0.18
423.453	0.15
423.657	0.15
423.86	0.15
424.064	0.13
424.268	0.21
424.471	0.16
424.675	0.22
424.878	0.22
425.082	0.09
425.285	0.16
425.489	0.16
425.692	0.14
425.896	0.07
426.099	0.13
426.303	0.13
426.506	0.08
426.71	0.19
426.913	0.18
427.116	0.16
427.32	0.16
427.523	0.13
427.726	0.21
427.93	0.09
428.133	0.16
428.336	0.1
428.54	0.12
428.743	0.21
428.946	0.15
429.149	0.16
429.353	0.14
429.556	0.14
429.759	0.13
429.962	0.13
430.165	0.12
430.368	0.13
430.571	0.14
430.775	0.16
430.978	0.11
431.181	0.13
431.384	0.17
431.587	0.1
431.79	0.13
431.993	0.08
432.196	0.16
432.399	0.13
432.602	0.23
432.805	0.2
433.008	0.15
433.211	0.09
433.414	0.15
433.616	0.17
433.819	0.18
434.022	0.02
434.225	0.21
434.428	0.18
434.631	0.29
434.833	0.16
435.036	0.15
435.239	0.24
435.442	0.18
435.645	0.09
435.847	0.15
436.05	0.23
436.253	0.18
436.455	0.14
436.658	0.12
436.861	0.23
437.063	0.15
437.266	0.14
437.468	0.16
437.671	0.3
437.874	0.14
438.076	0.06
438.279	0.09
438.481	0.15
438.684	0.11
438.886	0.18
439.089	0.06
439.291	0.18
439.494	0.2
439.696	0.13
439.899	0.15
440.101	0.19
440.303	0.1
440.506	0.16
440.708	0.17
440.91	0.18
441.113	0.06
441.315	0.21
441.517	0.08
441.72	0.21
441.922	0.1
442.124	0.09
442.326	0.14
442.529	0.24
442.731	0.16
442.933	0.23
443.135	0.13
443.337	0.13
443.539	0.15
443.742	0.12
443.944	0.19
444.146	0.17
444.348	0.12
444.55	0.15
444.752	0.16
444.954	0.13
445.156	0.19
445.358	0.11
445.56	0.22
445.762	0.09
445.964	0.13
446.166	0.13
446.368	0.13
446.57	0.22
446.772	0.18
446.974	0.12
447.175	0.17
447.377	0.11
447.579	0.11
447.781	0.05
447.983	0.23
448.184	0.13
448.386	0.14
448.588	0.1
448.79	0.17
448.991	0.15
449.193	0.08
449.395	0.2
449.597	0.18
449.798	0.19
450	0.22
450.202	0.16
450.403	0.2
450.605	0.21
450.806	0.15
451.008	0.12
451.21	0.15
451.411	0.15
451.613	0.15
451.814	0.14
452.016	0.19
452.217	0.15
452.419	0.22
452.62	0.17
452.821	0.14
453.023	0.2
453.224	0.25
453.426	0.15
453.627	0.22
453.828	0.18
454.03	0.11
454.231	0.19
454.432	0.13
454.634	0.3
454.835	0.19
455.036	0.08
455.238	0.22
455.439	0.27
455.64	0.12
455.841	0.15
456.042	0.31
456.244	0.26
456.445	0.18
456.646	0.09
456.847	0.16
457.048	0.22
457.249	0.31
457.45	0.42
457.651	0.13
457.852	0.23
458.054	0.22
458.255	0.17
458.456	0.24
458.657	0.19
458.858	0.18
459.058	0.21
459.259	0.27
459.46	0.19
459.661	0.2
459.862	0.35
460.063	0.17
460.264	0.3
460.465	0.2
460.666	0.29
460.866	0.21
461.067	0.24
461.268	0.17
461.469	0.19
461.67	0.21
461.87	0.23
462.071	0.16
462.272	0.18
462.473	0.2
462.673	0.23
462.874	0.17
463.075	0.29
463.275	0.2
463.476	0.27
463.676	0.27
463.877	0.25
464.078	0.23
464.278	0.25
464.479	0.21
464.679	0.26
464.88	0.22
465.08	0.34
465.281	0.21
465.481	0.22
465.682	0.19
465.882	0.32
466.083	0.24
466.283	0.25
466.483	0.27
466.684	0.18
466.884	0.21
467.085	0.25
467.285	0.32
467.485	0.23
467.686	0.27
467.886	0.23
468.086	0.28
468.286	0.27
468.487	0.3
468.687	0.27
468.887	0.28
469.087	0.31
469.287	0.3
469.488	0.18
469.688	0.34
469.888	0.32
470.088	0.33
470.288	0.33
470.488	0.32
470.688	0.24
470.888	0.27
471.088	0.27
471.288	0.36
471.488	0.31
471.688	0.37
471.888	0.26
472.088	0.41
472.288	0.39
472.488	0.32
472.688	0.34
472.888	0.38
473.088	0.37
473.288	0.35
473.488	0.35
473.688	0.51
473.887	0.37
474.087	0.36
474.287	0.39
474.487	0.39
474.687	0.46
474.886	0.37
475.086	0.42
475.286	0.4
475.486	0.41
475.685	0.4
475.885	0.43
476.085	0.43
476.284	0.45
476.484	0.43
476.684	0.49
476.883	0.53
477.083	0.45
477.282	0.47
477.482	0.58
477.681	0.55
477.881	0.47
478.08	0.49
478.28	0.49
478.479	0.57
478.679	0.59
478.878	0.54
479.078	0.51
479.277	0.54
479.477	0.59
479.676	0.62
479.875	0.61
480.075	0.53
480.274	0.63
480.473	0.65
480.673	0.63
480.872	0.65
481.071	0.68
481.271	0.68
481.47	0.67
481.669	0.68
481.868	0.68
482.067	0.71
482.267	0.69
482.466	0.69
482.665	0.72
482.864	0.74
483.063	0.76
483.262	0.8
483.461	0.86
483.661	0.85
483.86	0.86
484.059	0.88
484.258	0.88
484.457	0.91
484.656	0.92
484.855	0.99
485.054	0.87
485.253	0.92
485.452	0.94
485.651	1.01
485.849	1.03
486.048	1.02
486.247	1.06
486.446	1.11
486.645	1.09
486.844	1.11
487.043	1.12
487.241	1.17
487.44	1.17
487.639	1.22
487.838	1.26
488.037	1.27
488.235	1.38
488.434	1.32
488.633	1.26
488.831	1.44
489.03	1.45
489.229	1.45
489.427	1.42
489.626	1.49
489.825	1.55
490.023	1.58
490.222	1.53
490.42	1.6
490.619	1.69
490.817	1.66
491.016	1.66
491.214	1.77
491.413	1.83
491.611	1.8
491.81	1.79
492.008	1.87
492.207	1.97
492.405	1.94
492.604	1.92
492.802	2.01
493	2.09
493.199	2.11
493.397	2.2
493.595	2.21
493.794	2.24
493.992	2.34
494.19	2.32
494.388	2.45
494.587	2.4
494.785	2.48
494.983	2.4
495.181	2.54
495.379	2.65
495.578	2.69
495.776	2.73
495.974	2.69
496.172	2.78
496.37	2.91
496.568	3.01
496.766	2.97
496.964	3.1
497.162	3.13
497.36	3.15
497.558	3.25
497.756	3.35
497.954	3.36
498.152	3.48
498.35	3.59
498.548	3.53
498.746	3.59
498.944	3.68
499.142	3.7
499.34	3.84
499.538	4.03
499.736	3.91
499.933	4.06
500.131	4.11
500.329	4.35
500.527	4.29
500.725	4.46
500.922	4.57
501.12	4.68
501.318	4.76
501.516	4.78
501.713	4.88
501.911	4.94
502.109	5.02
502.306	5.15
502.504	5.1
502.701	5.25
502.899	5.38
503.097	5.66
503.294	5.54
503.492	5.74
503.689	5.84
503.887	5.94
504.084	6.05
504.282	6.09
504.479	6.12
504.677	6.42
504.874	6.47
505.072	6.38
505.269	6.75
505.466	6.83
505.664	6.98
505.861	6.88
506.059	7.15
506.256	7.23
506.453	7.45
506.651	7.6
506.848	7.69
507.045	7.71
507.242	7.82
507.44	8.03
507.637	8.15
507.834	8.17
508.031	8.45
508.229	8.47
508.426	8.43
508.623	8.74
508.82	9.04
509.017	8.92
509.214	9.05
509.411	9.26
509.608	9.26
509.805	9.56
510.003	9.64
510.2	9.71
510.397	9.95
510.594	9.95
510.791	10.16
510.988	10.2
511.184	10.2
511.381	10.1
511.578	10.5
511.775	10.8
511.972	10.71
512.169	10.93
512.366	11.07
512.563	11.26
512.76	11.41
512.956	11.53
513.153	11.53
513.35	11.43
513.547	11.57
513.744	11.83
513.94	11.9
514.137	12.13
514.334	12.1
514.53	12.21
514.727	12.68
514.924	12.45
515.12	12.53
515.317	12.61
515.514	12.54
515.71	12.45
515.907	13.05
516.103	13.06
516.3	12.84
516.497	13.11
516.693	13.12
516.89	13.21
517.086	13.31
517.283	13.32
517.479	13.07
517.676	13.56
517.872	13.58
518.068	13.51
518.265	13.55
518.461	13.46
518.658	13.69
518.854	13.65
519.05	13.89
519.247	13.87
519.443	13.71
519.639	13.91
519.836	13.7
520.032	13.68
520.228	13.92
520.424	13.69
520.621	13.78
520.817	13.94
521.013	13.74
521.209	14.02
521.405	13.93
521.601	13.83
521.798	13.68
521.994	13.6
522.19	13.58
522.386	13.54
522.582	13.69
522.778	13.79
522.974	13.48
523.17	13.45
523.366	13.24
523.562	13.27
523.758	13.31
523.954	12.95
524.15	13.23
524.346	13.15
524.542	13.19
524.738	13.05
524.934	13.09
525.129	12.92
525.325	12.71
525.521	12.69
525.717	12.88
525.913	12.38
526.109	12.38
526.304	12.49
526.5	12.4
526.696	12.3
526.892	12.02
527.087	12.39
527.283	12.13
527.479	11.91
527.674	11.49
527.87	11.66
528.066	11.62
528.261	11.5
528.457	11.25
528.653	11.45
528.848	11.25
529.044	11.27
529.239	11
529.435	10.87
529.63	10.69
529.826	10.57
530.021	10.56
530.217	10.52
530.412	10.33
530.608	10.25
530.803	10.15
530.999	9.9
531.194	10
531.389	9.95
531.585	9.83
531.78	9.85
531.975	9.61
532.171	9.56
532.366	9.39
532.561	9.34
532.757	9.18
532.952	9.26
533.147	8.97
533.342	9
533.538	8.73
533.733	8.86
533.928	8.4
534.123	8.62
534.318	8.53
534.513	8.3
534.709	8.4
534.904	8.21
535.099	8.21
535.294	8.04
535.489	8.03
535.684	7.9
535.879	7.74
536.074	7.74
536.269	7.67
536.464	7.62
536.659	7.42
536.854	7.42
537.049	7.37
537.244	7.26
537.439	7.13
537.634	7.08
537.828	7.03
538.023	6.99
538.218	6.83
538.413	6.72
538.608	6.72
538.803	6.64
538.997	6.55
539.192	6.47
539.387	6.4
539.582	6.36
539.776	6.21
539.971	6.25
540.166	6.25
540.36	6.02
540.555	6.08
540.75	6.01
540.944	5.92
541.139	5.85
541.334	5.79
541.528	5.72
541.723	5.68
541.917	5.63
542.112	5.43
542.306	5.38
542.501	5.34
542.695	5.3
542.89	5.21
543.084	5.19
543.279	5.1
543.473	5.12
543.668	5.07
543.862	4.96
544.056	4.89
544.251	4.98
544.445	4.91
544.64	4.83
544.834	4.52
545.028	4.45
545.222	4.6
545.417	4.64
545.611	4.51
545.805	4.51
546	4.26
546.194	4.35
546.388	4.32
546.582	4.21
546.776	4.19
546.97	4.15
547.165	4.06
547.359	4.01
547.553	3.92
547.747	3.94
547.941	3.96
548.135	3.84
548.329	3.85
548.523	3.76
548.717	3.67
548.911	3.62
549.105	3.61
549.299	3.57
549.493	3.54
549.687	3.44
549.881	3.45
550.075	3.36
550.269	3.3
550.463	3.31
550.657	3.25
550.85	3.19
551.044	3.18
551.238	3.17
551.432	3.1
551.626	3.04
551.82	3
552.013	2.91
552.207	2.97
552.401	2.93
552.594	2.83
552.788	2.79
552.982	2.75
553.176	2.7
553.369	2.82
553.563	2.67
553.756	2.64
553.95	2.57
554.144	2.57
554.337	2.54
554.531	2.44
554.724	2.47
554.918	2.44
555.111	2.41
555.305	2.36
555.498	2.37
555.692	2.35
555.885	2.25
556.079	2.26
556.272	2.22
556.466	2.21
556.659	2.17
556.852	2.16
557.046	2.06
557.239	2.05
557.432	1.98
557.626	2.03
557.819	2.02
558.012	1.99
558.206	1.98
558.399	1.9
558.592	1.89
558.785	1.83
558.979	1.88
559.172	1.83
559.365	1.82
559.558	1.77
559.751	1.7
559.944	1.78
560.138	1.69
560.331	1.67
560.524	1.67
560.717	1.63
560.91	1.64
561.103	1.59
561.296	1.53
561.489	1.55
561.682	1.54
561.875	1.53
562.068	1.55
562.261	1.47
562.454	1.52
562.647	1.43
562.84	1.47
563.032	1.43
563.225	1.39
563.418	1.37
563.611	1.35
563.804	1.35
563.997	1.3
564.19	1.25
564.382	1.3
564.575	1.24
564.768	1.24
564.961	1.24
565.153	1.18
565.346	1.23
565.539	1.2
565.731	1.18
565.924	1.22
566.117	1.19
566.309	1.1
566.502	1.09
566.695	1.09
566.887	1.1
567.08	1.09
567.272	1.05
567.465	1.01
567.657	1.03
567.85	1.01
568.042	1.04
568.235	1.02
568.427	0.98
568.62	0.98
568.812	0.98
569.005	0.97
569.197	0.91
569.389	0.94
569.582	0.94
569.774	0.92
569.966	0.84
570.159	0.85
570.351	0.85
570.543	0.84
570.736	0.85
570.928	0.8
571.12	0.83
571.312	0.8
571.505	0.74
571.697	0.81
571.889	0.78
572.081	0.78
572.273	0.76
572.465	0.8
572.658	0.73
572.85	0.77
573.042	0.72
573.234	0.71
573.426	0.75
573.618	0.67
573.81	0.7
574.002	0.74
574.194	0.68
574.386	0.64
574.578	0.59
574.77	0.64
574.962	0.63
575.154	0.57
575.346	0.6
575.538	0.61
575.729	0.61
575.921	0.61
576.113	0.57
576.305	0.61
576.497	0.56
576.689	0.56
576.88	0.54
577.072	0.57
577.264	0.54
577.456	0.54
577.647	0.47
577.839	0.55
578.031	0.59
578.223	0.48
578.414	0.47
578.606	0.48
578.798	0.5
578.989	0.48
579.181	0.49
579.372	0.48
579.564	0.48
579.755	0.49
579.947	0.46
580.139	0.45
580.33	0.38
580.522	0.43
580.713	0.36
580.905	0.45
581.096	0.43
581.287	0.43
581.479	0.43
581.67	0.42
581.862	0.42
582.053	0.39
582.244	0.37
582.436	0.4
582.627	0.4
582.818	0.39
583.01	0.36
583.201	0.41
583.392	0.4
583.583	0.36
583.775	0.33
583.966	0.34
584.157	0.37
584.348	0.37
584.54	0.32
584.731	0.36
584.922	0.34
585.113	0.29
585.304	0.34
585.495	0.4
585.686	0.34
585.877	0.36
586.068	0.32
586.259	0.32
586.45	0.33
586.641	0.29
586.832	0.27
587.023	0.29
587.214	0.28
587.405	0.29
587.596	0.28
587.787	0.36
587.978	0.29
588.169	0.26
588.36	0.27
588.551	0.29
588.742	0.27
588.932	0.28
589.123	0.27
589.314	0.29
589.505	0.29
589.696	0.27
589.886	0.23
590.077	0.22
590.268	0.26
590.458	0.2
590.649	0.2
590.84	0.29
591.03	0.22
591.221	0.21
591.412	0.22
591.602	0.26
591.793	0.27
591.984	0.18
592.174	0.21
592.365	0.3
592.555	0.23
592.746	0.24
592.936	0.25
593.127	0.23
593.317	0.26
593.508	0.19
593.698	0.2
593.889	0.22
594.079	0.2
594.269	0.2
594.46	0.22
594.65	0.19
594.84	0.19
595.031	0.17
595.221	0.19
595.411	0.15
595.602	0.21
595.792	0.22
595.982	0.19
596.172	0.27
596.363	0.18
596.553	0.2
596.743	0.17
596.933	0.18
597.123	0.24
597.314	0.15
597.504	0.16
597.694	0.22
597.884	0.19
598.074	0.15
598.264	0.16
598.454	0.17
598.644	0.17
598.834	0.18
599.024	0.09
599.214	0.13
599.404	0.2
599.594	0.15
599.784	0.14
599.974	0.21
600.164	0.19
600.354	0.11
600.544	0.12
600.734	0.17
600.924	0.19
601.114	0.11
601.303	0.16
601.493	0.18
601.683	0.16
601.873	0.18
602.063	0.12
602.252	0.16
602.442	0.08
602.632	0.13
602.821	0.13
603.011	0.15
603.201	0.14
603.39	0.1
603.58	0.12
603.77	0.15
603.959	0.19
604.149	0.12
604.339	0.12
604.528	0.17
604.718	0.16
604.907	0.14
605.097	0.14
605.286	0.07
605.476	0.15
605.665	0.13
605.855	0.11
606.044	0.18
606.234	0.14
606.423	0.11
606.612	0.11
606.802	0.17
606.991	0.14
607.181	0.12
607.37	0.12
607.559	0.14
607.749	0.1
607.938	0.11
608.127	0.09
608.316	0.11
608.506	0.15
608.695	0.11
608.884	0.11
609.073	0.12
609.263	0.16
609.452	0.14
609.641	0.11
609.83	0.1
610.019	0.11
610.208	0.08
610.397	0.1
610.586	0.15
610.775	0.1
610.965	0.09
611.154	0.09
611.343	0.12
611.532	0.11
611.721	0.08
611.91	0.08
612.099	0.12
612.287	0.11
612.476	0.07
612.665	0.12
612.854	0.1
613.043	0.13
613.232	0.1
613.421	0.06
613.61	0.11
613.798	0.09
613.987	0.13
614.176	0.13
614.365	0.14
614.554	0.11
614.742	0.12
614.931	0.08
615.12	0.12
615.309	0.09
615.497	0.11
615.686	0.09
615.875	0.09
616.063	0.13
616.252	0.1
616.44	0.07
616.629	0.1
616.818	0.13
617.006	0.05
617.195	0.11
617.383	0.11
617.572	0.13
617.76	0.07
617.949	0.09
618.137	0.1
618.326	0.11
618.514	0.07
618.703	0.07
618.891	0.13
619.079	0.03
619.268	0.09
619.456	0.08
619.644	0.13
619.833	0.1
620.021	0.08
620.209	0.03
620.398	0.1
620.586	0.09
620.774	0.1
620.962	0.1
621.151	0.17
621.339	0.11
621.527	0.05
621.715	0.06
621.903	0.08
622.092	0.06
622.28	0.1
622.468	0.1
622.656	0.09
622.844	0.13
623.032	0.04
623.22	0.04
623.408	0.13
623.596	0.13
623.784	0.12
623.972	0.06
624.16	0.07
624.348	0.16
624.536	0.07
624.724	0.05
624.912	0.15
625.1	0.13
625.288	0.05
625.476	0.05
625.664	0.11
625.851	0.08
626.039	0.09
626.227	0.09
626.415	0.12
626.603	0.03
626.79	0.09
626.978	0.07
627.166	0.08
627.354	0.07
627.541	0.06
627.729	0.02
627.917	0.1
628.104	0.1
628.292	0.11
628.48	0.08
628.667	0.1
628.855	0.08
629.042	0.11
629.23	0.12
629.418	0.11
629.605	0.07
629.793	0.04
629.98	0.07
630.168	0.08
630.355	0.08
630.543	0.11
630.73	0.06
630.917	0.09
631.105	0.12
631.292	0.07
631.48	0.07
631.667	0.14
631.854	0.08
632.042	0.07
632.229	0.02
632.416	0.09
632.604	0.07
632.791	0.01
632.978	0.11
633.165	0.09
633.353	0.13
633.54	0.1
633.727	0.02
633.914	0.06
634.101	-0.01
634.289	0.1
634.476	0.07
634.663	0.06
634.85	0.09
635.037	0.05
635.224	0.04
635.411	0.1
635.598	0.13
635.785	0.08
635.972	0.07
636.159	0.1
636.346	0.07
636.533	0.08
636.72	0.06
636.907	0.04
637.094	0.1
637.281	0.06
637.468	0.09
637.655	0.07
637.842	0.08
638.029	0.07
638.215	0.09
638.402	0.09
638.589	0.04
638.776	0.05
638.963	0.05
639.149	0.08
639.336	0.15
639.523	0.09
639.709	0.06
639.896	0.07
640.083	0.12
640.27	0.11
640.456	0.04
640.643	0.08
640.829	0.02
641.016	0.05
641.203	0.04
641.389	0.09
641.576	0.12
641.762	0.06
641.949	0.03
642.135	0.09
642.322	0.09
642.508	0.03
642.695	0.08
642.881	0.05
643.068	0.08
643.254	0.08
643.441	0.09
643.627	0.05
643.813	0.06
644	0.11
644.186	0.05
644.372	0
644.559	0.11
644.745	0.06
644.931	0.06
645.118	0.07
645.304	0.03
645.49	0.05
645.676	0.03
645.862	0.1
646.049	0.11
646.235	0.08
646.421	0.13
646.607	0.12
646.793	0.06
646.979	0.04
647.165	0.08
647.352	0.04
647.538	0.12
647.724	0.07
647.91	0.06
648.096	0.1
648.282	0.09
648.468	0.05
648.654	0.1
648.84	0.09
649.026	0.04
649.212	0.06
649.397	0.04
649.583	0.04
649.769	0.07
649.955	0.08
650.141	0.07
650.327	0.11
650.513	0.05
650.698	0.06
650.884	0.01
651.07	0.1
651.256	0.06
651.442	0.05
651.627	0.05
651.813	0.09
651.999	0.07
652.184	0.07
652.37	0.06
652.556	0.04
652.741	0.11
652.927	0.02
653.113	0.06
653.298	0.08
653.484	0.07
653.669	0.01
653.855	0.04
654.04	0.1
654.226	0.07
654.412	0.04
654.597	0.02
654.782	0.07
654.968	0.1
655.153	0.09
655.339	0.07
655.524	0.03
655.71	0.08
655.895	0.04
656.08	0.04
656.266	0.12
656.451	0.08
656.636	0.02
656.822	0.04
657.007	0.05
657.192	0.07
657.378	0.02
657.563	0.05
657.748	0.11
657.933	0.12
658.118	0.04
658.304	0.02
658.489	0.12
658.674	0.07
658.859	0.05
659.044	0.07
659.229	0.09
659.414	0.08
659.599	0.08
659.785	0.01
659.97	0.07
660.155	0.1
660.34	0.09
660.525	0.04
660.71	0.06
660.895	0.09
661.08	0.03
661.264	0.03
661.449	0.11
661.634	0.12
661.819	0.1
662.004	0.11
662.189	-0.01
662.374	0.05
662.559	0.08
662.743	0.04
662.928	0.06
663.113	0.05
663.298	-0
663.483	0.06
663.667	0.11
663.852	0.02
664.037	0.11
664.221	0.05
664.406	0.12
664.591	0.09
664.775	0.09
664.96	0.05
665.145	0.04
665.329	0.1
665.514	0.05
665.698	0.07
665.883	0.01
666.068	0.12
666.252	0.06
666.437	0.07
666.621	0.04
666.806	0.13
666.99	0.06
667.174	0.06
667.359	0.14
667.543	0.05
667.728	0.03
667.912	0.05
668.096	0.08
668.281	0.06
668.465	0.11
668.649	0.06
668.834	0.09
669.018	0.09
669.202	0.04
669.387	0.08
669.571	0.12
669.755	0.01
669.939	0.07
670.124	0.07
670.308	0.16
670.492	0.12
670.676	0.1
670.86	0.1
671.044	0.05
671.228	0.09
671.413	0.04
671.597	0.06
671.781	0.04
671.965	0.1
672.149	0.08
672.333	0.1
672.517	0.06
672.701	0.15
672.885	0.09
673.069	0.07
673.253	0.14
673.437	0.06
673.621	0.05
673.804	0.09
673.988	0.08
674.172	0.11
674.356	0.06
674.54	0.09
674.724	0.18
674.908	0.08
675.091	0.16
675.275	0.09
675.459	0.12
675.643	0.07
675.826	0.1
676.01	0.12
676.194	0.1
676.377	0.14
676.561	0.14
676.745	0.1
676.928	0.1
677.112	0.15
677.296	0.07
677.479	0.08
677.663	0.06
677.846	0.14
678.03	0.11
678.213	0.05
678.397	0.14
678.58	0.07
678.764	0.05
678.947	0.1
679.131	0.09
679.314	0.18
679.498	0.09
679.681	0.11
679.865	0.19
680.048	0.13
680.231	0.06
680.415	0.08
680.598	0.09
680.781	0.04
680.965	0.07
681.148	0.11
681.331	0.07
681.514	0.11
681.698	0.08
681.881	0.16
682.064	0.13
682.247	0.1
682.43	0.02
682.614	0.13
682.797	0.11
682.98	0.11
683.163	0.07
683.346	0.13
683.529	0.07
683.712	0.09
683.895	0.13
684.078	0.04
684.261	0.08
684.444	0.13
684.627	0.11
684.81	0.07
684.993	0.07
685.176	0.11
685.359	0.05
685.542	0.05
685.725	0.16
685.908	0.09
686.091	0.02
686.274	0.18
686.457	0.1
686.639	0.07
686.822	0.18
687.005	0.07
687.188	0.14
687.371	0.13
687.553	0.14
687.736	0.13
687.919	0.16
688.102	0.14
688.284	0.09
688.467	0.1
688.65	0.1
688.832	0.09
689.015	0.08
689.197	0
689.38	0.16
689.563	0.13
689.745	0.05
689.928	0.02
690.11	0.07
690.293	0.13
690.475	0.03
690.658	0.11
690.84	0.09
691.023	0.07
691.205	0.04
691.388	0.08
691.57	0.11
691.752	0.1
691.935	-0.05
692.117	0.04
692.3	0.13
692.482	0.1
692.664	0.13
692.847	0.09
693.029	0.18
693.211	0.1
693.393	0.07
693.576	0.07
693.758	0.09
693.94	0.04
694.122	0.05
694.304	0.02
694.487	0.07
694.669	0.14
694.851	0.04
695.033	0.13
695.215	0.06
695.397	0.07
695.579	0.11
695.761	0.04
695.943	-0.01
696.125	0.16
696.308	0.08
696.49	-0.02
696.671	0.2
696.853	0.05
697.035	0.2
697.217	0.1
697.399	0.17
697.581	0.06
697.763	0.09
697.945	0.07
698.127	0.07
698.309	0.15
698.491	0.08
698.672	0.12
698.854	0.1
699.036	0.15
699.218	0.06
699.399	0.17
699.581	0.14
699.763	0.1
699.945	0.06
700.126	0.04
700.308	0.1
700.49	0.12
700.671	0.03
700.853	0.07
701.035	0.08
701.216	0.06
701.398	0.04
701.579	0.01
701.761	0.12
701.943	0.02
702.124	0.03
702.306	0.09
702.487	0.13
702.669	0.13
702.85	0.07
703.031	0.08
703.213	0.16
703.394	0.12
703.576	0.04
703.757	0.17
703.938	0.13
704.12	0.21
704.301	0.06
704.483	-0.02
704.664	0.1
704.845	0.19
705.026	0.15
705.208	0.11
705.389	0.08
705.57	0.12
705.751	0.11
705.933	0.08
706.114	0.19
706.295	0.09
706.476	0.04
706.657	0.11
706.838	0.16
707.02	0.18
707.201	0.04
707.382	0.07
707.563	0.05
707.744	0.11
707.925	0.09
708.106	0.01
708.287	0.15
708.468	0.18
708.649	0.07
708.83	0.08
709.011	0.07
709.192	0.14
709.373	0.02
709.554	0.07
709.734	0.17
709.915	0.13
710.096	0.09
710.277	-0.03
710.458	0.07
710.639	0.17
710.819	0.03
711	0.08
711.181	0.22
711.362	0.22
711.542	0.12
711.723	0.08
711.904	0.16
712.085	0.13
712.265	0.11
712.446	0.07
712.627	0.07
712.807	0.06
712.988	0.1
713.168	-0.03
713.349	0.15
713.53	-0.04
713.71	0.06
713.891	0
714.071	0.08
714.252	0.09
714.432	-0
714.613	0
714.793	0.03
714.974	0.17
715.154	0.22
715.334	0.12
715.515	0.19
715.695	-0.02
715.876	0.05
716.056	0.09
716.236	0.08
716.417	0.05
716.597	0.04
716.777	0.24
716.957	0.12
717.138	0.08
717.318	0.11
717.498	0.02
717.678	0.08
717.859	0.06
718.039	-0
718.219	0.05
718.399	0.15
718.579	0.05
718.759	-0
718.939	0.15
719.12	0.1
719.3	0.11
719.48	-0.03
719.66	-0.01
719.84	0.18
720.02	0.12
720.2	0.06
720.38	0.04
720.56	0.18
720.74	0.08
720.92	0.14
721.1	0.21
721.279	0.15
721.459	0.16
721.639	0.03
721.819	0.11
721.999	0.04
722.179	0.1
722.359	-0.01
722.538	0.08
722.718	0.13
722.898	0.11
723.078	0.03
723.257	0.08
723.437	0.1
723.617	0.1
723.797	0.12
723.976	0.09
724.156	0.15
724.336	0.13
724.515	0.19
724.695	-0.09
724.874	0.01
725.054	0.15
725.234	0.05
725.413	0.13
725.593	0.02
725.772	0.07
725.952	0.09
726.131	0.16
726.311	0.1
726.49	0.07
726.67	-0.02
726.849	0.06
727.028	0.06
727.208	0.06
727.387	0.08
727.567	0.01
727.746	0.11
727.925	0.02
728.105	-0.02
728.284	0.07
728.463	0.06
728.643	0.17
728.822	0.01
729.001	0.1
729.18	0.07
729.359	0.15
729.539	0.05
729.718	0.14
729.897	0.1
730.076	0.05
730.255	-0
730.434	0.14
730.614	0.14
730.793	0.13
730.972	0.09
731.151	0.08
731.33	0.22
731.509	0.12
731.688	0.04
731.867	0.14
732.046	-0.09
732.225	0.3
732.404	0.01
732.583	-0.02
732.762	0.1
732.941	0.11
733.12	0.13
733.298	0.13
733.477	0.12
733.656	0.07
733.835	-0.01
734.014	0.18
734.193	0.09
734.371	0.17
734.55	0.17
734.729	-0.01
734.908	0.15
735.086	0.16
735.265	0.21
735.444	-0.04
735.623	-0.03
735.801	0.02
735.98	0.1
736.159	0.07
736.337	0.22
736.516	0.14
736.694	0.11
736.873	0.09
737.052	0.24
737.23	0.13
737.409	0.11
737.587	0.19
737.766	-0.09
737.944	0.03
738.123	0.21
738.301	0.18
738.479	0.02
738.658	0.13
738.836	-0.14
739.015	0.18
739.193	0.19
739.371	-0.07
739.55	0.05
739.728	0.05
739.906	0.21
740.085	0.19
740.263	0.33
740.441	-0.08
740.62	0.25
740.798	0.15
740.976	-0.07
741.154	0.04
741.332	0.27
741.511	0.13
741.689	0.17
741.867	0.2
742.045	0.11
742.223	0.12
742.401	0.05
742.579	0.05
742.757	0.12
742.935	0.01
743.114	0.02
743.292	0.06
743.47	0.12
743.648	0.1
743.826	0.13
744.004	0.13
744.181	0.2
744.359	0.03
744.537	0.14
744.715	0.1
744.893	0.1
745.071	0.04
745.249	0.08
745.427	0.07
745.605	0.1
745.782	0.19
745.96	0.22
746.138	0.22
746.316	0.15
746.493	0.06
746.671	0.09
746.849	0.11
747.027	0.17
747.204	-0.03
747.382	0.14
747.56	-0.05
747.737	0.16
747.915	0.03
748.093	0.14
748.27	-0.02
748.448	0.08
748.625	0.09
748.803	0.03
748.98	0.11
749.158	0.06
749.335	0.11
749.513	0.15
749.69	0.11
749.868	0.14
750.045	0.14
750.223	0.08
750.4	-0.01
750.578	0.22
750.755	0.06
750.932	-0.04
751.11	0.28
751.287	-0.14
751.464	0.15
751.642	0.05
751.819	0.24
751.996	0.14
752.173	0.07
752.351	-0.07
752.528	0.2
752.705	0.07
752.882	0.1
753.06	0.11
753.237	0.15
753.414	0.36
753.591	0.24
753.768	0.13
753.945	-0.03
754.122	0.04
754.299	0.16
754.476	-0.04
754.654	0.11
754.831	0.15
755.008	0.06
755.185	0.09
755.362	-0.04
755.539	0.11
755.716	0.07
755.892	0.02
756.069	0.07
756.246	0.05
756.423	0.14
756.6	0.23
756.777	0.11
756.954	0.33
757.131	0.03
757.307	0.03
757.484	-0.05
757.661	0.09
757.838	0.15
758.015	-0.09
758.191	0.11
758.368	0.11
758.545	0.27
758.721	0.12
758.898	0.04
759.075	0.19
759.251	0.08
759.428	0.09
759.605	-0.04
759.781	0.1
759.958	0.16
760.134	0.17
760.311	-0.02
760.488	0.21
760.664	0.1
760.841	0.17
761.017	0
761.194	0.12
761.37	0.19
761.547	0.07
761.723	0.04
761.899	0.26
762.076	0.05
762.252	0.05
762.429	0.02
762.605	0.17
762.781	0.08
762.958	0.2
763.134	0.14
763.31	0.01
763.486	0.28
763.663	-0.07
763.839	0.28
764.015	-0.15
764.191	-0.05
764.368	0.04
764.544	0.01
764.72	0.15
764.896	0.05
765.072	0.15
765.248	0.13
765.425	-0
765.601	-0.01
765.777	0.09
765.953	-0.15
766.129	0.01
766.305	0.01
766.481	0.19
766.657	0.01
766.833	0.35
767.009	0.01
767.185	0.02
767.361	0.05
767.537	-0.01
767.713	0.32
767.889	0.03
768.065	-0.07
768.24	0.07
768.416	0.07
768.592	-0
768.768	0.01
768.944	0.16
769.12	-0.07
769.295	0.04
769.471	0.17
769.647	0.1
769.823	0.15
769.998	0.02
770.174	-0.04
770.35	0.43
770.525	0.33
770.701	0.12
770.877	0.03
771.052	0.05
771.228	0.28
771.403	0.2
771.579	0.06
771.755	0.43
771.93	0.09
772.106	0
772.281	-0.06
772.457	0.19
772.632	0.22
772.808	0.03
772.983	-0.01
773.159	-0.06
773.334	0.14
773.509	0.21
773.685	0.01
773.86	0.53
774.036	0.1
774.211	0.05
774.386	0.08
774.562	0.05
774.737	0.31
774.912	-0.12
775.087	0.16
775.263	0.09
775.438	0.28
775.613	0.06
775.788	0.09
775.964	0.17
776.139	0.39
776.314	-0.07
776.489	0.11
776.664	0.11
776.839	-0.04
777.014	0.18
777.19	0.26
777.365	0.37
777.54	0.29
777.715	-0.03
777.89	0.06
778.065	0.05
778.24	0.26
778.415	0.32
778.59	-0.17
778.765	0.07
778.94	0.18
779.115	0.07
779.289	0.01
779.464	0.04
779.639	0.11
779.814	-0.13
779.989	-0.25
780.164	0.35
780.339	0.19
780.513	-0.04
780.688	-0.03
780.863	0.19
781.038	0.15
781.212	0.13
781.387	0.08
781.562	0.35
781.737	0.11
781.911	0.3
782.086	-0.02
782.261	0.12
782.435	0.36
782.61	-0.08
782.784	0.11
782.959	0.23
783.134	-0.02
783.308	-0.15
783.483	0.14
783.657	0.62
783.832	0.56
784.006	-0.26
784.181	0.12
784.355	0.34
784.53	0.11
784.704	-0.13
784.878	0.35
785.053	0.22
785.227	0.19
785.402	0.48
785.576	-0.08
785.75	0.27
785.925	-0
786.099	0.2
786.273	0.16
786.448	0.18
786.622	0.15
786.796	0.13
786.97	0.06
787.145	0.64
787.319	-0.23
787.493	0.24
787.667	0.04
787.841	0.17
788.015	0.31
788.19	0.1
788.364	0.12
788.538	0.32
788.712	0.01
788.886	0.13
789.06	0.05
789.234	0.31
789.408	-0.12
789.582	0.12
789.756	0.09
789.93	-0.05
790.104	0.16
790.278	0.08
790.452	0.1
790.626	0.35
790.8	-0.1
790.973	0.17
791.147	0.56
791.321	0.53
791.495	0.21
791.669	0.2
791.843	0.32
792.016	0.24
792.19	0.61
792.364	0.03
792.538	0.42
792.711	0.28
792.885	-0.03
793.059	-0.02
793.233	-0.46
793.406	0.33
793.58	0.1
793.754	0.17
793.927	0.03
794.101	0.46
794.274	0.06
794.448	0.28
794.622	0.01
794.795	0.4
794.969	-0.04
795.142	0.42
795.316	0.11
795.489	-0.17
795.663	0.51
795.836	-0.1
796.009	-0.13
796.183	0.55
796.356	0.19
796.53	-0.01
796.703	0.14
796.876	0.69
797.05	-0.07
797.223	0.11
797.396	0.17
797.57	0.44
797.743	0.41
797.916	0.26
798.09	-0.13
798.263	0.2
798.436	0.24
798.609	-0.01
798.782	0.16
798.956	0.17
799.129	0.2
799.302	0.16
799.475	-0.01
799.648	0.05
799.821	0.01
799.994	0.21
800.167	-0.29
800.34	0.07
800.514	0.01
800.687	0.02
800.86	-0.03
801.033	0.4
801.206	0.18
801.379	-0.32
801.551	0.6
801.724	0.26
801.897	0.77
802.07	0.21
802.243	-0.45
802.416	0.08
802.589	0.06
802.762	0.17
802.935	0.11
803.107	0.55
803.28	0.62
803.453	0.2
803.626	0.08
803.798	0.13
803.971	-0.14
804.144	0.19
804.317	0.41
804.489	0.61
804.662	0.23
804.835	0.24
805.007	-0.15
805.18	0.55
805.353	0.28
805.525	-0.22
805.698	-0.22
805.87	0.27
806.043	0.17
806.215	0.27
806.388	-0
806.56	0.28
806.733	0.29
806.905	0.09
807.078	-0.26
807.25	0.09
807.423	0.25
807.595	0.16
807.768	0.22
807.94	0.58
808.112	0.15
808.285	-0.03
808.457	-0.03
808.629	0.26
808.802	0.47
808.974	0.29
809.146	0.38
809.318	-0.13
809.491	0.26
809.663	0.37
809.835	0.22
810.007	0.17
810.18	-0.02
810.352	-0.18
810.524	0.02
810.696	0.17
810.868	0.31
811.04	-0.03
811.212	0.12
811.384	0.48
811.556	0.07
811.728	0.1
811.901	0.57
812.073	0.18
812.245	0.79
812.417	0.09
812.589	-0.27
812.76	0.11
812.932	0.74
813.104	0.23
813.276	-0.07
813.448	0.43
813.62	0.18
813.792	0.13
813.964	0.14
814.136	-0.01
814.307	0.04
814.479	0.2
814.651	-0.04
814.823	0.95
814.995	-0.12
815.166	0.13
815.338	-0.13
815.51	0.07
815.681	0.92
815.853	-0.05
816.025	0.1
816.196	0.49
816.368	0.4
816.54	-0.19
816.711	-0.13
816.883	0.36
817.054	1.34
817.226	-0.32
817.398	0.52
817.569	0.16
817.741	0.41
817.912	0.08
818.084	0.07
818.255	0.08
818.426	0.01
818.598	-0.55
818.769	-0.01
818.941	0.77
819.112	1.13
819.283	0.48
819.455	-0.32
819.626	0.23
819.798	0.37
819.969	0.58
820.14	0.22
820.311	0.18
820.483	0.26
820.654	0.45
820.825	0.31
820.996	0.32
821.168	0.13
821.339	-0.08
821.51	-0.15
821.681	-0.05
821.852	-0.17
822.023	-0.38
822.195	-0.6
822.366	0.76
822.537	0.66
822.708	-0.03
822.879	-0.32
823.05	0.74
823.221	-0.05
823.392	0.27
823.563	0.38
823.734	-0.06
823.905	0.11
824.076	-0.2
824.247	0.04
824.418	-0.07
824.589	1.22
824.759	-0.47
824.93	0.25
825.101	0.22
825.272	0.83
825.443	0.51
825.614	0.63
825.784	-0.31
825.955	1.16
826.126	0.4
826.297	0.11
826.467	0.34
826.638	0.66
826.809	-0.21
826.98	0.34
827.15	0.12
827.321	-0.08
827.492	0.68
827.662	0.15
827.833	1.46
828.003	0.52
828.174	-0.59
828.345	-0.19
828.515	1.05
828.686	-0.02
828.856	-0.44
829.027	0.14
829.197	-0.12
829.368	0.71
829.538	-0.19
829.709	0.17
829.879	0.27
830.049	0.35
830.22	0.1
830.39	0.26
830.56	0.59
830.731	0.18
830.901	-0.52
831.072	0.23
831.242	0.33
831.412	-0.18
831.582	-0.15
831.753	-0.26
831.923	0.54
832.093	-0.14
832.263	-0.08
832.434	-0.29
832.604	-0.73
832.774	0.23
832.944	-0.27
833.114	-0.17
833.284	0.77
833.454	-0.2
833.624	-0.24
833.795	-0.17
833.965	1.1
834.135	0.76
834.305	-0.85
834.475	0.01
834.645	0.21
834.815	-0.56
834.985	0.42
835.155	-0.45
835.325	0.62
835.494	0.16
835.664	0.05
835.834	-0.29
836.004	0.51
836.174	-0.12
836.344	0.11
836.514	-0.25
836.684	0.4
836.853	0.28
837.023	0.3
837.193	-0.18
837.363	0.67
837.532	0.54
837.702	0.15
837.872	0.04
838.041	0.23
838.211	1.57
838.381	-0.93
838.55	0.11
838.72	1.8
838.89	1.1
839.059	0.86
839.229	0.02
839.398	1.15
839.568	0.92
839.738	0.74
839.907	1.01
840.077	0.43
840.246	-0.54
840.416	-0.31
840.585	-0.78
840.755	0.98
840.924	1.19
841.093	-0.91
841.263	0.5
841.432	0.52
841.602	-0.06
841.771	-0.58
841.94	0.44
842.11	2.53
842.279	2.12
842.448	-0.03
842.617	-0.71
842.787	1.61
842.956	-0.95
843.125	-0.03
843.294	0.05
843.464	1.27
843.633	0.93
843.802	-0.69
843.971	0.72
844.14	1.75
844.309	0.43
844.479	-0.58
844.648	-1.05
844.817	-0.77
844.986	0.73
845.155	-0.74
845.324	0.73
845.493	0.53
845.662	-0.77
845.831	0.24
846	0.46
846.169	-0
846.338	0.61
846.507	0.62
846.676	0.65
846.844	-0.01
847.013	0.52
847.182	0.24
847.351	-0.19
847.52	0.48
847.689	0.49
847.858	0.68
848.026	-0.18
848.195	0.81
848.364	0.49
848.533	-0.72
848.701	0.37
848.87	0.19
849.039	0.88
849.207	1.66
849.376	1.19
849.545	1.71
849.713	-0.68
849.882	-0.9
850.051	0.35
850.219	0.16
850.388	0.48
850.556	-1.54
850.725	-0.17
850.893	-0.43
851.062	0.01
851.23	0.86
851.399	-0.38
851.567	-0.55
851.736	-0.4
851.904	-0.43
852.073	0.17
852.241	1
852.41	0.9
852.578	-0.34
852.746	-0.72
852.915	0.21
853.083	0.97
853.251	-0.18
853.42	0.52
853.588	1
853.756	1.23
853.924	0.21
854.093	0.23
854.261	0.02
854.429	-1.14
854.597	0.53
854.765	-0.12
854.934	1.37
855.102	1.53
855.27	0.03
855.438	0.79
855.606	-0.2
855.774	2.77
855.942	-0.11
856.11	-1.57
856.278	-0.07
856.446	1.23
856.614	-0.03
856.782	0.26
856.95	0.83
857.118	0.79
857.286	0.32
857.454	-0.86
857.622	1.47
857.79	1.67
857.958	-0.83
858.126	-0.97
858.294	-2.01
858.462	-0.67
858.629	-0.55
858.797	-0.63
858.965	0.5
859.133	0.59
859.301	0.55
859.468	0.32
859.636	0.25
859.804	0.48
859.971	1.88
860.139	-1.06
860.307	0.45
860.474	0.1
860.642	-1.5
860.81	-0.55
860.977	0.19
861.145	0.58
861.313	-0.12
861.48	0.29
861.648	2.57
861.815	-0.47
861.983	-0.58
862.15	0.35
862.318	0.39
862.485	0.34
862.653	-0.16
862.82	-0.73
862.988	1.03
863.155	2.07
863.322	0.46
863.49	-1.04
863.657	-0.5
863.824	1.63
863.992	1.1
864.159	0.3
864.326	2.26
864.494	-0.78
864.661	2.98
864.828	-0.65
864.996	1.9
865.163	2.77
865.33	-0.69
865.497	-1.08
865.664	0.28
865.832	-1.06
865.999	-1.07
866.166	0.3
866.333	-1.07
866.5	-1.91
866.667	0.89
866.834	0.41
867.001	2.99
867.168	-1.84
867.335	-0.1
867.502	-1.44
867.669	0.51
867.836	1.64
868.003	0.26
868.17	1.23
868.337	0.04
868.504	2.57
868.671	-0.87
868.838	-1.63
869.005	0.38
869.172	1.89
869.339	0.27
869.505	1.41
869.672	0.55
869.839	2.16
870.006	0.76
870.173	-1.57
870.339	0.15
870.506	2.01
870.673	-2.96
870.84	1.51
871.006	-0.31
871.173	2.4
871.34	1.09
871.506	-1.58
871.673	3.31
871.839	-1.33
872.006	0.34
872.173	0.95
872.339	0.44
872.506	1.65
872.672	-0.06
872.839	-0.67
873.005	0.04
873.172	4.06
873.338	2.53
873.505	1.95
873.671	0.19
873.838	0.65
874.004	-1.86
874.171	0.26
874.337	0.08
874.503	0.59
874.67	-0.77
874.836	0.42
875.002	2.1
875.169	0.3
875.335	0.62
875.501	0.53
875.668	1.26
875.834	0.29
876	0.68
876.166	1.53
876.332	1.03
876.499	3.38
876.665	2.02
876.831	0.06
876.997	2.75
877.163	1.66
877.329	-1.02
877.495	1.16
877.662	0.67
877.828	0.71
877.994	0.49
878.16	-1.32
878.326	-0.77
878.492	1.79
878.658	-0.12
878.824	0.9
878.99	1.4
879.156	-0.87
879.322	3.67
879.487	-1.35
879.653	2.1
879.819	-0.7
879.985	0.14
880.151	0.96
880.317	1.06
880.483	-0.07
880.648	2.42
880.814	-2.88
880.98	0.93
881.146	-2.9
881.312	0.35
881.477	1.59
881.643	0.89
881.809	1.03
881.974	3.73
882.14	-1.76
882.306	0.4
882.471	3.36
882.637	-0.65
882.803	0.76
882.968	0.38
883.134	3.23
883.299	-0.01
883.465	1.65
883.63	1.54
883.796	-0.27
883.961	2.23
884.127	2.15
884.292	-3.96
884.458	-2.89
884.623	-2.89
