Data from Apollo_Calib_20240827__AbsoluteIrradiance__662__10-11-00-852.txt Node

Date: Wed Aug 28 10:11:00 BST 2024
User: biology
Spectrometer: FLMT08252
Trigger mode: 0
Integration Time (sec): 5.000000E-1
Scans to average: 5
Electric dark correction enabled: true
Nonlinearity correction enabled: false
Boxcar width: 0
XAxis mode: Wavelengths
Number of Pixels in Spectrum: 3648
>>>>>Begin Spectral Data<<<<<
179.588	-0
179.809	-0
180.03	-0
180.251	-0
180.473	-0
180.694	0
180.915	0
181.136	-0
181.357	0
181.578	0
181.799	-0
182.02	-0
182.241	-0
182.462	-0
182.683	0
182.904	-0
183.125	-0
183.346	-0
183.567	0
183.788	0
184.009	-0
184.23	0
184.451	0
184.672	0
184.892	-0
185.113	0
185.334	0
185.555	0
185.776	-0
185.996	0
186.217	0
186.438	0
186.659	-0
186.879	0
187.1	0
187.321	0
187.541	-0
187.762	0
187.983	0
188.203	0
188.424	-0
188.644	-0
188.865	0
189.086	-0
189.306	0
189.527	0
189.747	0
189.968	-0
190.188	0
190.409	0
190.629	0
190.849	0
191.07	-0
191.29	0
191.511	0
191.731	0
191.951	-0
192.172	0
192.392	0
192.612	0
192.833	0
193.053	0
193.273	0
193.493	-0
193.714	-0
193.934	0
194.154	0
194.374	0
194.594	0
194.815	0
195.035	0
195.255	0
195.475	-0
195.695	0
195.915	0
196.135	-0
196.355	0
196.575	0
196.795	0
197.015	-0
197.235	-0
197.455	0
197.675	0
197.895	-0
198.115	0
198.335	0
198.555	0
198.775	0
198.995	0
199.214	0
199.434	-0
199.654	-0
199.874	-0
200.094	1.35
200.313	-0.47
200.533	-0.01
200.753	-0.57
200.973	0.75
201.192	1.31
201.412	-0.7
201.632	0.29
201.851	1.11
202.071	0.19
202.291	0.13
202.51	-0.53
202.73	0.56
202.95	0.26
203.169	-0.3
203.389	0.07
203.608	0.22
203.828	-0.75
204.047	0.19
204.267	0.56
204.486	0.15
204.706	0.36
204.925	0.04
205.145	-0.2
205.364	0.36
205.583	0.78
205.803	-0.09
206.022	-0.21
206.242	0.02
206.461	0.27
206.68	-0.23
206.9	0.33
207.119	0.62
207.338	0.3
207.557	0.06
207.777	0.12
207.996	0.11
208.215	0.65
208.434	0.32
208.654	-0.07
208.873	0.34
209.092	0.62
209.311	0.13
209.53	0.2
209.749	-0.03
209.968	0.01
210.187	0
210.407	-0.58
210.626	0.09
210.845	0.34
211.064	-0.31
211.283	-0.26
211.502	0.34
211.721	0.09
211.94	0.04
212.159	0.42
212.377	0.48
212.596	0.26
212.815	0.27
213.034	0.09
213.253	0.41
213.472	0.11
213.691	-0.17
213.91	-0.02
214.128	0.27
214.347	0.66
214.566	-0.35
214.785	-0.14
215.003	0.27
215.222	0.15
215.441	0.23
215.66	-0.26
215.878	0.11
216.097	0.28
216.316	-0.02
216.534	0.02
216.753	0.13
216.972	-0.06
217.19	0.12
217.409	-0.1
217.627	0.1
217.846	-0.01
218.064	0.06
218.283	-0.01
218.501	0.44
218.72	0.23
218.938	-0.02
219.157	0.05
219.375	0.16
219.594	0.17
219.812	-0.15
220.031	-0.04
220.249	0.33
220.467	0.37
220.686	-0.04
220.904	-0.17
221.122	-0.06
221.341	0.37
221.559	0.12
221.777	-0.13
221.995	0.16
222.214	0.29
222.432	0.01
222.65	0.25
222.868	0.15
223.086	-0.03
223.305	0.06
223.523	-0.03
223.741	0.42
223.959	0.02
224.177	-0.15
224.395	-0.03
224.613	0.1
224.831	0.23
225.049	-0.01
225.267	0.03
225.485	0.15
225.703	-0.01
225.921	0.01
226.139	-0.09
226.357	0.19
226.575	0.08
226.793	-0.04
227.011	0.55
227.229	0.16
227.447	0.25
227.665	0
227.883	-0.2
228.1	0.21
228.318	0.16
228.536	-0.25
228.754	-0.15
228.972	0.18
229.189	0.19
229.407	0.02
229.625	-0.04
229.843	0.17
230.06	0.13
230.278	0.07
230.496	0.1
230.713	0.08
230.931	0.16
231.149	0.14
231.366	-0.08
231.584	0.04
231.801	0.4
232.019	0.06
232.236	-0.04
232.454	-0.12
232.671	0.16
232.889	0.07
233.106	-0.1
233.324	0.03
233.541	0.04
233.759	0.07
233.976	-0.03
234.194	0.11
234.411	0.03
234.628	-0.12
234.846	0.05
235.063	0.04
235.28	-0.02
235.498	-0.04
235.715	-0.06
235.932	0.16
236.149	0
236.367	-0.04
236.584	0.12
236.801	-0.06
237.018	0.14
237.236	0.02
237.453	-0.12
237.67	0.22
237.887	-0.01
238.104	-0.01
238.321	-0.04
238.538	0.03
238.755	0.14
238.973	-0.12
239.19	0.07
239.407	0.11
239.624	0.07
239.841	-0.16
240.058	-0.14
240.275	0.09
240.492	-0.01
240.709	0.09
240.925	0.05
241.142	0.09
241.359	-0.06
241.576	-0.03
241.793	0.08
242.01	0.15
242.227	0.13
242.444	0.11
242.66	0.16
242.877	0.07
243.094	0
243.311	0.09
243.527	0.06
243.744	0.08
243.961	0.09
244.178	0.02
244.394	-0.02
244.611	0.13
244.828	0.15
245.044	-0.02
245.261	0
245.477	0.04
245.694	0.04
245.911	-0.11
246.127	0.01
246.344	0.13
246.56	0.08
246.777	0.03
246.993	0.06
247.21	0.06
247.426	0.1
247.643	-0.13
247.859	-0.01
248.076	0.02
248.292	0.2
248.508	-0.01
248.725	0.15
248.941	0.08
249.157	0.17
249.374	-0
249.59	0.02
249.806	-0.01
250.023	0.09
250.239	0.03
250.455	-0.07
250.671	0.05
250.888	0.15
251.104	0.16
251.32	-0.04
251.536	0.05
251.752	0.05
251.969	0.09
252.185	0.06
252.401	0.11
252.617	0.1
252.833	0.02
253.049	0.07
253.265	0.09
253.481	0.02
253.697	0.03
253.913	0.01
254.129	0.05
254.345	-0
254.561	0.01
254.777	-0.02
254.993	0.13
255.209	-0.01
255.425	0.07
255.641	-0.15
255.857	0.08
256.073	0.05
256.288	-0.09
256.504	0.04
256.72	0.02
256.936	0.2
257.152	0.01
257.367	0.01
257.583	0.02
257.799	0.06
258.015	-0.05
258.23	0.04
258.446	0.17
258.662	0.01
258.877	0.03
259.093	-0.02
259.309	0.13
259.524	0.05
259.74	-0.02
259.955	-0.15
260.171	0.05
260.387	0.06
260.602	0.13
260.818	0.05
261.033	-0.02
261.249	-0.05
261.464	0.02
261.68	0.02
261.895	0.13
262.11	0.07
262.326	0.03
262.541	-0.03
262.757	0.11
262.972	0.06
263.187	0.12
263.403	0.04
263.618	0.07
263.833	0.02
264.049	-0.01
264.264	0.03
264.479	0.09
264.694	0.13
264.91	-0.13
265.125	0.05
265.34	0.06
265.555	0.13
265.77	0.08
265.986	-0.02
266.201	0.09
266.416	0.1
266.631	-0.03
266.846	0.05
267.061	0.11
267.276	0.07
267.491	-0.09
267.706	0.05
267.921	0.13
268.136	0.09
268.351	-0.02
268.566	-0.07
268.781	0.16
268.996	0.05
269.211	0.06
269.426	-0.02
269.641	0.04
269.856	0.02
270.071	0.01
270.285	-0.03
270.5	0.06
270.715	0.06
270.93	0.04
271.145	0.04
271.359	0.09
271.574	0.02
271.789	0.08
272.004	-0.01
272.218	0.01
272.433	0.09
272.648	-0.08
272.862	0.09
273.077	0.03
273.292	0.06
273.506	0.01
273.721	-0
273.936	0.02
274.15	0.07
274.365	-0.01
274.579	0.05
274.794	0.04
275.008	0.11
275.223	-0.06
275.437	-0.02
275.652	0.04
275.866	0.08
276.081	0.01
276.295	0.09
276.509	0.04
276.724	0.05
276.938	0.07
277.153	0.1
277.367	0.04
277.581	-0.01
277.796	0.01
278.01	-0.04
278.224	0.13
278.438	0.17
278.653	-0.01
278.867	0.03
279.081	-0.15
279.295	-0.02
279.51	0.03
279.724	-0.02
279.938	0.07
280.152	0.07
280.366	0
280.58	0.1
280.794	0.06
281.008	0.1
281.222	0.09
281.437	0.12
281.651	0.04
281.865	0.05
282.079	0.02
282.293	-0.1
282.507	-0.03
282.721	0.04
282.935	0.03
283.148	0
283.362	-0.01
283.576	-0.02
283.79	0.05
284.004	0.01
284.218	0.1
284.432	0.04
284.646	0.01
284.859	0.07
285.073	-0.01
285.287	0
285.501	0.03
285.714	-0.02
285.928	0.04
286.142	0.1
286.356	0.02
286.569	0
286.783	0.12
286.997	0.05
287.21	0.05
287.424	0.04
287.637	-0.01
287.851	0.03
288.065	0.01
288.278	0.04
288.492	-0
288.705	0.03
288.919	0.07
289.132	-0.04
289.346	0.06
289.559	-0.01
289.773	-0.01
289.986	0.03
290.2	0.02
290.413	0.08
290.626	0.01
290.84	-0.02
291.053	0.03
291.267	0.08
291.48	0.03
291.693	0.03
291.906	-0.01
292.12	0.03
292.333	0
292.546	0.03
292.76	0.11
292.973	0.03
293.186	0.05
293.399	0.02
293.612	0.02
293.826	0.06
294.039	0.04
294.252	0.02
294.465	0.08
294.678	0.03
294.891	0.01
295.104	-0.01
295.317	0.03
295.53	0.02
295.743	0.03
295.956	-0
296.169	0.11
296.382	0.08
296.595	0.02
296.808	-0.03
297.021	0.06
297.234	0.06
297.447	0.01
297.66	0.02
297.873	0.08
298.086	0.06
298.299	-0.01
298.511	-0.01
298.724	0.02
298.937	-0.02
299.15	-0.01
299.363	0.02
299.575	0.07
299.788	0.05
300.001	0
300.213	-0.03
300.426	0.03
300.639	0.03
300.852	0
301.064	0.06
301.277	0.09
301.489	0.08
301.702	0.11
301.915	-0.02
302.127	0.07
302.34	0.04
302.552	0.01
302.765	-0.02
302.977	0.04
303.19	-0.01
303.402	0
303.615	-0.02
303.827	0.01
304.04	0.05
304.252	0.1
304.464	0.04
304.677	0.12
304.889	0.1
305.102	0.05
305.314	0.04
305.526	0.08
305.739	0.04
305.951	-0.03
306.163	0.03
306.375	0.12
306.588	-0.01
306.8	-0.02
307.012	-0.06
307.224	0.07
307.436	0.12
307.649	-0.03
307.861	0.08
308.073	0.01
308.285	-0.02
308.497	-0
308.709	0.02
308.921	0.05
309.133	0.1
309.346	0
309.558	0.03
309.77	0.04
309.982	0.05
310.194	0.06
310.406	-0.02
310.617	0.07
310.829	0.02
311.041	0.05
311.253	0
311.465	0.01
311.677	0.03
311.889	0.03
312.101	0
312.313	0.05
312.524	0.07
312.736	-0.03
312.948	0.02
313.16	0.06
313.372	0.06
313.583	0.09
313.795	0.02
314.007	-0.03
314.218	0.06
314.43	-0
314.642	-0
314.853	-0.03
315.065	0.05
315.277	0.04
315.488	0.07
315.7	0.09
315.912	0.02
316.123	0.01
316.335	0
316.546	0.11
316.758	0.02
316.969	-0
317.181	0.07
317.392	0.03
317.604	0.08
317.815	-0.01
318.026	0
318.238	0.01
318.449	0.02
318.661	-0.02
318.872	-0.03
319.083	-0.04
319.295	0.06
319.506	0
319.717	0.04
319.929	0.06
320.14	0.03
320.351	0.04
320.562	-0.01
320.774	-0.01
320.985	0.02
321.196	0.02
321.407	-0.02
321.618	0.06
321.829	0.04
322.041	0.08
322.252	0.01
322.463	0.05
322.674	0.05
322.885	0.02
323.096	0.01
323.307	-0
323.518	0.03
323.729	0.02
323.94	-0.05
324.151	0.01
324.362	0.05
324.573	0.04
324.784	0.04
324.995	0.08
325.206	0
325.417	0.01
325.628	0.04
325.838	0.02
326.049	0.02
326.26	0.08
326.471	-0.05
326.682	0.08
326.892	0.02
327.103	-0.07
327.314	-0.03
327.525	0.07
327.735	0.02
327.946	0.04
328.157	0.04
328.368	0.04
328.578	-0
328.789	0.08
328.999	0.04
329.21	0
329.421	0.1
329.631	-0.05
329.842	0.05
330.052	0.06
330.263	0.04
330.473	0.05
330.684	-0.01
330.894	0.03
331.105	0.06
331.315	-0.01
331.526	-0.06
331.736	0.07
331.947	0.08
332.157	0
332.367	-0
332.578	0.05
332.788	0.07
332.999	0.02
333.209	0.02
333.419	-0.02
333.629	0.03
333.84	0.04
334.05	0.01
334.26	0.06
334.47	0.01
334.681	0.07
334.891	0
335.101	0.09
335.311	0.09
335.521	0.04
335.732	-0
335.942	0.09
336.152	0
336.362	0.06
336.572	0.03
336.782	0.04
336.992	-0.05
337.202	0.02
337.412	0.05
337.622	0.05
337.832	0.08
338.042	0.01
338.252	0.01
338.462	0.02
338.672	0.01
338.882	-0.05
339.092	0.05
339.302	0.1
339.511	0.02
339.721	-0
339.931	0.01
340.141	0.07
340.351	0.07
340.561	0.06
340.77	0.02
340.98	0.04
341.19	0.05
341.4	0.03
341.609	-0.05
341.819	0.03
342.029	0.01
342.238	0.02
342.448	0.02
342.658	0.02
342.867	0.02
343.077	0.06
343.286	0.07
343.496	0.06
343.706	0.11
343.915	-0.03
344.125	0.06
344.334	0.09
344.544	-0.02
344.753	-0
344.963	0.01
345.172	-0.04
345.381	-0
345.591	-0.01
345.8	0.01
346.01	0.05
346.219	0.1
346.428	-0.14
346.638	0
346.847	-0
347.056	0.11
347.266	-0.02
347.475	-0.01
347.684	0.04
347.893	0.04
348.103	0.06
348.312	0
348.521	0.01
348.73	0.03
348.94	0.03
349.149	0.02
349.358	0.01
349.567	-0
349.776	-0.06
349.985	0.01
350.194	0.06
350.403	0.05
350.612	-0.05
350.821	-0
351.03	0.03
351.239	-0.05
351.448	0
351.657	-0.03
351.866	0.08
352.075	0.03
352.284	0.06
352.493	-0.02
352.702	0.03
352.911	0.04
353.12	0.02
353.329	-0.01
353.538	0.04
353.746	0.01
353.955	0.01
354.164	0.07
354.373	0.03
354.582	0.01
354.79	0.01
354.999	0.04
355.208	0
355.416	0.08
355.625	-0.01
355.834	0
356.042	0
356.251	0
356.46	-0.05
356.668	-0.01
356.877	0.06
357.085	0.07
357.294	-0.05
357.503	0.04
357.711	-0
357.92	0.17
358.128	0.06
358.337	0.01
358.545	0.06
358.754	0.01
358.962	0.01
359.17	0.02
359.379	0.04
359.587	0.06
359.796	-0
360.004	0.02
360.212	0
360.421	0.07
360.629	0.01
360.837	0.01
361.046	0.05
361.254	0.13
361.462	0.04
361.67	0.04
361.879	0.05
362.087	0.11
362.295	0.05
362.503	-0.01
362.711	-0.04
362.92	-0.02
363.128	0.01
363.336	-0.01
363.544	-0.05
363.752	0.01
363.96	-0
364.168	-0.02
364.376	0.03
364.584	0.02
364.792	0.05
365	0.04
365.208	0.04
365.416	0.05
365.624	0.04
365.832	0.04
366.04	0.1
366.248	0.01
366.456	0.03
366.664	0.04
366.872	0.02
367.079	0.01
367.287	-0
367.495	0.06
367.703	0.01
367.911	0.02
368.118	-0
368.326	-0.01
368.534	-0.02
368.742	0.07
368.949	-0.04
369.157	-0.03
369.365	0.1
369.572	-0.02
369.78	-0.02
369.988	0.02
370.195	0.05
370.403	0.05
370.61	-0.02
370.818	0.02
371.026	0.08
371.233	0.02
371.441	0.01
371.648	0.02
371.856	0.03
372.063	0.03
372.271	0.01
372.478	0.01
372.685	-0
372.893	0.05
373.1	-0.02
373.308	-0.02
373.515	0.09
373.722	0.06
373.93	0
374.137	0.03
374.344	0.05
374.552	0.05
374.759	0.03
374.966	0.03
375.173	0.02
375.381	0.06
375.588	0.02
375.795	-0.04
376.002	-0.01
376.209	-0.03
376.417	-0.02
376.624	0.04
376.831	0.02
377.038	0.01
377.245	-0.05
377.452	0.01
377.659	0
377.866	0
378.073	0.01
378.28	0.01
378.487	0.07
378.694	0.06
378.901	0.02
379.108	0
379.315	0.06
379.522	0.08
379.729	0.04
379.936	-0.01
380.143	0.01
380.35	0.06
380.557	-0
380.763	0.02
380.97	0.01
381.177	0.03
381.384	0.02
381.591	-0.03
381.797	0.01
382.004	0.05
382.211	0.03
382.418	-0.02
382.624	0.04
382.831	0.04
383.038	0.02
383.244	0.01
383.451	0.02
383.658	0.07
383.864	0.03
384.071	-0
384.277	0.1
384.484	0.02
384.69	0.05
384.897	-0.03
385.103	0.02
385.31	-0.03
385.516	0.03
385.723	-0.01
385.929	0.04
386.136	0.01
386.342	0.02
386.549	0.01
386.755	0.05
386.961	0.05
387.168	0.01
387.374	0.04
387.58	0.04
387.787	-0
387.993	0.06
388.199	0.04
388.406	0.02
388.612	-0.01
388.818	-0
389.024	0.02
389.231	0.03
389.437	0.11
389.643	0.07
389.849	0.04
390.055	0.04
390.261	0.01
390.467	0.05
390.674	0.01
390.88	0.02
391.086	0.09
391.292	-0.04
391.498	0.07
391.704	0.03
391.91	-0
392.116	-0.02
392.322	-0.05
392.528	0.05
392.734	0.01
392.94	0.04
393.146	-0.01
393.352	0.04
393.557	-0.02
393.763	0.01
393.969	0.04
394.175	0
394.381	0.01
394.587	-0.01
394.792	0.03
394.998	0.03
395.204	0.11
395.41	-0.01
395.615	0.08
395.821	0.03
396.027	0.05
396.233	-0.01
396.438	-0.02
396.644	0.09
396.85	0.07
397.055	-0.03
397.261	0.05
397.466	0.13
397.672	0.03
397.878	0.07
398.083	0.03
398.289	-0.03
398.494	0.01
398.7	0.03
398.905	-0.05
399.111	0.04
399.316	-0.04
399.522	0
399.727	0.02
399.932	-0.03
400.138	-0.01
400.343	0.05
400.549	0.03
400.754	0.02
400.959	0
401.165	0.04
401.37	0.03
401.575	0.02
401.78	0.02
401.986	-0.01
402.191	0.02
402.396	0.05
402.601	0.07
402.807	0.01
403.012	0.01
403.217	0.04
403.422	-0.02
403.627	0.03
403.832	0.02
404.037	0.06
404.243	0.02
404.448	-0.01
404.653	-0
404.858	0.01
405.063	0.08
405.268	-0
405.473	-0.03
405.678	0.04
405.883	0.1
406.088	0
406.293	-0.02
406.498	-0.03
406.703	0.05
406.907	0.03
407.112	0.01
407.317	0.06
407.522	0.07
407.727	-0.01
407.932	0.06
408.136	0.11
408.341	0.04
408.546	0.01
408.751	0.04
408.956	-0
409.16	0.11
409.365	0.01
409.57	0.05
409.774	0.02
409.979	0.05
410.184	0.01
410.388	0.01
410.593	0.03
410.798	0.06
411.002	-0.02
411.207	0.06
411.411	0.04
411.616	0.01
411.82	0.02
412.025	0.01
412.229	-0.04
412.434	0.08
412.638	0.08
412.843	0.01
413.047	0.01
413.252	-0.03
413.456	-0
413.66	0.04
413.865	-0.02
414.069	0.07
414.273	0.01
414.478	-0.02
414.682	0.01
414.886	0.01
415.091	-0.01
415.295	-0.04
415.499	0.06
415.703	-0.02
415.908	0.04
416.112	-0.06
416.316	0.02
416.52	-0.04
416.724	-0.01
416.929	-0.03
417.133	0.12
417.337	-0.03
417.541	0
417.745	-0.01
417.949	0.05
418.153	0.07
418.357	-0.03
418.561	0.07
418.765	-0.02
418.969	0.13
419.173	0.04
419.377	-0.01
419.581	0.1
419.785	0
419.989	-0.02
420.193	-0
420.397	0.04
420.601	0.05
420.804	0.09
421.008	-0
421.212	0.04
421.416	0.05
421.62	-0.02
421.823	0.01
422.027	0.12
422.231	0.04
422.435	-0
422.638	0.02
422.842	0.01
423.046	-0.03
423.249	0.04
423.453	0.06
423.657	-0.01
423.86	-0.04
424.064	-0
424.268	0.09
424.471	0.07
424.675	0.09
424.878	0.07
425.082	0.02
425.285	0.04
425.489	0.03
425.692	0.03
425.896	0.02
426.099	0.03
426.303	-0.03
426.506	-0.07
426.71	0.01
426.913	0.05
427.116	0.07
427.32	0.04
427.523	0.03
427.726	0.07
427.93	-0.04
428.133	0.01
428.336	-0.03
428.54	-0.03
428.743	-0
428.946	0.05
429.149	-0.03
429.353	0.04
429.556	-0.01
429.759	-0.01
429.962	-0
430.165	0.01
430.368	0.01
430.571	-0.01
430.775	0.04
430.978	-0.02
431.181	0.03
431.384	0.07
431.587	-0.01
431.79	0
431.993	0.01
432.196	-0
432.399	0.01
432.602	0.11
432.805	0.02
433.008	0.03
433.211	-0.03
433.414	-0
433.616	0.05
433.819	0.05
434.022	-0.08
434.225	0.04
434.428	0.04
434.631	0.11
434.833	0.04
435.036	0.05
435.239	0.07
435.442	-0.02
435.645	-0.03
435.847	0.02
436.05	0.05
436.253	0.01
436.455	-0.05
436.658	-0.03
436.861	0.1
437.063	-0.03
437.266	-0.01
437.468	-0.02
437.671	0.13
437.874	0.02
438.076	-0.04
438.279	-0.08
438.481	0.03
438.684	0.01
438.886	0.06
439.089	-0.05
439.291	-0.02
439.494	0.06
439.696	0
439.899	0
440.101	0.06
440.303	-0.08
440.506	0.04
440.708	-0.02
440.91	0.04
441.113	-0.03
441.315	0.03
441.517	-0.05
441.72	0.06
441.922	-0.04
442.124	0
442.326	0.07
442.529	0.06
442.731	-0.06
442.933	0.11
443.135	0
443.337	-0.03
443.539	0.01
443.742	0.02
443.944	0.02
444.146	-0.02
444.348	0.01
444.55	-0.02
444.752	-0.03
444.954	-0.01
445.156	0.04
445.358	0.01
445.56	0.04
445.762	0.01
445.964	0.06
446.166	-0.02
446.368	0.01
446.57	0.08
446.772	0.02
446.974	0
447.175	0.02
447.377	-0.01
447.579	-0.05
447.781	-0.08
447.983	0.05
448.184	-0.01
448.386	0.02
448.588	-0.05
448.79	0
448.991	-0.02
449.193	0.03
449.395	0
449.597	0.03
449.798	0.06
450	0.06
450.202	0.03
450.403	0.01
450.605	0.05
450.806	0.03
451.008	-0.03
451.21	0.02
451.411	0.05
451.613	-0.04
451.814	-0.01
452.016	0.04
452.217	0.04
452.419	0.05
452.62	0.03
452.821	0.04
453.023	0.09
453.224	0.06
453.426	0.02
453.627	0.01
453.828	0.04
454.03	0.02
454.231	0.07
454.432	-0.02
454.634	0.12
454.835	0.01
455.036	-0.06
455.238	0.06
455.439	0.06
455.64	-0.05
455.841	-0
456.042	0.14
456.244	0.1
456.445	-0.03
456.646	-0.08
456.847	0.01
457.048	0.02
457.249	0.06
457.45	0.17
457.651	-0.08
457.852	0.04
458.054	0.06
458.255	0.01
458.456	0.05
458.657	0.02
458.858	-0.02
459.058	0.06
459.259	0.04
459.46	-0
459.661	-0.03
459.862	0.1
460.063	-0.01
460.264	0.02
460.465	0
460.666	0.12
460.866	-0.02
461.067	-0.01
461.268	0.03
461.469	0.01
461.67	-0.03
461.87	0.01
462.071	-0.05
462.272	-0.03
462.473	0.03
462.673	0.08
462.874	-0.03
463.075	0.04
463.275	-0.04
463.476	0.03
463.676	0.01
463.877	-0.03
464.078	-0.01
464.278	0.07
464.479	-0.01
464.679	0
464.88	-0.02
465.08	0.1
465.281	-0.03
465.481	-0.04
465.682	-0.06
465.882	0.1
466.083	0.03
466.283	0.02
466.483	0.01
466.684	-0.02
466.884	-0.03
467.085	0.01
467.285	0.02
467.485	-0.05
467.686	0.01
467.886	-0.03
468.086	-0.01
468.286	0.02
468.487	0.04
468.687	-0.03
468.887	0.01
469.087	0.08
469.287	0.02
469.488	-0.07
469.688	-0
469.888	0.07
470.088	0.02
470.288	0.07
470.488	0.02
470.688	-0.01
470.888	0.02
471.088	-0.03
471.288	0.05
471.488	0.03
471.688	0.03
471.888	-0.01
472.088	0.07
472.288	0.02
472.488	-0.02
472.688	-0.02
472.888	0.02
473.088	0.03
473.288	0
473.488	0.01
473.688	0.11
473.887	0.01
474.087	-0.01
474.287	0.01
474.487	-0.01
474.687	0.02
474.886	-0.03
475.086	0.02
475.286	0.02
475.486	0.03
475.685	0.01
475.885	-0.01
476.085	-0.01
476.284	0.03
476.484	0.04
476.684	0.04
476.883	0.04
477.083	0.02
477.282	-0.01
477.482	0.04
477.681	0.07
477.881	0.05
478.08	-0.04
478.28	-0.04
478.479	0.02
478.679	0.08
478.878	-0.02
479.078	-0
479.277	0.01
479.477	0.01
479.676	0.07
479.875	0.01
480.075	-0.04
480.274	0.06
480.473	0.03
480.673	-0
480.872	0.06
481.071	0.02
481.271	0.03
481.47	-0.01
481.669	-0.01
481.868	-0.02
482.067	-0.05
482.267	-0.02
482.466	-0.02
482.665	-0.02
482.864	-0.02
483.063	-0.02
483.262	0.03
483.461	0.08
483.661	0.02
483.86	0
484.059	-0
484.258	0.03
484.457	-0
484.656	0.01
484.855	0.05
485.054	-0.05
485.253	-0.01
485.452	-0.02
485.651	-0.01
485.849	0.04
486.048	-0.03
486.247	-0.03
486.446	0.01
486.645	-0.02
486.844	-0.02
487.043	-0.01
487.241	0.03
487.44	-0.01
487.639	-0
487.838	0.04
488.037	-0.02
488.235	0.04
488.434	0.02
488.633	-0.03
488.831	-0
489.03	0.03
489.229	0.01
489.427	-0.01
489.626	0.05
489.825	0.06
490.023	0.03
490.222	0.02
490.42	0.04
490.619	0.03
490.817	0.02
491.016	-0
491.214	0.03
491.413	-0.01
491.611	-0
491.81	0
492.008	0.04
492.207	0.02
492.405	0.03
492.604	-0.03
492.802	0.01
493	0.02
493.199	-0
493.397	0
493.595	0.01
493.794	0.01
493.992	0.05
494.19	0.01
494.388	0.03
494.587	-0.01
494.785	-0
494.983	-0.03
495.181	0.01
495.379	0.01
495.578	-0.01
495.776	0.03
495.974	0.02
496.172	-0
496.37	-0.02
496.568	-0.01
496.766	-0.02
496.964	0.04
497.162	-0
497.36	-0.01
497.558	0.03
497.756	0.02
497.954	0.02
498.152	-0.01
498.35	-0.01
498.548	0
498.746	0.02
498.944	-0.02
499.142	-0
499.34	-0.03
499.538	0
499.736	-0.01
499.933	0.02
500.131	0.05
500.329	0.02
500.527	0.04
500.725	0.05
500.922	0
501.12	0
501.318	0.01
501.516	-0.02
501.713	0.01
501.911	-0
502.109	-0.02
502.306	0.02
502.504	-0
502.701	0.01
502.899	0.02
503.097	0.03
503.294	0.02
503.492	0
503.689	0
503.887	0
504.084	0.05
504.282	0.01
504.479	-0.01
504.677	0.01
504.874	-0
505.072	0.01
505.269	-0
505.466	0.03
505.664	0.01
505.861	-0.05
506.059	-0.02
506.256	0.04
506.453	-0.01
506.651	0.04
506.848	0.04
507.045	0.01
507.242	-0.01
507.44	0.01
507.637	-0.01
507.834	0.01
508.031	0.01
508.229	-0.02
508.426	0.01
508.623	0.02
508.82	-0.02
509.017	-0.01
509.214	-0.01
509.411	0.01
509.608	-0.01
509.805	0.01
510.003	0.01
510.2	-0.02
510.397	0.01
510.594	-0.02
510.791	-0.02
510.988	0.01
511.184	0.02
511.381	0.01
511.578	-0.01
511.775	0.02
511.972	0
512.169	-0.01
512.366	-0.01
512.563	-0
512.76	-0.01
512.956	0.01
513.153	0.01
513.35	0.02
513.547	0.01
513.744	-0.02
513.94	-0.02
514.137	0.02
514.334	0.01
514.53	0.02
514.727	0.01
514.924	0.04
515.12	0.01
515.317	-0.01
515.514	0
515.71	-0.03
515.907	-0.01
516.103	0
516.3	0.01
516.497	0.02
516.693	0.02
516.89	0
517.086	-0.02
517.283	-0
517.479	-0
517.676	0.01
517.872	-0.01
518.068	-0.01
518.265	-0
518.461	-0.02
518.658	-0.03
518.854	0.02
519.05	0
519.247	-0
519.443	0.02
519.639	0.02
519.836	0.01
520.032	-0.01
520.228	0.02
520.424	0.05
520.621	0.02
520.817	0.01
521.013	0.01
521.209	0.01
521.405	0.03
521.601	-0.01
521.798	0.01
521.994	0.04
522.19	-0.01
522.386	-0.02
522.582	0
522.778	-0.02
522.974	-0.01
523.17	0.01
523.366	-0
523.562	0.05
523.758	-0
523.954	-0.02
524.15	-0.01
524.346	0.02
524.542	-0
524.738	-0
524.934	-0
525.129	-0.06
525.325	0.01
525.521	0.01
525.717	0.02
525.913	-0
526.109	-0
526.304	0.01
526.5	0.01
526.696	0.02
526.892	-0.02
527.087	0
527.283	-0.02
527.479	0.02
527.674	-0.02
527.87	-0.01
528.066	-0.01
528.261	0.02
528.457	0.01
528.653	0
528.848	-0
529.044	0.01
529.239	-0.01
529.435	0.02
529.63	0.03
529.826	0.05
530.021	0.01
530.217	0.04
530.412	0
530.608	-0.01
530.803	-0
530.999	0
531.194	-0.04
531.389	0.01
531.585	-0.02
531.78	-0.01
531.975	0.02
532.171	0.03
532.366	-0
532.561	-0
532.757	-0.02
532.952	0
533.147	0.02
533.342	0
533.538	-0.01
533.733	0.04
533.928	0
534.123	-0.01
534.318	-0.03
534.513	-0.01
534.709	-0.02
534.904	0
535.099	-0.01
535.294	0.01
535.489	0.02
535.684	-0.01
535.879	-0.04
536.074	0.03
536.269	-0.02
536.464	0.03
536.659	-0.01
536.854	-0.01
537.049	-0.01
537.244	0.04
537.439	0.02
537.634	0.04
537.828	-0.01
538.023	0.01
538.218	-0.01
538.413	-0.01
538.608	-0.01
538.803	0.06
538.997	-0.02
539.192	0.03
539.387	0.01
539.582	0.01
539.776	-0
539.971	-0.01
540.166	0.01
540.36	-0.01
540.555	-0
540.75	-0.01
540.944	0
541.139	-0.04
541.334	-0
541.528	0.01
541.723	0.04
541.917	-0.01
542.112	-0.03
542.306	0.01
542.501	-0.02
542.695	0.02
542.89	-0.01
543.084	0.01
543.279	0.01
543.473	-0.01
543.668	0
543.862	0.02
544.056	0.04
544.251	0.02
544.445	0.02
544.64	0.01
544.834	-0.02
545.028	-0.01
545.222	0.01
545.417	0.02
545.611	0
545.805	0.01
546	-0.02
546.194	-0
546.388	-0
546.582	0.03
546.776	0
546.97	-0
547.165	0.01
547.359	0.02
547.553	-0.01
547.747	-0
547.941	0.01
548.135	-0.01
548.329	0.02
548.523	0.01
548.717	0.02
548.911	-0.03
549.105	0.01
549.299	0.01
549.493	0.04
549.687	0.03
549.881	0.02
550.075	0.01
550.269	-0.02
550.463	0.03
550.657	-0
550.85	0.01
551.044	-0
551.238	-0
551.432	-0.03
551.626	-0.01
551.82	0.01
552.013	-0.03
552.207	-0
552.401	0.02
552.594	0.01
552.788	0.01
552.982	0.02
553.176	-0.02
553.369	0.02
553.563	-0
553.756	-0.04
553.95	-0.02
554.144	-0
554.337	0
554.531	0.01
554.724	0.01
554.918	0.01
555.111	0.03
555.305	0.01
555.498	0.03
555.692	0.02
555.885	-0.01
556.079	0.01
556.272	-0
556.466	0.03
556.659	0.01
556.852	-0.01
557.046	-0
557.239	0.02
557.432	-0.02
557.626	0
557.819	0
558.012	0.03
558.206	0.02
558.399	0.01
558.592	0.01
558.785	-0.01
558.979	0.03
559.172	0.01
559.365	0.02
559.558	0.02
559.751	0.02
559.944	-0.01
560.138	-0.03
560.331	0.01
560.524	-0.01
560.717	0
560.91	0
561.103	0.03
561.296	-0
561.489	0.02
561.682	-0
561.875	0.03
562.068	0.02
562.261	0
562.454	0.05
562.647	0.03
562.84	0.02
563.032	-0.02
563.225	0.01
563.418	-0
563.611	-0.01
563.804	-0.01
563.997	0.01
564.19	-0.03
564.382	-0.07
564.575	-0
564.768	0
564.961	0
565.153	-0.01
565.346	0.02
565.539	0.04
565.731	0.01
565.924	0.04
566.117	0.03
566.309	0.01
566.502	-0.01
566.695	0.01
566.887	0.02
567.08	-0.02
567.272	0
567.465	0.01
567.657	-0.01
567.85	0.02
568.042	0.03
568.235	0.02
568.427	0.01
568.62	0.02
568.812	-0
569.005	0
569.197	-0.02
569.389	0.02
569.582	0.02
569.774	0.03
569.966	-0.04
570.159	-0.01
570.351	-0
570.543	-0.03
570.736	0.02
570.928	-0.02
571.12	0.02
571.312	-0.01
571.505	-0.01
571.697	0.05
571.889	-0.01
572.081	-0.01
572.273	-0.01
572.465	0.03
572.658	0.01
572.85	0.01
573.042	-0.01
573.234	0.01
573.426	0.05
573.618	-0.03
573.81	0.03
574.002	0.03
574.194	0.03
574.386	-0.04
574.578	-0.08
574.77	-0.03
574.962	-0.01
575.154	-0.03
575.346	0.01
575.538	0.01
575.729	-0.01
575.921	0.02
576.113	-0.01
576.305	0.03
576.497	0.01
576.689	0.01
576.88	-0.02
577.072	0.03
577.264	-0.01
577.456	-0.01
577.647	-0.08
577.839	-0
578.031	0.04
578.223	-0.03
578.414	-0.04
578.606	0.01
578.798	0.01
578.989	-0.04
579.181	0.01
579.372	-0.01
579.564	-0.02
579.755	-0
579.947	0
580.139	0.02
580.33	-0.05
580.522	-0.03
580.713	-0.07
580.905	0.03
581.096	0.03
581.287	0
581.479	-0.01
581.67	0.02
581.862	-0.01
582.053	-0
582.244	-0.04
582.436	0
582.627	-0.01
582.818	-0
583.01	-0.02
583.201	0.01
583.392	0.01
583.583	0
583.775	-0.01
583.966	-0.01
584.157	-0.01
584.348	0.01
584.54	-0.04
584.731	0.02
584.922	0
585.113	-0.01
585.304	0.02
585.495	0.02
585.686	0
585.877	0.04
586.068	0.02
586.259	0.02
586.45	-0.01
586.641	-0.02
586.832	-0.05
587.023	0.01
587.214	-0.01
587.405	-0
587.596	-0.01
587.787	0.03
587.978	-0.01
588.169	-0.01
588.36	-0.02
588.551	0.03
588.742	-0.02
588.932	0.01
589.123	0
589.314	0.03
589.505	0.01
589.696	0
589.886	-0.02
590.077	-0.05
590.268	0.01
590.458	-0.03
590.649	-0.05
590.84	0.03
591.03	-0
591.221	-0.04
591.412	-0.02
591.602	0.04
591.793	0.03
591.984	-0.02
592.174	-0.01
592.365	0.06
592.555	-0.03
592.746	0.03
592.936	0.02
593.127	0.01
593.317	0.03
593.508	0
593.698	-0.01
593.889	0.02
594.079	-0.01
594.269	0
594.46	0.04
594.65	-0.01
594.84	-0
595.031	-0.03
595.221	-0.02
595.411	-0.01
595.602	0.03
595.792	-0
595.982	-0.01
596.172	0.07
596.363	0
596.553	0.02
596.743	0.01
596.933	-0.01
597.123	0.02
597.314	-0.03
597.504	-0.02
597.694	0.05
597.884	-0
598.074	-0.02
598.264	-0.03
598.454	0.02
598.644	0.01
598.834	0.01
599.024	-0.05
599.214	0.01
599.404	0.03
599.594	-0.04
599.784	-0.01
599.974	0.04
600.164	0.02
600.354	-0.03
600.544	-0.04
600.734	-0.01
600.924	0.06
601.114	-0.01
601.303	0
601.493	0.01
601.683	-0.03
601.873	0.01
602.063	-0.04
602.252	0.03
602.442	-0.05
602.632	-0.01
602.821	-0.05
603.011	0.01
603.201	-0.02
603.39	-0.03
603.58	-0.01
603.77	0.03
603.959	0.04
604.149	0
604.339	-0.02
604.528	0.02
604.718	0.04
604.907	0.03
605.097	-0.03
605.286	-0.06
605.476	0.02
605.665	0
605.855	-0.03
606.044	0.06
606.234	0.04
606.423	-0.01
606.612	-0.03
606.802	-0.01
606.991	0.03
607.181	0.02
607.37	-0.02
607.559	-0.01
607.749	-0.03
607.938	0.02
608.127	-0.01
608.316	-0.02
608.506	0.02
608.695	-0.01
608.884	-0.01
609.073	0.01
609.263	0.02
609.452	0.01
609.641	0.04
609.83	-0.03
610.019	-0.01
610.208	-0.02
610.397	0
610.586	0.05
610.775	-0.01
610.965	0
611.154	-0.01
611.343	0.01
611.532	0.03
611.721	-0.03
611.91	-0.01
612.099	0.02
612.287	0
612.476	-0.05
612.665	-0
612.854	-0.02
613.043	0.05
613.232	-0.03
613.421	-0.07
613.61	0.03
613.798	-0.04
613.987	0.02
614.176	0.02
614.365	0.03
614.554	0.01
614.742	0.03
614.931	-0.03
615.12	0.02
615.309	-0
615.497	0.02
615.686	-0.04
615.875	0.01
616.063	0.02
616.252	0
616.44	-0.01
616.629	0.02
616.818	0.03
617.006	0.01
617.195	0
617.383	0.01
617.572	-0.01
617.76	-0.02
617.949	-0
618.137	-0
618.326	0.06
618.514	-0.03
618.703	-0.03
618.891	0.07
619.079	-0.03
619.268	0
619.456	-0.01
619.644	0.03
619.833	-0
620.021	-0.01
620.209	-0.06
620.398	0.01
620.586	-0.01
620.774	0.02
620.962	0.02
621.151	0.07
621.339	0.01
621.527	-0.03
621.715	-0.03
621.903	-0.03
622.092	-0.03
622.28	-0
622.468	0.04
622.656	-0.05
622.844	0.01
623.032	0.01
623.22	-0.04
623.408	0.02
623.596	-0
623.784	0.01
623.972	-0.02
624.16	-0.02
624.348	0.05
624.536	-0
624.724	0
624.912	0.03
625.1	0.07
625.288	-0
625.476	-0.02
625.664	0.02
625.851	-0.01
626.039	0.01
626.227	0.02
626.415	-0.03
626.603	-0.04
626.79	0.03
626.978	0.01
627.166	0.03
627.354	-0
627.541	0.01
627.729	-0.06
627.917	0.02
628.104	0.05
628.292	-0
628.48	-0
628.667	0.02
628.855	0.03
629.042	0.02
629.23	-0.01
629.418	0.02
629.605	0.01
629.793	0
629.98	-0
630.168	0
630.355	-0.03
630.543	0.02
630.73	-0
630.917	0.04
631.105	0.07
631.292	0.01
631.48	-0.02
631.667	0.06
631.854	-0
632.042	-0.03
632.229	-0.02
632.416	0.01
632.604	0.01
632.791	-0.03
632.978	0.02
633.165	0.01
633.353	0.06
633.54	0.03
633.727	-0.04
633.914	-0.03
634.101	0.02
634.289	0.01
634.476	-0.02
634.663	-0.04
634.85	0.03
635.037	-0.04
635.224	-0.04
635.411	0.05
635.598	0.04
635.785	-0.01
635.972	0.02
636.159	0.04
636.346	-0.03
636.533	-0.02
636.72	-0.01
636.907	-0.01
637.094	0.03
637.281	-0
637.468	0.02
637.655	0.01
637.842	0.01
638.029	0
638.215	0.04
638.402	-0.02
638.589	0
638.776	-0.01
638.963	-0
639.149	0.04
639.336	0.03
639.523	0.04
639.709	0
639.896	-0
640.083	0.03
640.27	0.04
640.456	-0
640.643	0.03
640.829	-0.04
641.016	-0.01
641.203	-0.04
641.389	0.03
641.576	0.01
641.762	-0.01
641.949	-0.02
642.135	0.01
642.322	-0
642.508	-0.06
642.695	0.01
642.881	0.02
643.068	0.02
643.254	0.02
643.441	0.03
643.627	0.01
643.813	-0.02
644	0.04
644.186	-0.03
644.372	-0.06
644.559	0.05
644.745	0.01
644.931	-0.01
645.118	0.03
645.304	0.01
645.49	-0.01
645.676	-0
645.862	0.04
646.049	0.06
646.235	0.01
646.421	0.06
646.607	0.07
646.793	-0.01
646.979	-0.01
647.165	-0.01
647.352	0.03
647.538	0.05
647.724	0.03
647.91	0.03
648.096	0.03
648.282	0.03
648.468	0.01
648.654	0.03
648.84	0
649.026	0
649.212	-0.03
649.397	-0
649.583	-0.04
649.769	0.04
649.955	0.01
650.141	0.04
650.327	0.06
650.513	0.01
650.698	0.04
650.884	-0.07
651.07	-0.01
651.256	0.02
651.442	0.02
651.627	0.01
651.813	0.02
651.999	0.01
652.184	0.03
652.37	-0
652.556	0
652.741	0.06
652.927	-0.04
653.113	0
653.298	0.03
653.484	-0.01
653.669	-0.04
653.855	-0.02
654.04	0.06
654.226	0.03
654.412	-0.02
654.597	-0.01
654.782	0.04
654.968	0.07
655.153	0.04
655.339	0.01
655.524	-0.05
655.71	0.06
655.895	-0.02
656.08	-0.01
656.266	0.06
656.451	0.03
656.636	0.01
656.822	0.03
657.007	-0.01
657.192	-0.02
657.378	-0.05
657.563	0.05
657.748	0.02
657.933	0.05
658.118	0.02
658.304	0
658.489	0.03
658.674	0.04
658.859	-0.01
659.044	0.04
659.229	0.02
659.414	0.01
659.599	0.01
659.785	-0.03
659.97	0.01
660.155	0.06
660.34	0.01
660.525	0.02
660.71	0
660.895	0.06
661.08	0.02
661.264	0.02
661.449	0.1
661.634	0.08
661.819	0.03
662.004	0.06
662.189	-0.04
662.374	0.01
662.559	0.04
662.743	-0.04
662.928	0
663.113	0.04
663.298	-0.04
663.483	0.01
663.667	0.02
663.852	-0
664.037	0.11
664.221	0.04
664.406	0.04
664.591	0.06
664.775	0.05
664.96	0.03
665.145	0.05
665.329	0.04
665.514	-0.01
665.698	0.06
665.883	-0.03
666.068	0.1
666.252	0.07
666.437	0.02
666.621	0.03
666.806	0.06
666.99	0.03
667.174	0.01
667.359	0.1
667.543	0.05
667.728	0.03
667.912	-0.02
668.096	0.08
668.281	0.04
668.465	0.02
668.649	0.05
668.834	-0
669.018	0.04
669.202	0.04
669.387	0.01
669.571	0.09
669.755	-0
669.939	0.03
670.124	0.05
670.308	0.15
670.492	0.09
670.676	0.04
670.86	0.01
671.044	0.01
671.228	0.09
671.413	0.07
671.597	0.03
671.781	0.03
671.965	0.04
672.149	0.05
672.333	0.06
672.517	0.03
672.701	0.1
672.885	0.04
673.069	-0.01
673.253	0.1
673.437	0.05
673.621	0.06
673.804	0.07
673.988	0.08
674.172	0.13
674.356	-0.03
674.54	0.05
674.724	0.17
674.908	0.07
675.091	0.1
675.275	0.08
675.459	0.14
675.643	0.14
675.826	0.08
676.01	0.12
676.194	0.06
676.377	0.14
676.561	0.09
676.745	0.1
676.928	0.15
677.112	0.13
677.296	0.04
677.479	0.08
677.663	0.05
677.846	0.13
678.03	0.11
678.213	0.09
678.397	0.14
678.58	0.1
678.764	0.09
678.947	0.12
679.131	0.07
679.314	0.09
679.498	0.05
679.681	0.15
679.865	0.12
680.048	0.1
680.231	0.13
680.415	0.14
680.598	0.1
680.781	0.11
680.965	0.13
681.148	0.11
681.331	0.13
681.514	0.15
681.698	0.12
681.881	0.13
682.064	0.14
682.247	0.17
682.43	0.07
682.614	0.15
682.797	0.18
682.98	0.19
683.163	0.14
683.346	0.17
683.529	0.12
683.712	0.12
683.895	0.2
684.078	0.12
684.261	0.14
684.444	0.18
684.627	0.13
684.81	0.15
684.993	0.18
685.176	0.21
685.359	0.14
685.542	0.15
685.725	0.27
685.908	0.19
686.091	0.16
686.274	0.26
686.457	0.2
686.639	0.22
686.822	0.25
687.005	0.22
687.188	0.28
687.371	0.29
687.553	0.25
687.736	0.19
687.919	0.35
688.102	0.29
688.284	0.26
688.467	0.24
688.65	0.22
688.832	0.19
689.015	0.24
689.197	0.21
689.38	0.41
689.563	0.31
689.745	0.24
689.928	0.26
690.11	0.24
690.293	0.31
690.475	0.27
690.658	0.32
690.84	0.3
691.023	0.3
691.205	0.28
691.388	0.32
691.57	0.37
691.752	0.32
691.935	0.27
692.117	0.34
692.3	0.35
692.482	0.4
692.664	0.38
692.847	0.32
693.029	0.44
693.211	0.4
693.393	0.37
693.576	0.36
693.758	0.45
693.94	0.38
694.122	0.33
694.304	0.43
694.487	0.46
694.669	0.54
694.851	0.39
695.033	0.42
695.215	0.4
695.397	0.41
695.579	0.44
695.761	0.39
695.943	0.36
696.125	0.55
696.308	0.53
696.49	0.39
696.671	0.66
696.853	0.5
697.035	0.68
697.217	0.52
697.399	0.6
697.581	0.48
697.763	0.55
697.945	0.52
698.127	0.56
698.309	0.61
698.491	0.55
698.672	0.64
698.854	0.67
699.036	0.62
699.218	0.6
699.399	0.64
699.581	0.74
699.763	0.62
699.945	0.58
700.126	0.65
700.308	0.68
700.49	0.66
700.671	0.66
700.853	0.66
701.035	0.7
701.216	0.76
701.398	0.69
701.579	0.75
701.761	0.82
701.943	0.67
702.124	0.79
702.306	0.76
702.487	0.98
702.669	0.85
702.85	0.84
703.031	0.79
703.213	0.94
703.394	0.94
703.576	0.85
703.757	1.02
703.938	0.99
704.12	1.12
704.301	0.97
704.483	0.97
704.664	1.04
704.845	1.1
705.026	1.05
705.208	1.07
705.389	1.07
705.57	1.17
705.751	1.04
705.933	1.16
706.114	1.27
706.295	1.17
706.476	1.15
706.657	1.29
706.838	1.27
707.02	1.25
707.201	1.27
707.382	1.21
707.563	1.3
707.744	1.28
707.925	1.33
708.106	1.32
708.287	1.42
708.468	1.55
708.649	1.41
708.83	1.47
709.011	1.48
709.192	1.54
709.373	1.49
709.554	1.52
709.734	1.58
709.915	1.66
710.096	1.65
710.277	1.62
710.458	1.72
710.639	1.68
710.819	1.61
711	1.73
711.181	1.81
711.362	1.84
711.542	1.8
711.723	1.91
711.904	2.01
712.085	1.96
712.265	2.01
712.446	1.93
712.627	2.06
712.807	2.12
712.988	2.1
713.168	2.07
713.349	2.27
713.53	2.07
713.71	2.12
713.891	2.21
714.071	2.26
714.252	2.28
714.432	2.33
714.613	2.29
714.793	2.44
714.974	2.6
715.154	2.56
715.334	2.66
715.515	2.7
715.695	2.6
715.876	2.67
716.056	2.68
716.236	2.86
716.417	2.76
716.597	2.82
716.777	3.12
716.957	3.02
717.138	3.01
717.318	2.99
717.498	3.02
717.678	3.19
717.859	3.18
718.039	3.16
718.219	3.46
718.399	3.42
718.579	3.36
718.759	3.45
718.939	3.46
719.12	3.6
719.3	3.62
719.48	3.6
719.66	3.51
719.84	3.82
720.02	3.8
720.2	3.89
720.38	3.91
720.56	4.19
720.74	4.05
720.92	4.15
721.1	4.31
721.279	4.33
721.459	4.43
721.639	4.43
721.819	4.46
721.999	4.65
722.179	4.69
722.359	4.56
722.538	4.81
722.718	4.71
722.898	4.95
723.078	4.94
723.257	5.1
723.437	5.08
723.617	5.19
723.797	5.35
723.976	5.46
724.156	5.53
724.336	5.51
724.515	5.78
724.695	5.5
724.874	5.69
725.054	5.74
725.234	5.85
725.413	6.02
725.593	6.04
725.772	6.11
725.952	6.28
726.131	6.23
726.311	6.47
726.49	6.31
726.67	6.44
726.849	6.55
727.028	6.67
727.208	6.56
727.387	6.86
727.567	6.95
727.746	6.97
727.925	7.04
728.105	7.14
728.284	7.2
728.463	7.32
728.643	7.29
728.822	7.46
729.001	7.39
729.18	7.63
729.359	7.83
729.539	8.01
729.718	7.87
729.897	8.1
730.076	8.02
730.255	8.18
730.434	8.4
730.614	8.35
730.793	8.38
730.972	8.59
731.151	8.74
731.33	8.78
731.509	8.76
731.688	8.83
731.867	8.91
732.046	9.04
732.225	9.31
732.404	9.07
732.583	9.22
732.762	9.4
732.941	9.74
733.12	9.79
733.298	9.71
733.477	9.96
733.656	9.91
733.835	9.9
734.014	10.3
734.193	10.14
734.371	10.46
734.55	10.37
734.729	10.25
734.908	10.58
735.086	10.68
735.265	10.59
735.444	10.43
735.623	10.84
735.801	10.96
735.98	11.01
736.159	10.67
736.337	11.02
736.516	10.93
736.694	10.85
736.873	10.67
737.052	11.29
737.23	10.8
737.409	10.61
737.587	11.2
737.766	10.4
737.944	10.88
738.123	11.01
738.301	10.84
738.479	10.84
738.658	10.79
738.836	10.41
739.015	10.53
739.193	10.22
739.371	10.05
739.55	9.98
739.728	9.85
739.906	9.89
740.085	9.86
740.263	9.72
740.441	9.1
740.62	9.49
740.798	9.21
740.976	8.77
741.154	8.47
741.332	8.6
741.511	8.15
741.689	8.06
741.867	8.1
742.045	7.67
742.223	7.54
742.401	7.17
742.579	7.1
742.757	7.09
742.935	6.74
743.114	6.65
743.292	6.37
743.47	6.25
743.648	6.24
743.826	5.77
744.004	5.84
744.181	5.63
744.359	5.47
744.537	5.18
744.715	4.92
744.893	4.87
745.071	4.59
745.249	4.79
745.427	4.59
745.605	4.32
745.782	4.22
745.96	4.25
746.138	4.01
746.316	3.8
746.493	3.63
746.671	3.53
746.849	3.51
747.027	3.49
747.204	3.21
747.382	3.19
747.56	2.72
747.737	3
747.915	2.7
748.093	2.84
748.27	2.58
748.448	2.57
748.625	2.34
748.803	2.42
748.98	2.18
749.158	2.34
749.335	2.29
749.513	2.09
749.69	2
749.868	2.07
750.045	1.97
750.223	1.94
750.4	1.67
750.578	1.95
750.755	1.65
750.932	1.52
751.11	1.79
751.287	1.45
751.464	1.78
751.642	1.32
751.819	1.51
751.996	1.44
752.173	1.4
752.351	1.17
752.528	1.28
752.705	1.17
752.882	1.12
753.06	1.16
753.237	1.18
753.414	1.32
753.591	1.18
753.768	1.05
753.945	0.9
754.122	0.87
754.299	0.95
754.476	0.84
754.654	0.88
754.831	0.87
755.008	0.82
755.185	0.83
755.362	0.77
755.539	0.79
755.716	0.65
755.892	0.8
756.069	0.65
756.246	0.79
756.423	0.79
756.6	0.89
756.777	0.61
756.954	0.66
757.131	0.51
757.307	0.55
757.484	0.57
757.661	0.59
757.838	0.54
758.015	0.48
758.191	0.62
758.368	0.56
758.545	0.58
758.721	0.53
758.898	0.41
759.075	0.54
759.251	0.57
759.428	0.6
759.605	0.36
759.781	0.37
759.958	0.45
760.134	0.5
760.311	0.23
760.488	0.41
760.664	0.59
760.841	0.31
761.017	0.23
761.194	0.36
761.37	0.46
761.547	0.28
761.723	0.25
761.899	0.45
762.076	0.19
762.252	0.16
762.429	0.29
762.605	0.45
762.781	0.26
762.958	0.37
763.134	0.32
763.31	0.26
763.486	0.39
763.663	0.09
763.839	0.28
764.015	0.12
764.191	0.06
764.368	0.22
764.544	0.17
764.72	0.19
764.896	0.33
765.072	0.17
765.248	0.2
765.425	0.12
765.601	0.28
765.777	0.28
765.953	-0.03
766.129	0.17
766.305	0.13
766.481	0.26
766.657	0.15
766.833	0.42
767.009	0.06
767.185	0.12
767.361	0.11
767.537	0.05
767.713	0.27
767.889	-0.02
768.065	0.13
768.24	0.16
768.416	0.27
768.592	0.14
768.768	0.19
768.944	0.29
769.12	0.07
769.295	0.1
769.471	0.05
769.647	0.01
769.823	0.23
769.998	-0.03
770.174	0
770.35	0.32
770.525	0.41
770.701	0.16
770.877	0.11
771.052	0.01
771.228	0.29
771.403	0.14
771.579	0.13
771.755	0.32
771.93	0
772.106	0.02
772.281	-0.13
772.457	0.12
772.632	0.15
772.808	-0.03
772.983	0.02
773.159	-0.02
773.334	0.38
773.509	0.1
773.685	0.07
773.86	0.37
774.036	0.28
774.211	0.21
774.386	0.14
774.562	0.18
774.737	-0.09
774.912	-0.03
775.087	0.17
775.263	0.12
775.438	0.09
775.613	0.1
775.788	0.11
775.964	0.2
776.139	0.32
776.314	-0.1
776.489	0.19
776.664	0.34
776.839	0.11
777.014	0.22
777.19	0.21
777.365	0.36
777.54	0.34
777.715	0.1
777.89	0.03
778.065	0.02
778.24	0.09
778.415	0.18
778.59	-0.05
778.765	0.23
778.94	0.1
779.115	-0.01
779.289	-0.03
779.464	0.12
779.639	0.21
779.814	-0.25
779.989	-0.14
780.164	0.44
780.339	0.28
780.513	-0.05
780.688	-0.1
780.863	0.11
781.038	0.18
781.212	-0.13
781.387	0.08
781.562	0.35
781.737	-0.13
781.911	0.32
782.086	-0.09
782.261	-0.01
782.435	0.28
782.61	0.08
782.784	-0.13
782.959	0.31
783.134	0.12
783.308	-0.13
783.483	0.04
783.657	0.39
783.832	0.2
784.006	-0.18
784.181	0.12
784.355	0.16
784.53	-0.08
784.704	-0.09
784.878	0.37
785.053	0.28
785.227	0.27
785.402	0.27
785.576	-0.11
785.75	-0.03
785.925	0.07
786.099	0.26
786.273	0.26
786.448	0.21
786.622	0.16
786.796	0.07
786.97	-0.03
787.145	0.52
787.319	-0.35
787.493	0.01
787.667	-0.34
787.841	-0.07
788.015	0.23
788.19	-0.03
788.364	0.06
788.538	0.21
788.712	0.31
788.886	0.08
789.06	0.16
789.234	0.32
789.408	-0.14
789.582	-0.06
789.756	0.07
789.93	-0.35
790.104	0.08
790.278	0.05
790.452	-0.06
790.626	0.23
790.8	-0.02
790.973	0.24
791.147	0.28
791.321	0.33
791.495	0.2
791.669	0.03
791.843	0.26
792.016	0.25
792.19	0.48
792.364	-0.06
792.538	0.46
792.711	0.37
792.885	-0.04
793.059	-0.09
793.233	-0.41
793.406	0.24
793.58	0.1
793.754	0.19
793.927	-0.05
794.101	0.48
794.274	0.06
794.448	0.29
794.622	0.12
794.795	0.3
794.969	-0.14
795.142	0.44
795.316	-0.07
795.489	-0.16
795.663	0.45
795.836	0.01
796.009	-0.36
796.183	0.23
796.356	0.13
796.53	0.14
796.703	0.04
796.876	0.68
797.05	-0.02
797.223	-0.13
797.396	0.24
797.57	0.17
797.743	0.32
797.916	0.12
798.09	0.06
798.263	0.31
798.436	0.11
798.609	-0.01
798.782	-0.16
798.956	0.29
799.129	0.17
799.302	0.11
799.475	0.04
799.648	0.14
799.821	0.25
799.994	0.14
800.167	-0.27
800.34	-0.05
800.514	0.04
800.687	0.01
800.86	-0.1
801.033	0.2
801.206	0.16
801.379	-0.15
801.551	0.22
801.724	0.32
801.897	0.73
802.07	-0.22
802.243	-0.28
802.416	0.18
802.589	0.08
802.762	0.19
802.935	0.24
803.107	0.41
803.28	0.3
803.453	0.25
803.626	-0.31
803.798	0.28
803.971	-0.12
804.144	-0.06
804.317	0.35
804.489	0.57
804.662	0.08
804.835	0.25
805.007	-0.1
805.18	0.42
805.353	0.34
805.525	-0.35
805.698	-0.12
805.87	0.59
806.043	0.5
806.215	-0.31
806.388	-0.17
806.56	0.32
806.733	0.55
806.905	0.06
807.078	0.34
807.25	-0.46
807.423	0.44
807.595	-0.02
807.768	0.36
807.94	0.29
808.112	0.19
808.285	-0.07
808.457	0.17
808.629	0.35
808.802	0.34
808.974	0.13
809.146	0.1
809.318	-0.1
809.491	0.29
809.663	0.55
809.835	-0.11
810.007	0.46
810.18	-0.03
810.352	-0.07
810.524	-0.34
810.696	0.02
810.868	0.47
811.04	0.13
811.212	0.06
811.384	0.31
811.556	0.24
811.728	0.19
811.901	0.55
812.073	-0.09
812.245	0.48
812.417	-0.02
812.589	-0.64
812.76	0.28
812.932	0.09
813.104	0.51
813.276	0.01
813.448	0.37
813.62	0.24
813.792	0.09
813.964	-0.08
814.136	0.44
814.307	-0.22
814.479	-0.17
814.651	-0.09
814.823	0.67
814.995	0.1
815.166	0.2
815.338	-0.1
815.51	-0.73
815.681	0.91
815.853	0.09
816.025	0.33
816.196	0.38
816.368	0.41
816.54	-0.11
816.711	-0.15
816.883	0.21
817.054	0.8
817.226	-0.11
817.398	0.35
817.569	-0.1
817.741	-0.26
817.912	-0.04
818.084	-0.09
818.255	0.05
818.426	0.1
818.598	0.26
818.769	0.02
818.941	0.48
819.112	0.99
819.283	0.49
819.455	-0.38
819.626	-0.06
819.798	0.09
819.969	0.2
820.14	-0.07
820.311	0.29
820.483	0.18
820.654	0.54
820.825	0.25
820.996	-0.03
821.168	-0.19
821.339	0.09
821.51	-0.43
821.681	1.22
821.852	0.29
822.023	-0.12
822.195	-0.28
822.366	0.5
822.537	0.28
822.708	0.35
822.879	-0.2
823.05	0.57
823.221	0.14
823.392	0.57
823.563	0.35
823.734	0.21
823.905	0.12
824.076	0.03
824.247	-0.27
824.418	-0.45
824.589	0.81
824.759	0.03
824.93	0.13
825.101	-0.55
825.272	0.37
825.443	0.96
825.614	0.6
825.784	-0.59
825.955	1.19
826.126	0.68
826.297	0.15
826.467	0.38
826.638	1.04
826.809	-0.87
826.98	0.22
827.15	0.77
827.321	0.78
827.492	1.08
827.662	0.41
827.833	0.95
828.003	0.67
828.174	-0.47
828.345	-0.55
828.515	0.88
828.686	0.47
828.856	-0.08
829.027	0.03
829.197	0.61
829.368	0.38
829.538	0.31
829.709	0.14
829.879	0.28
830.049	0.83
830.22	-0.22
830.39	0.21
830.56	0.93
830.731	-0.58
830.901	-0.59
831.072	0.17
831.242	-0.14
831.412	0.13
831.582	0.32
831.753	-0.04
831.923	0.44
832.093	-0.29
832.263	0.32
832.434	-0.23
832.604	-0.07
832.774	0.3
832.944	0.18
833.114	0.2
833.284	0.32
833.454	-0.63
833.624	-0.19
833.795	-0.05
833.965	1.06
834.135	0.45
834.305	0.26
834.475	-0.44
834.645	0.4
834.815	-0.2
834.985	0.03
835.155	-0.17
835.325	0.63
835.494	-0.04
835.664	-0.42
835.834	-0.63
836.004	0.24
836.174	0.09
836.344	0.05
836.514	-0.87
836.684	-0.05
836.853	0.07
837.023	0.45
837.193	-0.47
837.363	0.25
837.532	0.22
837.702	-0.1
837.872	-0.45
838.041	0.93
838.211	1.6
838.381	-0.52
838.55	0.37
838.72	1.84
838.89	1.21
839.059	-0.08
839.229	-0.26
839.398	1.34
839.568	0.6
839.738	0.06
839.907	0.2
840.077	0.34
840.246	-0.35
840.416	-0.46
840.585	-0.49
840.755	1.36
840.924	0.92
841.093	-0.57
841.263	-0.43
841.432	0.71
841.602	-0.5
841.771	-0.36
841.94	0.33
842.11	1.23
842.279	1.71
842.448	-1.32
842.617	-0.38
842.787	1.15
842.956	-0.65
843.125	0.19
843.294	0.81
843.464	0.64
843.633	0.35
843.802	-0.28
843.971	0.48
844.14	0.13
844.309	1.09
844.479	-0.35
844.648	-0.55
844.817	-0.09
844.986	0.32
845.155	0.35
845.324	-0.27
845.493	0.36
845.662	-0.37
845.831	1.81
846	0.77
846.169	-0.11
846.338	1.32
846.507	0.61
846.676	0.08
846.844	0.28
847.013	1.27
847.182	0.27
847.351	-0.2
847.52	0.15
847.689	0.24
847.858	-0.36
848.026	0.78
848.195	-0.13
848.364	-0.57
848.533	0.42
848.701	-0.23
848.87	-0.36
849.039	-0.34
849.207	1.38
849.376	-0.24
849.545	1.69
849.713	-0.4
849.882	-0.2
850.051	0.13
850.219	0.95
850.388	1.28
850.556	-0.43
850.725	-0.35
850.893	1.29
851.062	-0.47
851.23	0.94
851.399	-0.86
851.567	0.18
851.736	-0.07
851.904	-1.13
852.073	0.76
852.241	0.97
852.41	0.09
852.578	-0.33
852.746	0.41
852.915	1.7
853.083	0.06
853.251	-0.05
853.42	0.15
853.588	-0.12
853.756	1.37
853.924	0.31
854.093	0.89
854.261	0.48
854.429	-1.1
854.597	1.56
854.765	-0.14
854.934	0.05
855.102	1.35
855.27	0.08
855.438	0.33
855.606	1.89
855.774	1.75
855.942	-0.53
856.11	-0.32
856.278	0.9
856.446	0.84
856.614	-0.05
856.782	0.03
856.95	1.92
857.118	1.1
857.286	0.7
857.454	-0.41
857.622	0.21
857.79	0.85
857.958	0.49
858.126	0.19
858.294	-2.01
858.462	0.15
858.629	0.02
858.797	-0.55
858.965	0.94
859.133	0.54
859.301	0.89
859.468	0.27
859.636	0.6
859.804	1.95
859.971	1.88
860.139	-0.38
860.307	0.12
860.474	-0.07
860.642	-0.43
860.81	0.32
860.977	0.61
861.145	1.6
861.313	-0.96
861.48	0.01
861.648	1.54
861.815	0.45
861.983	-1.36
862.15	-0.23
862.318	1.14
862.485	0.51
862.653	-0.38
862.82	-0.45
862.988	2.42
863.155	1.22
863.322	-1.16
863.49	-1.03
863.657	-0.65
863.824	2.63
863.992	1.5
864.159	2.86
864.326	1.69
864.494	-0.44
864.661	3.5
864.828	-0.72
864.996	2.17
865.163	2.65
865.33	0.17
865.497	-1.5
865.664	0.14
865.832	-1.29
865.999	-0.01
866.166	-0.59
866.333	0.34
866.5	-0.79
866.667	1.76
866.834	-0.09
867.001	2
867.168	-0.86
867.335	0.99
867.502	-1.29
867.669	2.21
867.836	2.65
868.003	0.04
868.17	2.04
868.337	-0.45
868.504	2.95
868.671	-1.71
868.838	-0.29
869.005	0.46
869.172	0.5
869.339	0.13
869.505	0.11
869.672	1.8
869.839	2.05
870.006	0.38
870.173	-1.39
870.339	2.07
870.506	3.71
870.673	-0.24
870.84	0.9
871.006	1.28
871.173	-0.49
871.34	0.69
871.506	0.42
871.673	1.98
871.839	-1.14
872.006	-0.31
872.173	0.51
872.339	1.48
872.506	1.74
872.672	-0.2
872.839	-1.65
873.005	1.88
873.172	2.48
873.338	1.97
873.505	-0.07
873.671	0.93
873.838	1.15
874.004	-0.32
874.171	-0.36
874.337	0.77
874.503	1.72
874.67	0.72
874.836	-0.1
875.002	1.07
875.169	2.07
875.335	0.54
875.501	0.68
875.668	1.95
875.834	1.93
876	1.32
876.166	2.32
876.332	1.71
876.499	3.59
876.665	-1.27
876.831	1.48
876.997	5.14
877.163	2.7
877.329	0.26
877.495	2.52
877.662	1.78
877.828	2.27
877.994	0.98
878.16	-1.31
878.326	-0.28
878.492	0.87
878.658	0.7
878.824	1.76
878.99	2.66
879.156	0.09
879.322	2.99
879.487	1.12
879.653	1.55
879.819	0.65
879.985	-1.6
880.151	0.5
880.317	1.12
880.483	2.91
880.648	1.01
880.814	0.32
880.98	0.73
881.146	-1.03
881.312	-0.23
881.477	-0.94
881.643	2.35
881.809	1.73
881.974	3.18
882.14	-1.88
882.306	1.11
882.471	4.45
882.637	-1.84
882.803	2.83
882.968	2.64
883.134	3.27
883.299	2.21
883.465	0.35
883.63	2.2
883.796	2.5
883.961	2.39
884.127	1.6
884.292	-4.03
884.458	-1.75
884.623	-1.75
