Data from Apollo_Calib_20240827__AbsoluteIrradiance__429__06-18-00-598.txt Node

Date: Wed Aug 28 06:18:00 BST 2024
User: biology
Spectrometer: FLMT08252
Trigger mode: 0
Integration Time (sec): 5.000000E-1
Scans to average: 5
Electric dark correction enabled: true
Nonlinearity correction enabled: false
Boxcar width: 0
XAxis mode: Wavelengths
Number of Pixels in Spectrum: 3648
>>>>>Begin Spectral Data<<<<<
179.588	-0
179.809	-0
180.03	-0
180.251	-0
180.473	-0
180.694	0
180.915	0
181.136	-0
181.357	0
181.578	-0
181.799	-0
182.02	-0
182.241	0
182.462	0
182.683	0
182.904	-0
183.125	0
183.346	0
183.567	0
183.788	0
184.009	-0
184.23	0
184.451	0
184.672	0
184.892	0
185.113	0
185.334	0
185.555	0
185.776	0
185.996	0
186.217	0
186.438	0
186.659	0
186.879	0
187.1	0
187.321	0
187.541	0
187.762	0
187.983	0
188.203	0
188.424	0
188.644	0
188.865	0
189.086	0
189.306	0
189.527	0
189.747	0
189.968	0
190.188	0
190.409	0
190.629	0
190.849	0
191.07	0
191.29	0
191.511	0
191.731	0
191.951	0
192.172	0
192.392	0
192.612	0
192.833	0
193.053	0
193.273	0
193.493	0
193.714	0
193.934	0
194.154	0
194.374	0
194.594	0
194.815	0
195.035	0
195.255	0
195.475	0
195.695	0
195.915	0
196.135	0
196.355	0
196.575	0
196.795	0
197.015	0
197.235	0
197.455	0
197.675	0
197.895	0
198.115	0
198.335	0
198.555	0
198.775	0
198.995	0
199.214	0
199.434	0
199.654	0
199.874	0
200.094	1.78
200.313	1.28
200.533	0.57
200.753	0.45
200.973	1.88
201.192	1.43
201.412	0.17
201.632	0.93
201.851	2.03
202.071	0.73
202.291	0.57
202.51	0.65
202.73	1.34
202.95	0.41
203.169	0.56
203.389	1.08
203.608	1.18
203.828	0.42
204.047	0.29
204.267	1.17
204.486	1.01
204.706	1.26
204.925	0.83
205.145	0.94
205.364	1.14
205.583	1.41
205.803	0.39
206.022	0.39
206.242	0.62
206.461	0.95
206.68	0.41
206.9	0.98
207.119	0.99
207.338	1.24
207.557	0.42
207.777	0.54
207.996	0.79
208.215	0.97
208.434	0.38
208.654	0.3
208.873	0.73
209.092	1.25
209.311	0.5
209.53	0.56
209.749	0.48
209.968	0.39
210.187	0.29
210.407	-0.01
210.626	0.39
210.845	0.83
211.064	0.54
211.283	0.32
211.502	0.95
211.721	0.56
211.94	0.5
212.159	1.12
212.377	0.48
212.596	1.03
212.815	0.46
213.034	0.56
213.253	0.88
213.472	0.61
213.691	0.44
213.91	0.28
214.128	0.25
214.347	0.82
214.566	0.11
214.785	0.07
215.003	0.59
215.222	0.64
215.441	0.39
215.66	0.17
215.878	0.52
216.097	0.61
216.316	0.14
216.534	0.34
216.753	0.61
216.972	0.62
217.19	0.25
217.409	0.13
217.627	0.22
217.846	0.26
218.064	0.27
218.283	0.13
218.501	0.76
218.72	0.63
218.938	0.05
219.157	0.2
219.375	0.56
219.594	0.47
219.812	0.14
220.031	0.13
220.249	0.65
220.467	0.65
220.686	0.33
220.904	0.22
221.122	0.1
221.341	0.63
221.559	0.32
221.777	0.29
221.995	0.22
222.214	0.66
222.432	0.2
222.65	0.51
222.868	0.36
223.086	0.42
223.305	0.49
223.523	0.16
223.741	0.61
223.959	0.24
224.177	0.13
224.395	0.21
224.613	0.29
224.831	0.42
225.049	0.09
225.267	0.32
225.485	0.26
225.703	0.3
225.921	0.33
226.139	0.17
226.357	0.33
226.575	0.29
226.793	0.2
227.011	1.05
227.229	0.32
227.447	0.39
227.665	0.2
227.883	0.12
228.1	0.23
228.318	0.26
228.536	-0.01
228.754	0.06
228.972	0.33
229.189	0.3
229.407	0.25
229.625	0.23
229.843	0.52
230.06	0.25
230.278	0.17
230.496	0.2
230.713	0.27
230.931	0.5
231.149	0.23
231.366	0.05
231.584	0.21
231.801	0.58
232.019	0.26
232.236	0.08
232.454	0.01
232.671	0.38
232.889	0.21
233.106	0.15
233.324	0.23
233.541	0.17
233.759	0.22
233.976	0.06
234.194	0.24
234.411	0.09
234.628	0.12
234.846	0.28
235.063	0.24
235.28	0.23
235.498	0.23
235.715	0.1
235.932	0.37
236.149	0.29
236.367	0.19
236.584	0.27
236.801	0.23
237.018	0.26
237.236	0.27
237.453	0.11
237.67	0.3
237.887	0.17
238.104	0.19
238.321	0.03
238.538	0.19
238.755	0.29
238.973	0.03
239.19	0.18
239.407	0.23
239.624	0.25
239.841	0.12
240.058	0.11
240.275	0.3
240.492	0.24
240.709	0.23
240.925	0.17
241.142	0.21
241.359	0.01
241.576	0.07
241.793	0.07
242.01	0.23
242.227	0.26
242.444	0.24
242.66	0.33
242.877	0.17
243.094	0.16
243.311	0.24
243.527	0.2
243.744	0.23
243.961	0.11
244.178	0.16
244.394	0.17
244.611	0.29
244.828	0.33
245.044	0.14
245.261	0.13
245.477	0.22
245.694	0.31
245.911	0.14
246.127	0.22
246.344	0.37
246.56	0.2
246.777	0.11
246.993	0.23
247.21	0.19
247.426	0.24
247.643	0.07
247.859	0.06
248.076	0.15
248.292	0.4
248.508	0.13
248.725	0.16
248.941	0.2
249.157	0.35
249.374	0.21
249.59	0.17
249.806	0.18
250.023	0.3
250.239	0.15
250.455	0.09
250.671	0.15
250.888	0.19
251.104	0.16
251.32	0.18
251.536	0.16
251.752	0.14
251.969	0.14
252.185	0.17
252.401	0.33
252.617	0.16
252.833	0.15
253.049	0.13
253.265	0.22
253.481	0.22
253.697	0.18
253.913	0.11
254.129	0.2
254.345	0.18
254.561	0.12
254.777	0.17
254.993	0.27
255.209	0.15
255.425	0.17
255.641	0.07
255.857	0.24
256.073	0.25
256.288	0.09
256.504	0.09
256.72	0.18
256.936	0.28
257.152	0.12
257.367	0.08
257.583	0.12
257.799	0.17
258.015	0.1
258.23	0.1
258.446	0.26
258.662	0.16
258.877	0.08
259.093	0.09
259.309	0.15
259.524	0.14
259.74	0.13
259.955	0.07
260.171	0.17
260.387	0.19
260.602	0.18
260.818	0.22
261.033	0.09
261.249	0.1
261.464	0.08
261.68	0.14
261.895	0.17
262.11	0.2
262.326	0.11
262.541	0.05
262.757	0.23
262.972	0.13
263.187	0.15
263.403	0.11
263.618	0.16
263.833	0.14
264.049	0.08
264.264	0.14
264.479	0.21
264.694	0.19
264.91	0.08
265.125	0.12
265.34	0.25
265.555	0.24
265.77	0.23
265.986	0.09
266.201	0.18
266.416	0.22
266.631	0.12
266.846	0.16
267.061	0.12
267.276	0.21
267.491	0.01
267.706	0.22
267.921	0.21
268.136	0.2
268.351	0.19
268.566	0.08
268.781	0.24
268.996	0.2
269.211	0.22
269.426	0.06
269.641	0.07
269.856	0.2
270.071	0.18
270.285	0.08
270.5	0.16
270.715	0.24
270.93	0.11
271.145	0.17
271.359	0.2
271.574	0.04
271.789	0.13
272.004	0.12
272.218	0.15
272.433	0.2
272.648	0.05
272.862	0.19
273.077	0.15
273.292	0.19
273.506	0.13
273.721	0.07
273.936	0.21
274.15	0.17
274.365	0.14
274.579	0.21
274.794	0.17
275.008	0.23
275.223	0.07
275.437	0.13
275.652	0.16
275.866	0.16
276.081	0.15
276.295	0.21
276.509	0.16
276.724	0.18
276.938	0.1
277.153	0.13
277.367	0.19
277.581	0.14
277.796	0.12
278.01	0.08
278.224	0.2
278.438	0.27
278.653	0.08
278.867	0.08
279.081	-0.1
279.295	0.12
279.51	0.14
279.724	0.06
279.938	0.2
280.152	0.12
280.366	0.08
280.58	0.17
280.794	0.22
281.008	0.18
281.222	0.23
281.437	0.26
281.651	0.15
281.865	0.2
282.079	0.14
282.293	0.03
282.507	0.06
282.721	0.12
282.935	0.13
283.148	-0.01
283.362	0.08
283.576	0.05
283.79	0.16
284.004	0.07
284.218	0.2
284.432	0.11
284.646	0.1
284.859	0.11
285.073	0.09
285.287	0.15
285.501	0.14
285.714	0.09
285.928	0.11
286.142	0.12
286.356	0.1
286.569	0.09
286.783	0.21
286.997	0.18
287.21	0.11
287.424	0.12
287.637	0.13
287.851	0.15
288.065	0.14
288.278	0.12
288.492	0.12
288.705	0.14
288.919	0.18
289.132	0.07
289.346	0.19
289.559	0.07
289.773	0.08
289.986	0.15
290.2	0.12
290.413	0.13
290.626	0.09
290.84	0.09
291.053	0.13
291.267	0.18
291.48	0.1
291.693	0.16
291.906	0.09
292.12	0.08
292.333	0.11
292.546	0.1
292.76	0.22
292.973	0.1
293.186	0.15
293.399	0.11
293.612	0.17
293.826	0.15
294.039	0.09
294.252	0.12
294.465	0.14
294.678	0.18
294.891	0.09
295.104	0.05
295.317	0.12
295.53	0.12
295.743	0.1
295.956	0.15
296.169	0.19
296.382	0.15
296.595	0.12
296.808	0.07
297.021	0.15
297.234	0.16
297.447	0.14
297.66	0.12
297.873	0.13
298.086	0.13
298.299	0.06
298.511	0.05
298.724	0.1
298.937	0.05
299.15	0.11
299.363	0.07
299.575	0.13
299.788	0.16
300.001	0.07
300.213	0.04
300.426	0.13
300.639	0.08
300.852	0.1
301.064	0.18
301.277	0.18
301.489	0.11
301.702	0.11
301.915	0.13
302.127	0.1
302.34	0.09
302.552	0.12
302.765	0.08
302.977	0.14
303.19	0.07
303.402	0.09
303.615	0.12
303.827	0.11
304.04	0.08
304.252	0.11
304.464	0.13
304.677	0.2
304.889	0.14
305.102	0.07
305.314	0.08
305.526	0.17
305.739	0.13
305.951	0.05
306.163	0.03
306.375	0.18
306.588	0.07
306.8	0.1
307.012	0.05
307.224	0.08
307.436	0.14
307.649	0.06
307.861	0.13
308.073	0.15
308.285	0.1
308.497	0.07
308.709	0.08
308.921	0.12
309.133	0.19
309.346	0.05
309.558	0.12
309.77	0.15
309.982	0.16
310.194	0.11
310.406	0.09
310.617	0.18
310.829	0.09
311.041	0.14
311.253	0.1
311.465	0.09
311.677	0.13
311.889	0.1
312.101	0.08
312.313	0.16
312.524	0.16
312.736	0.06
312.948	0.11
313.16	0.22
313.372	0.17
313.583	0.12
313.795	0.08
314.007	0.12
314.218	0.2
314.43	0.07
314.642	0.07
314.853	0.04
315.065	0.13
315.277	0.08
315.488	0.13
315.7	0.16
315.912	0.09
316.123	0.1
316.335	0.11
316.546	0.22
316.758	0.07
316.969	0.09
317.181	0.11
317.392	0.11
317.604	0.14
317.815	0.06
318.026	0.05
318.238	0.13
318.449	0.15
318.661	0.06
318.872	0.05
319.083	0.04
319.295	0.13
319.506	0.09
319.717	0.12
319.929	0.12
320.14	0.1
320.351	0.1
320.562	0.07
320.774	0.11
320.985	0.13
321.196	0.08
321.407	0.07
321.618	0.1
321.829	0.15
322.041	0.12
322.252	0.09
322.463	0.15
322.674	0.11
322.885	0.08
323.096	0.11
323.307	0.11
323.518	0.1
323.729	0.07
323.94	0.05
324.151	0.09
324.362	0.1
324.573	0.14
324.784	0.07
324.995	0.14
325.206	0.14
325.417	0.15
325.628	0.1
325.838	0.15
326.049	0.07
326.26	0.17
326.471	0.11
326.682	0.17
326.892	0.08
327.103	0.04
327.314	0.07
327.525	0.16
327.735	0.09
327.946	0.11
328.157	0.05
328.368	0.13
328.578	0.1
328.789	0.14
328.999	0.13
329.21	0.13
329.421	0.15
329.631	0.05
329.842	0.07
330.052	0.1
330.263	0.18
330.473	0.11
330.684	0.08
330.894	0.11
331.105	0.11
331.315	0.11
331.526	0.07
331.736	0.19
331.947	0.15
332.157	0.11
332.367	0.05
332.578	0.12
332.788	0.16
332.999	0.17
333.209	0.09
333.419	0.07
333.629	0.09
333.84	0.13
334.05	0.12
334.26	0.19
334.47	0.09
334.681	0.13
334.891	0.05
335.101	0.1
335.311	0.18
335.521	0.13
335.732	0.08
335.942	0.17
336.152	0.17
336.362	0.11
336.572	0.11
336.782	0.13
336.992	0.06
337.202	0.08
337.412	0.05
337.622	0.16
337.832	0.11
338.042	0.13
338.252	0.08
338.462	0.08
338.672	0.13
338.882	0.07
339.092	0.09
339.302	0.14
339.511	0.15
339.721	0.08
339.931	0.08
340.141	0.15
340.351	0.19
340.561	0.14
340.77	0.13
340.98	0.09
341.19	0.13
341.4	0.1
341.609	0.07
341.819	0.1
342.029	0.09
342.238	0.11
342.448	0.06
342.658	0.12
342.867	0.1
343.077	0.08
343.286	0.13
343.496	0.15
343.706	0.17
343.915	0.04
344.125	0.05
344.334	0.13
344.544	0.07
344.753	0.06
344.963	0.12
345.172	0.1
345.381	0.08
345.591	0.09
345.8	0.11
346.01	0.12
346.219	0.18
346.428	0.07
346.638	0.12
346.847	0.06
347.056	0.17
347.266	0.08
347.475	0.07
347.684	0.13
347.893	0.11
348.103	0.15
348.312	0.09
348.521	0.08
348.73	0.15
348.94	0.09
349.149	0.08
349.358	0.12
349.567	0.04
349.776	0.09
349.985	0.07
350.194	0.13
350.403	0.14
350.612	0.05
350.821	0.08
351.03	0.12
351.239	0.09
351.448	0.09
351.657	0.06
351.866	0.17
352.075	0.09
352.284	0.18
352.493	0.03
352.702	0.16
352.911	0.1
353.12	0.13
353.329	0.07
353.538	0.13
353.746	0.07
353.955	0.07
354.164	0.13
354.373	0.12
354.582	0.15
354.79	0.1
354.999	0.17
355.208	0.11
355.416	0.14
355.625	0.08
355.834	0.09
356.042	0.14
356.251	0.09
356.46	0.08
356.668	0.12
356.877	0.21
357.085	0.13
357.294	0
357.503	0.12
357.711	0.09
357.92	0.18
358.128	0.12
358.337	0.08
358.545	0.1
358.754	0.1
358.962	0.15
359.17	0.11
359.379	0.09
359.587	0.15
359.796	0.11
360.004	0.12
360.212	0.1
360.421	0.17
360.629	0.11
360.837	0.12
361.046	0.17
361.254	0.19
361.462	0.14
361.67	0.08
361.879	0.12
362.087	0.14
362.295	0.11
362.503	0.07
362.711	0.05
362.92	0.09
363.128	0.07
363.336	0.1
363.544	0.02
363.752	0.1
363.96	0.07
364.168	0.08
364.376	0.07
364.584	0.09
364.792	0.12
365	0.14
365.208	0.13
365.416	0.1
365.624	0.14
365.832	0.1
366.04	0.16
366.248	0.1
366.456	0.12
366.664	0.09
366.872	0.09
367.079	0.1
367.287	0.08
367.495	0.12
367.703	0.1
367.911	0.1
368.118	0.07
368.326	0.12
368.534	0.08
368.742	0.17
368.949	0.07
369.157	0.06
369.365	0.12
369.572	0.09
369.78	0.09
369.988	0.16
370.195	0.15
370.403	0.14
370.61	0.06
370.818	0.1
371.026	0.16
371.233	0.06
371.441	0.12
371.648	0.08
371.856	0.15
372.063	0.13
372.271	0.09
372.478	0.09
372.685	0.08
372.893	0.15
373.1	0.11
373.308	0.05
373.515	0.15
373.722	0.1
373.93	0.08
374.137	0.18
374.344	0.18
374.552	0.16
374.759	0.18
374.966	0.17
375.173	0.06
375.381	0.17
375.588	0.11
375.795	0.03
376.002	0.11
376.209	0.06
376.417	0.1
376.624	0.07
376.831	0.14
377.038	0.08
377.245	0.06
377.452	0.07
377.659	0.11
377.866	0.1
378.073	0.13
378.28	0.12
378.487	0.14
378.694	0.14
378.901	0.11
379.108	0.11
379.315	0.14
379.522	0.21
379.729	0.1
379.936	0.09
380.143	0.07
380.35	0.1
380.557	0.1
380.763	0.09
380.97	0.11
381.177	0.12
381.384	0.13
381.591	0.1
381.797	0.12
382.004	0.12
382.211	0.17
382.418	0.12
382.624	0.14
382.831	0.12
383.038	0.11
383.244	0.11
383.451	0.09
383.658	0.17
383.864	0.11
384.071	0.09
384.277	0.15
384.484	0.09
384.69	0.15
384.897	0.07
385.103	0.12
385.31	0.04
385.516	0.06
385.723	0.06
385.929	0.11
386.136	0.09
386.342	0.15
386.549	0.09
386.755	0.15
386.961	0.15
387.168	0.09
387.374	0.11
387.58	0.13
387.787	0.17
387.993	0.16
388.199	0.11
388.406	0.06
388.612	0.09
388.818	0.1
389.024	0.07
389.231	0.12
389.437	0.18
389.643	0.15
389.849	0.12
390.055	0.15
390.261	0.12
390.467	0.16
390.674	0.08
390.88	0.1
391.086	0.18
391.292	0.07
391.498	0.18
391.704	0.13
391.91	0.12
392.116	0.07
392.322	0.04
392.528	0.11
392.734	0.14
392.94	0.15
393.146	0.13
393.352	0.13
393.557	0.11
393.763	0.11
393.969	0.15
394.175	0.1
394.381	0.12
394.587	0.01
394.792	0.12
394.998	0.15
395.204	0.15
395.41	0.11
395.615	0.14
395.821	0.14
396.027	0.11
396.233	0.11
396.438	0.12
396.644	0.17
396.85	0.16
397.055	0.11
397.261	0.12
397.466	0.12
397.672	0.17
397.878	0.17
398.083	0.14
398.289	0.11
398.494	0.18
398.7	0.13
398.905	0.07
399.111	0.19
399.316	0.03
399.522	0.13
399.727	0.1
399.932	0.1
400.138	0.11
400.343	0.14
400.549	0.11
400.754	0.14
400.959	0.16
401.165	0.09
401.37	0.14
401.575	0.22
401.78	0.17
401.986	0.09
402.191	0.11
402.396	0.12
402.601	0.11
402.807	0.17
403.012	0.12
403.217	0.14
403.422	0.15
403.627	0.09
403.832	0.13
404.037	0.19
404.243	0.15
404.448	0.03
404.653	0.16
404.858	0.13
405.063	0.16
405.268	0.12
405.473	0.08
405.678	0.09
405.883	0.27
406.088	0.14
406.293	0.05
406.498	0.11
406.703	0.19
406.907	0.14
407.112	0.12
407.317	0.16
407.522	0.17
407.727	0.11
407.932	0.13
408.136	0.22
408.341	0.1
408.546	0.13
408.751	0.16
408.956	0.16
409.16	0.16
409.365	0.17
409.57	0.14
409.774	0.15
409.979	0.18
410.184	0.16
410.388	0.12
410.593	0.14
410.798	0.2
411.002	0.12
411.207	0.14
411.411	0.17
411.616	0.11
411.82	0.14
412.025	0.19
412.229	0.09
412.434	0.22
412.638	0.15
412.843	0.15
413.047	0.17
413.252	0.1
413.456	0.15
413.66	0.2
413.865	0.11
414.069	0.23
414.273	0.16
414.478	0.09
414.682	0.16
414.886	0.13
415.091	0.12
415.295	0.1
415.499	0.14
415.703	0.14
415.908	0.15
416.112	0.09
416.316	0.2
416.52	0.12
416.724	0.09
416.929	0.12
417.133	0.26
417.337	0.16
417.541	0.15
417.745	0.18
417.949	0.15
418.153	0.19
418.357	0.12
418.561	0.23
418.765	0.16
418.969	0.29
419.173	0.19
419.377	0.12
419.581	0.27
419.785	0.2
419.989	0.09
420.193	0.15
420.397	0.12
420.601	0.2
420.804	0.2
421.008	0.16
421.212	0.2
421.416	0.22
421.62	0.13
421.823	0.17
422.027	0.26
422.231	0.19
422.435	0.15
422.638	0.19
422.842	0.19
423.046	0.16
423.249	0.23
423.453	0.23
423.657	0.21
423.86	0.14
424.064	0.15
424.268	0.2
424.471	0.22
424.675	0.25
424.878	0.22
425.082	0.14
425.285	0.3
425.489	0.15
425.692	0.16
425.896	0.13
426.099	0.2
426.303	0.1
426.506	0.1
426.71	0.17
426.913	0.23
427.116	0.28
427.32	0.22
427.523	0.19
427.726	0.29
427.93	0.14
428.133	0.25
428.336	0.16
428.54	0.14
428.743	0.17
428.946	0.24
429.149	0.2
429.353	0.19
429.556	0.15
429.759	0.2
429.962	0.15
430.165	0.21
430.368	0.15
430.571	0.15
430.775	0.18
430.978	0.18
431.181	0.16
431.384	0.17
431.587	0.14
431.79	0.14
431.993	0.15
432.196	0.14
432.399	0.2
432.602	0.21
432.805	0.18
433.008	0.15
433.211	0.1
433.414	0.22
433.616	0.21
433.819	0.15
434.022	0.09
434.225	0.23
434.428	0.16
434.631	0.31
434.833	0.2
435.036	0.17
435.239	0.24
435.442	0.19
435.645	0.15
435.847	0.18
436.05	0.22
436.253	0.19
436.455	0.13
436.658	0.18
436.861	0.25
437.063	0.17
437.266	0.16
437.468	0.22
437.671	0.31
437.874	0.19
438.076	0.14
438.279	0.12
438.481	0.2
438.684	0.11
438.886	0.22
439.089	0.08
439.291	0.21
439.494	0.24
439.696	0.16
439.899	0.21
440.101	0.21
440.303	0.18
440.506	0.24
440.708	0.22
440.91	0.25
441.113	0.18
441.315	0.26
441.517	0.13
441.72	0.19
441.922	0.17
442.124	0.19
442.326	0.23
442.529	0.28
442.731	0.13
442.933	0.32
443.135	0.14
443.337	0.16
443.539	0.18
443.742	0.19
443.944	0.22
444.146	0.17
444.348	0.2
444.55	0.16
444.752	0.2
444.954	0.17
445.156	0.22
445.358	0.18
445.56	0.24
445.762	0.17
445.964	0.22
446.166	0.19
446.368	0.21
446.57	0.26
446.772	0.2
446.974	0.25
447.175	0.21
447.377	0.18
447.579	0.15
447.781	0.12
447.983	0.25
448.184	0.23
448.386	0.21
448.588	0.16
448.79	0.18
448.991	0.24
449.193	0.22
449.395	0.19
449.597	0.27
449.798	0.21
450	0.23
450.202	0.19
450.403	0.26
450.605	0.26
450.806	0.2
451.008	0.11
451.21	0.23
451.411	0.22
451.613	0.21
451.814	0.2
452.016	0.23
452.217	0.16
452.419	0.24
452.62	0.22
452.821	0.23
453.023	0.3
453.224	0.32
453.426	0.26
453.627	0.22
453.828	0.26
454.03	0.23
454.231	0.25
454.432	0.21
454.634	0.31
454.835	0.22
455.036	0.16
455.238	0.27
455.439	0.31
455.64	0.21
455.841	0.19
456.042	0.4
456.244	0.28
456.445	0.21
456.646	0.14
456.847	0.21
457.048	0.3
457.249	0.3
457.45	0.48
457.651	0.23
457.852	0.31
458.054	0.31
458.255	0.23
458.456	0.26
458.657	0.28
458.858	0.16
459.058	0.25
459.259	0.33
459.46	0.23
459.661	0.24
459.862	0.41
460.063	0.25
460.264	0.33
460.465	0.18
460.666	0.37
460.866	0.23
461.067	0.3
461.268	0.26
461.469	0.27
461.67	0.27
461.87	0.25
462.071	0.25
462.272	0.21
462.473	0.3
462.673	0.3
462.874	0.28
463.075	0.29
463.275	0.23
463.476	0.37
463.676	0.36
463.877	0.29
464.078	0.28
464.278	0.35
464.479	0.28
464.679	0.3
464.88	0.28
465.08	0.38
465.281	0.28
465.481	0.28
465.682	0.27
465.882	0.34
466.083	0.32
466.283	0.36
466.483	0.32
466.684	0.27
466.884	0.28
467.085	0.31
467.285	0.34
467.485	0.3
467.686	0.36
467.886	0.25
468.086	0.31
468.286	0.34
468.487	0.34
468.687	0.26
468.887	0.33
469.087	0.36
469.287	0.38
469.488	0.28
469.688	0.38
469.888	0.42
470.088	0.42
470.288	0.42
470.488	0.44
470.688	0.33
470.888	0.4
471.088	0.34
471.288	0.42
471.488	0.44
471.688	0.46
471.888	0.38
472.088	0.45
472.288	0.44
472.488	0.42
472.688	0.36
472.888	0.43
473.088	0.44
473.288	0.47
473.488	0.48
473.688	0.59
473.887	0.46
474.087	0.46
474.287	0.48
474.487	0.41
474.687	0.52
474.886	0.49
475.086	0.52
475.286	0.49
475.486	0.51
475.685	0.49
475.885	0.48
476.085	0.55
476.284	0.57
476.484	0.56
476.684	0.6
476.883	0.65
477.083	0.59
477.282	0.57
477.482	0.72
477.681	0.64
477.881	0.63
478.08	0.64
478.28	0.63
478.479	0.7
478.679	0.72
478.878	0.64
479.078	0.68
479.277	0.71
479.477	0.67
479.676	0.72
479.875	0.75
480.075	0.71
480.274	0.8
480.473	0.85
480.673	0.76
480.872	0.85
481.071	0.85
481.271	0.86
481.47	0.85
481.669	0.86
481.868	0.87
482.067	0.88
482.267	0.85
482.466	0.85
482.665	0.91
482.864	0.94
483.063	0.95
483.262	0.98
483.461	1.03
483.661	1.11
483.86	1.07
484.059	1.11
484.258	1.08
484.457	1.11
484.656	1.12
484.855	1.19
485.054	1.13
485.253	1.16
485.452	1.16
485.651	1.26
485.849	1.24
486.048	1.3
486.247	1.32
486.446	1.33
486.645	1.34
486.844	1.36
487.043	1.41
487.241	1.47
487.44	1.47
487.639	1.51
487.838	1.54
488.037	1.6
488.235	1.68
488.434	1.66
488.633	1.58
488.831	1.76
489.03	1.74
489.229	1.77
489.427	1.74
489.626	1.85
489.825	1.9
490.023	1.92
490.222	1.94
490.42	1.99
490.619	2.02
490.817	2.12
491.016	2.08
491.214	2.17
491.413	2.17
491.611	2.16
491.81	2.19
492.008	2.28
492.207	2.4
492.405	2.36
492.604	2.35
492.802	2.45
493	2.5
493.199	2.6
493.397	2.65
493.595	2.69
493.794	2.72
493.992	2.85
494.19	2.85
494.388	2.95
494.587	2.84
494.785	2.95
494.983	2.92
495.181	3.08
495.379	3.17
495.578	3.26
495.776	3.31
495.974	3.28
496.172	3.33
496.37	3.53
496.568	3.59
496.766	3.59
496.964	3.74
497.162	3.74
497.36	3.84
497.558	3.86
497.756	4.02
497.954	4.03
498.152	4.19
498.35	4.29
498.548	4.19
498.746	4.3
498.944	4.38
499.142	4.45
499.34	4.6
499.538	4.78
499.736	4.7
499.933	4.87
500.131	4.85
500.329	5.13
500.527	5.14
500.725	5.32
500.922	5.39
501.12	5.45
501.318	5.67
501.516	5.66
501.713	5.78
501.911	5.86
502.109	5.83
502.306	6.08
502.504	5.98
502.701	6.17
502.899	6.37
503.097	6.65
503.294	6.5
503.492	6.84
503.689	6.9
503.887	6.89
504.084	7.09
504.282	7.16
504.479	7.22
504.677	7.58
504.874	7.57
505.072	7.5
505.269	7.96
505.466	7.97
505.664	8.06
505.861	8.1
506.059	8.33
506.256	8.37
506.453	8.57
506.651	8.87
506.848	8.97
507.045	8.92
507.242	9.06
507.44	9.25
507.637	9.41
507.834	9.43
508.031	9.73
508.229	9.73
508.426	9.74
508.623	10.09
508.82	10.24
509.017	10.21
509.214	10.28
509.411	10.61
509.608	10.64
509.805	11.01
510.003	11
510.2	11.18
510.397	11.4
510.594	11.37
510.791	11.6
510.988	11.63
511.184	11.7
511.381	11.57
511.578	12.06
511.775	12.25
511.972	12.22
512.169	12.35
512.366	12.58
512.563	12.82
512.76	12.84
512.956	13.02
513.153	12.94
513.35	12.91
513.547	13.01
513.744	13.37
513.94	13.42
514.137	13.64
514.334	13.55
514.53	13.73
514.727	14.24
514.924	13.95
515.12	14.04
515.317	14.14
515.514	14.01
515.71	13.97
515.907	14.54
516.103	14.51
516.3	14.3
516.497	14.65
516.693	14.62
516.89	14.63
517.086	14.79
517.283	14.75
517.479	14.52
517.676	15.08
517.872	15
518.068	15.08
518.265	15
518.461	14.88
518.658	15.23
518.854	15.1
519.05	15.25
519.247	15.39
519.443	15.1
519.639	15.36
519.836	15.1
520.032	15.02
520.228	15.27
520.424	15.09
520.621	15.16
520.817	15.19
521.013	15.01
521.209	15.37
521.405	15.25
521.601	15.1
521.798	14.96
521.994	14.88
522.19	14.82
522.386	14.8
522.582	14.88
522.778	15.08
522.974	14.74
523.17	14.66
523.366	14.53
523.562	14.56
523.758	14.52
523.954	14.14
524.15	14.39
524.346	14.32
524.542	14.38
524.738	14.12
524.934	14.29
525.129	14.05
525.325	13.83
525.521	13.71
525.717	13.96
525.913	13.61
526.109	13.48
526.304	13.59
526.5	13.41
526.696	13.38
526.892	13.1
527.087	13.42
527.283	13.11
527.479	12.9
527.674	12.51
527.87	12.71
528.066	12.6
528.261	12.49
528.457	12.11
528.653	12.42
528.848	12.25
529.044	12.18
529.239	11.86
529.435	11.75
529.63	11.56
529.826	11.46
530.021	11.37
530.217	11.38
530.412	11.16
530.608	11.15
530.803	11.13
530.999	10.71
531.194	10.83
531.389	10.76
531.585	10.59
531.78	10.65
531.975	10.41
532.171	10.32
532.366	10.25
532.561	10.07
532.757	9.95
532.952	10.02
533.147	9.64
533.342	9.72
533.538	9.52
533.733	9.6
533.928	9.12
534.123	9.19
534.318	9.23
534.513	9.06
534.709	9.11
534.904	9
535.099	8.9
535.294	8.76
535.489	8.75
535.684	8.52
535.879	8.44
536.074	8.38
536.269	8.36
536.464	8.24
536.659	8.01
536.854	7.98
537.049	8.02
537.244	7.91
537.439	7.75
537.634	7.65
537.828	7.7
538.023	7.52
538.218	7.46
538.413	7.27
538.608	7.21
538.803	7.19
538.997	7.08
539.192	7.02
539.387	6.92
539.582	6.81
539.776	6.76
539.971	6.77
540.166	6.73
540.36	6.52
540.555	6.6
540.75	6.52
540.944	6.44
541.139	6.31
541.334	6.22
541.528	6.2
541.723	6.15
541.917	6.1
542.112	5.94
542.306	5.86
542.501	5.83
542.695	5.72
542.89	5.63
543.084	5.66
543.279	5.56
543.473	5.58
543.668	5.53
543.862	5.37
544.056	5.3
544.251	5.3
544.445	5.3
544.64	5.21
544.834	4.97
545.028	4.87
545.222	5.01
545.417	5.01
545.611	4.89
545.805	4.83
546	4.62
546.194	4.73
546.388	4.61
546.582	4.55
546.776	4.52
546.97	4.52
547.165	4.41
547.359	4.36
547.553	4.27
547.747	4.22
547.941	4.28
548.135	4.17
548.329	4.15
548.523	4.08
548.717	3.99
548.911	3.93
549.105	3.86
549.299	3.88
549.493	3.87
549.687	3.73
549.881	3.69
550.075	3.65
550.269	3.55
550.463	3.61
550.657	3.49
550.85	3.45
551.044	3.43
551.238	3.39
551.432	3.35
551.626	3.29
551.82	3.24
552.013	3.16
552.207	3.19
552.401	3.2
552.594	3.06
552.788	3.02
552.982	2.99
553.176	2.94
553.369	2.98
553.563	2.95
553.756	2.79
553.95	2.84
554.144	2.79
554.337	2.79
554.531	2.64
554.724	2.69
554.918	2.69
555.111	2.61
555.305	2.58
555.498	2.53
555.692	2.57
555.885	2.5
556.079	2.46
556.272	2.38
556.466	2.36
556.659	2.35
556.852	2.34
557.046	2.26
557.239	2.22
557.432	2.2
557.626	2.17
557.819	2.25
558.012	2.15
558.206	2.16
558.399	2.06
558.592	2.07
558.785	1.98
558.979	1.99
559.172	1.96
559.365	1.95
559.558	1.95
559.751	1.91
559.944	1.91
560.138	1.83
560.331	1.84
560.524	1.82
560.717	1.81
560.91	1.77
561.103	1.73
561.296	1.72
561.489	1.71
561.682	1.71
561.875	1.68
562.068	1.69
562.261	1.6
562.454	1.66
562.647	1.58
562.84	1.58
563.032	1.58
563.225	1.51
563.418	1.49
563.611	1.49
563.804	1.46
563.997	1.39
564.19	1.32
564.382	1.46
564.575	1.36
564.768	1.37
564.961	1.35
565.153	1.32
565.346	1.28
565.539	1.37
565.731	1.31
565.924	1.3
566.117	1.3
566.309	1.24
566.502	1.22
566.695	1.19
566.887	1.22
567.08	1.18
567.272	1.14
567.465	1.12
567.657	1.12
567.85	1.13
568.042	1.1
568.235	1.13
568.427	1.06
568.62	1.07
568.812	1.08
569.005	1.05
569.197	0.99
569.389	1.03
569.582	1
569.774	1.01
569.966	0.93
570.159	0.93
570.351	0.95
570.543	0.92
570.736	0.93
570.928	0.87
571.12	0.9
571.312	0.88
571.505	0.87
571.697	0.9
571.889	0.83
572.081	0.85
572.273	0.8
572.465	0.88
572.658	0.82
572.85	0.83
573.042	0.81
573.234	0.8
573.426	0.84
573.618	0.75
573.81	0.76
574.002	0.78
574.194	0.78
574.386	0.72
574.578	0.66
574.77	0.68
574.962	0.73
575.154	0.66
575.346	0.67
575.538	0.71
575.729	0.65
575.921	0.66
576.113	0.64
576.305	0.66
576.497	0.65
576.689	0.62
576.88	0.62
577.072	0.66
577.264	0.62
577.456	0.61
577.647	0.53
577.839	0.58
578.031	0.61
578.223	0.52
578.414	0.55
578.606	0.58
578.798	0.56
578.989	0.52
579.181	0.54
579.372	0.55
579.564	0.55
579.755	0.53
579.947	0.52
580.139	0.53
580.33	0.46
580.522	0.51
580.713	0.43
580.905	0.44
581.096	0.53
581.287	0.5
581.479	0.47
581.67	0.49
581.862	0.46
582.053	0.44
582.244	0.4
582.436	0.42
582.627	0.44
582.818	0.42
583.01	0.38
583.201	0.44
583.392	0.44
583.583	0.41
583.775	0.37
583.966	0.39
584.157	0.39
584.348	0.38
584.54	0.34
584.731	0.39
584.922	0.36
585.113	0.35
585.304	0.39
585.495	0.39
585.686	0.39
585.877	0.4
586.068	0.37
586.259	0.36
586.45	0.37
586.641	0.33
586.832	0.28
587.023	0.36
587.214	0.34
587.405	0.37
587.596	0.3
587.787	0.37
587.978	0.33
588.169	0.32
588.36	0.28
588.551	0.33
588.742	0.29
588.932	0.34
589.123	0.31
589.314	0.33
589.505	0.32
589.696	0.29
589.886	0.28
590.077	0.26
590.268	0.31
590.458	0.26
590.649	0.25
590.84	0.3
591.03	0.25
591.221	0.27
591.412	0.26
591.602	0.31
591.793	0.28
591.984	0.24
592.174	0.22
592.365	0.33
592.555	0.24
592.746	0.27
592.936	0.29
593.127	0.27
593.317	0.29
593.508	0.23
593.698	0.22
593.889	0.26
594.079	0.23
594.269	0.21
594.46	0.24
594.65	0.23
594.84	0.25
595.031	0.2
595.221	0.21
595.411	0.19
595.602	0.26
595.792	0.21
595.982	0.23
596.172	0.28
596.363	0.23
596.553	0.22
596.743	0.22
596.933	0.24
597.123	0.25
597.314	0.18
597.504	0.18
597.694	0.23
597.884	0.23
598.074	0.2
598.264	0.17
598.454	0.21
598.644	0.2
598.834	0.2
599.024	0.12
599.214	0.19
599.404	0.22
599.594	0.2
599.784	0.16
599.974	0.22
600.164	0.21
600.354	0.18
600.544	0.12
600.734	0.19
600.924	0.22
601.114	0.16
601.303	0.18
601.493	0.17
601.683	0.19
601.873	0.17
602.063	0.1
602.252	0.18
602.442	0.12
602.632	0.15
602.821	0.14
603.011	0.2
603.201	0.16
603.39	0.12
603.58	0.13
603.77	0.17
603.959	0.18
604.149	0.16
604.339	0.16
604.528	0.21
604.718	0.19
604.907	0.12
605.097	0.17
605.286	0.14
605.476	0.15
605.665	0.15
605.855	0.16
606.044	0.21
606.234	0.18
606.423	0.14
606.612	0.11
606.802	0.17
606.991	0.16
607.181	0.15
607.37	0.13
607.559	0.14
607.749	0.1
607.938	0.14
608.127	0.14
608.316	0.11
608.506	0.14
608.695	0.14
608.884	0.11
609.073	0.15
609.263	0.14
609.452	0.2
609.641	0.15
609.83	0.09
610.019	0.16
610.208	0.13
610.397	0.13
610.586	0.16
610.775	0.11
610.965	0.13
611.154	0.09
611.343	0.14
611.532	0.13
611.721	0.11
611.91	0.09
612.099	0.14
612.287	0.11
612.476	0.12
612.665	0.13
612.854	0.11
613.043	0.14
613.232	0.1
613.421	0.07
613.61	0.15
613.798	0.12
613.987	0.16
614.176	0.12
614.365	0.17
614.554	0.16
614.742	0.16
614.931	0.1
615.12	0.15
615.309	0.12
615.497	0.11
615.686	0.08
615.875	0.13
616.063	0.12
616.252	0.1
616.44	0.11
616.629	0.15
616.818	0.15
617.006	0.1
617.195	0.08
617.383	0.13
617.572	0.15
617.76	0.13
617.949	0.1
618.137	0.12
618.326	0.16
618.514	0.1
618.703	0.07
618.891	0.2
619.079	0.06
619.268	0.14
619.456	0.09
619.644	0.14
619.833	0.11
620.021	0.11
620.209	0.07
620.398	0.12
620.586	0.13
620.774	0.13
620.962	0.14
621.151	0.18
621.339	0.12
621.527	0.09
621.715	0.08
621.903	0.07
622.092	0.09
622.28	0.15
622.468	0.13
622.656	0.12
622.844	0.15
623.032	0.09
623.22	0.08
623.408	0.16
623.596	0.11
623.784	0.14
623.972	0.08
624.16	0.11
624.348	0.16
624.536	0.11
624.724	0.08
624.912	0.12
625.1	0.13
625.288	0.09
625.476	0.07
625.664	0.15
625.851	0.07
626.039	0.09
626.227	0.12
626.415	0.09
626.603	0.04
626.79	0.12
626.978	0.08
627.166	0.12
627.354	0.1
627.541	0.07
627.729	0.03
627.917	0.16
628.104	0.15
628.292	0.12
628.48	0.11
628.667	0.15
628.855	0.13
629.042	0.1
629.23	0.08
629.418	0.07
629.605	0.1
629.793	0.11
629.98	0.06
630.168	0.1
630.355	0.1
630.543	0.13
630.73	0.06
630.917	0.12
631.105	0.17
631.292	0.07
631.48	0.1
631.667	0.16
631.854	0.11
632.042	0.09
632.229	0.08
632.416	0.09
632.604	0.1
632.791	0.03
632.978	0.18
633.165	0.09
633.353	0.16
633.54	0.11
633.727	0.02
633.914	0.07
634.101	0.02
634.289	0.14
634.476	0.07
634.663	0.05
634.85	0.13
635.037	0.09
635.224	0.05
635.411	0.13
635.598	0.13
635.785	0.07
635.972	0.07
636.159	0.15
636.346	0.06
636.533	0.09
636.72	0.07
636.907	0.1
637.094	0.1
637.281	0.09
637.468	0.11
637.655	0.08
637.842	0.09
638.029	0.05
638.215	0.11
638.402	0.1
638.589	0.07
638.776	0.06
638.963	0.06
639.149	0.16
639.336	0.14
639.523	0.08
639.709	0.09
639.896	0.09
640.083	0.16
640.27	0.11
640.456	0.07
640.643	0.09
640.829	0.04
641.016	0.1
641.203	0.06
641.389	0.11
641.576	0.11
641.762	0.08
641.949	0.04
642.135	0.09
642.322	0.12
642.508	0.05
642.695	0.06
642.881	0.08
643.068	0.09
643.254	0.09
643.441	0.12
643.627	0.06
643.813	0.07
644	0.15
644.186	0.06
644.372	0.02
644.559	0.12
644.745	0.09
644.931	0.07
645.118	0.08
645.304	0.06
645.49	0.08
645.676	0.01
645.862	0.1
646.049	0.16
646.235	0.11
646.421	0.16
646.607	0.14
646.793	0.07
646.979	0.07
647.165	0.11
647.352	0.09
647.538	0.14
647.724	0.1
647.91	0.09
648.096	0.11
648.282	0.12
648.468	0.08
648.654	0.11
648.84	0.09
649.026	0.1
649.212	0.09
649.397	0.05
649.583	0.05
649.769	0.13
649.955	0.08
650.141	0.12
650.327	0.11
650.513	0.06
650.698	0.1
650.884	0.01
651.07	0.12
651.256	0.07
651.442	0.09
651.627	0.09
651.813	0.1
651.999	0.1
652.184	0.11
652.37	0.09
652.556	0.08
652.741	0.14
652.927	0.02
653.113	0.08
653.298	0.09
653.484	0.07
653.669	0.05
653.855	0.07
654.04	0.12
654.226	0.07
654.412	0.09
654.597	0
654.782	0.06
654.968	0.13
655.153	0.11
655.339	0.09
655.524	0.07
655.71	0.07
655.895	0.07
656.08	0.07
656.266	0.11
656.451	0.09
656.636	0.09
656.822	0.1
657.007	0.08
657.192	0.09
657.378	0.02
657.563	0.1
657.748	0.1
657.933	0.1
658.118	0.05
658.304	0.09
658.489	0.14
658.674	0.08
658.859	0.06
659.044	0.1
659.229	0.09
659.414	0.07
659.599	0.07
659.785	0.05
659.97	0.09
660.155	0.12
660.34	0.1
660.525	0.09
660.71	0.05
660.895	0.1
661.08	0.1
661.264	0.06
661.449	0.15
661.634	0.13
661.819	0.12
662.004	0.14
662.189	0.03
662.374	0.11
662.559	0.06
662.743	0.04
662.928	0.12
663.113	0.09
663.298	0.04
663.483	0.11
663.667	0.12
663.852	0.05
664.037	0.13
664.221	0.06
664.406	0.11
664.591	0.12
664.775	0.09
664.96	0.1
665.145	0.1
665.329	0.13
665.514	0.09
665.698	0.12
665.883	0.04
666.068	0.14
666.252	0.06
666.437	0.06
666.621	0.08
666.806	0.13
666.99	0.1
667.174	0.07
667.359	0.14
667.543	0.1
667.728	0.11
667.912	0.01
668.096	0.08
668.281	0.07
668.465	0.13
668.649	0.1
668.834	0.06
669.018	0.08
669.202	0.08
669.387	0.06
669.571	0.14
669.755	0.07
669.939	0.1
670.124	0.12
670.308	0.12
670.492	0.13
670.676	0.09
670.86	0.11
671.044	0.06
671.228	0.12
671.413	0.11
671.597	0.06
671.781	0.04
671.965	0.11
672.149	0.09
672.333	0.09
672.517	0.1
672.701	0.16
672.885	0.08
673.069	0.07
673.253	0.15
673.437	0.1
673.621	0.1
673.804	0.13
673.988	0.1
674.172	0.12
674.356	0.05
674.54	0.11
674.724	0.2
674.908	0.14
675.091	0.13
675.275	0.13
675.459	0.18
675.643	0.17
675.826	0.14
676.01	0.14
676.194	0.08
676.377	0.16
676.561	0.13
676.745	0.13
676.928	0.14
677.112	0.21
677.296	0.1
677.479	0.14
677.663	0.11
677.846	0.16
678.03	0.13
678.213	0.14
678.397	0.13
678.58	0.1
678.764	0.12
678.947	0.07
679.131	0.1
679.314	0.13
679.498	0.13
679.681	0.13
679.865	0.22
680.048	0.14
680.231	0.13
680.415	0.12
680.598	0.12
680.781	0.11
680.965	0.1
681.148	0.16
681.331	0.12
681.514	0.11
681.698	0.07
681.881	0.12
682.064	0.13
682.247	0.15
682.43	0.04
682.614	0.14
682.797	0.17
682.98	0.16
683.163	0.1
683.346	0.18
683.529	0.1
683.712	0.07
683.895	0.14
684.078	0.07
684.261	0.11
684.444	0.13
684.627	0.13
684.81	0.09
684.993	0.14
685.176	0.18
685.359	0.13
685.542	0.1
685.725	0.11
685.908	0.11
686.091	0.09
686.274	0.18
686.457	0.17
686.639	0.12
686.822	0.13
687.005	0.18
687.188	0.11
687.371	0.2
687.553	0.17
687.736	0.13
687.919	0.22
688.102	0.17
688.284	0.1
688.467	0.05
688.65	0.11
688.832	0.08
689.015	0.14
689.197	0.05
689.38	0.22
689.563	0.19
689.745	0.09
689.928	0.06
690.11	0.08
690.293	0.11
690.475	0.03
690.658	0.16
690.84	0.12
691.023	0.08
691.205	0.11
691.388	0.12
691.57	0.17
691.752	0.11
691.935	0.05
692.117	0.1
692.3	0.1
692.482	0.09
692.664	0.13
692.847	0.11
693.029	0.15
693.211	0.15
693.393	0.1
693.576	0.05
693.758	0.12
693.94	0.08
694.122	0.1
694.304	0.13
694.487	0.07
694.669	0.16
694.851	0.04
695.033	0.11
695.215	0.08
695.397	0.11
695.579	0.1
695.761	0.08
695.943	0.06
696.125	0.21
696.308	0.08
696.49	-0.02
696.671	0.23
696.853	0.07
697.035	0.28
697.217	0.1
697.399	0.11
697.581	0.12
697.763	0.11
697.945	0.03
698.127	0.13
698.309	0.17
698.491	0.17
698.672	0.16
698.854	0.14
699.036	0.23
699.218	0.13
699.399	0.18
699.581	0.18
699.763	0.09
699.945	0.07
700.126	0.07
700.308	0.13
700.49	0.13
700.671	0.06
700.853	0.05
701.035	0.08
701.216	0.16
701.398	0.07
701.579	0.12
701.761	0.17
701.943	0.11
702.124	0.14
702.306	0.08
702.487	0.27
702.669	0.1
702.85	0.01
703.031	0.05
703.213	0.22
703.394	0.19
703.576	0.14
703.757	0.18
703.938	0.15
704.12	0.24
704.301	0.16
704.483	0.09
704.664	0.13
704.845	0.23
705.026	0.17
705.208	0.18
705.389	0.13
705.57	0.12
705.751	0.1
705.933	0.13
706.114	0.23
706.295	0.18
706.476	0.07
706.657	0.19
706.838	0.13
707.02	0.17
707.201	0.13
707.382	0.1
707.563	0.2
707.744	0.09
707.925	0.12
708.106	0.07
708.287	0.13
708.468	0.23
708.649	0.18
708.83	0.1
709.011	0.05
709.192	0.12
709.373	0.04
709.554	0.12
709.734	0.11
709.915	0.17
710.096	0.13
710.277	0.02
710.458	0.16
710.639	0.16
710.819	0.03
711	0.12
711.181	0.21
711.362	0.18
711.542	0.11
711.723	0.1
711.904	0.18
712.085	0.15
712.265	0.12
712.446	0.03
712.627	0.08
712.807	0.13
712.988	0.15
713.168	0.06
713.349	0.2
713.53	-0
713.71	0.08
713.891	0.03
714.071	0.1
714.252	0.08
714.432	0.12
714.613	0.01
714.793	0.12
714.974	0.21
715.154	0.19
715.334	0.15
715.515	0.23
715.695	0.11
715.876	0.1
716.056	0.16
716.236	0.1
716.417	0.15
716.597	0.08
716.777	0.21
716.957	0.17
717.138	0.07
717.318	0.15
717.498	0.08
717.678	0.14
717.859	0.17
718.039	0.07
718.219	0.13
718.399	0.14
718.579	0.09
718.759	0.05
718.939	0.16
719.12	0.1
719.3	0.18
719.48	-0.03
719.66	0.01
719.84	0.26
720.02	0.09
720.2	0.05
720.38	0.18
720.56	0.24
720.74	0.12
720.92	0.12
721.1	0.26
721.279	0.2
721.459	0.12
721.639	0.1
721.819	0.18
721.999	0.07
722.179	0.18
722.359	-0.04
722.538	0.15
722.718	0.16
722.898	0.08
723.078	0.12
723.257	0.07
723.437	0.12
723.617	0.18
723.797	0.14
723.976	0.04
724.156	0.25
724.336	0.29
724.515	0.31
724.695	-0.06
724.874	0.13
725.054	0.14
725.234	0.02
725.413	0.16
725.593	0.14
725.772	0.14
725.952	0.19
726.131	0.1
726.311	0.13
726.49	0.11
726.67	0.02
726.849	0.13
727.028	0.19
727.208	0.1
727.387	0.11
727.567	0.03
727.746	0.11
727.925	0.03
728.105	0.07
728.284	0.16
728.463	0.11
728.643	0.19
728.822	0.07
729.001	0.1
729.18	0.12
729.359	0.08
729.539	0.1
729.718	0.17
729.897	0.16
730.076	0.11
730.255	0.04
730.434	0.07
730.614	0.23
730.793	0.15
730.972	0.12
731.151	0.11
731.33	0.22
731.509	0.15
731.688	0.18
731.867	0.19
732.046	0.05
732.225	0.35
732.404	0.02
732.583	0.05
732.762	0.21
732.941	0.13
733.12	0.19
733.298	0.17
733.477	0.17
733.656	0.11
733.835	0.12
734.014	0.2
734.193	0.17
734.371	0.19
734.55	0.16
734.729	-0.01
734.908	0.14
735.086	0.14
735.265	0.19
735.444	0
735.623	-0.02
735.801	0.04
735.98	0.09
736.159	0.07
736.337	0.19
736.516	0.19
736.694	0.19
736.873	0.08
737.052	0.27
737.23	0.32
737.409	0.13
737.587	0.4
737.766	-0.03
737.944	0.06
738.123	0.23
738.301	0.14
738.479	0.06
738.658	0.22
738.836	0.02
739.015	0.12
739.193	0.36
739.371	0.01
739.55	0.15
739.728	0.1
739.906	0.31
740.085	0.38
740.263	0.19
740.441	-0.11
740.62	0.37
740.798	0.21
740.976	0.09
741.154	0.02
741.332	0.29
741.511	0.15
741.689	0.21
741.867	0.18
742.045	0.1
742.223	0.17
742.401	0.06
742.579	0.11
742.757	0.14
742.935	0
743.114	0.05
743.292	0.15
743.47	0.08
743.648	0.18
743.826	0.11
744.004	0.15
744.181	0.33
744.359	0.03
744.537	0.1
744.715	0.05
744.893	0.17
745.071	0.12
745.249	0.06
745.427	0.17
745.605	0.21
745.782	0.16
745.96	0.15
746.138	0.17
746.316	0.27
746.493	0.1
746.671	0.17
746.849	0.14
747.027	0.32
747.204	0.01
747.382	0.14
747.56	-0
747.737	0.1
747.915	0.17
748.093	0.25
748.27	0.07
748.448	0.09
748.625	-0.01
748.803	0.12
748.98	0.12
749.158	0.2
749.335	0.21
749.513	0.1
749.69	0.04
749.868	0.12
750.045	0.2
750.223	0.12
750.4	-0.07
750.578	0.34
750.755	0.07
750.932	-0.04
751.11	0.23
751.287	0.02
751.464	0.28
751.642	0.05
751.819	0.1
751.996	0.16
752.173	0.16
752.351	0
752.528	0.13
752.705	0.11
752.882	0.11
753.06	0.17
753.237	0.23
753.414	0.24
753.591	0.29
753.768	0.14
753.945	0.04
754.122	0.1
754.299	0.21
754.476	0.03
754.654	0.12
754.831	0.19
755.008	0.17
755.185	0.11
755.362	0.09
755.539	0.12
755.716	0.12
755.892	0.16
756.069	0.13
756.246	0.16
756.423	0.11
756.6	0.27
756.777	0.07
756.954	0.28
757.131	0.16
757.307	0.04
757.484	0.07
757.661	0.16
757.838	0.23
758.015	0.22
758.191	0.16
758.368	0.22
758.545	0.2
758.721	0.18
758.898	0.05
759.075	0.27
759.251	0.14
759.428	0.24
759.605	-0
759.781	0.11
759.958	0.22
760.134	0.1
760.311	0.11
760.488	0.35
760.664	0.27
760.841	0.15
761.017	0.02
761.194	0.21
761.37	0.17
761.547	0.21
761.723	0.14
761.899	0.34
762.076	0
762.252	-0.05
762.429	0.11
762.605	0.26
762.781	0.18
762.958	0.29
763.134	0.04
763.31	0.01
763.486	0.23
763.663	-0.06
763.839	0.21
764.015	-0.11
764.191	0.19
764.368	0.19
764.544	0.09
764.72	0.21
764.896	0.27
765.072	0.24
765.248	0.03
765.425	0.13
765.601	0.14
765.777	0.08
765.953	-0.03
766.129	0.1
766.305	0.09
766.481	0.23
766.657	0.16
766.833	0.29
767.009	-0.06
767.185	0.12
767.361	0.12
767.537	0.1
767.713	0.36
767.889	0.11
768.065	0.11
768.24	-0.04
768.416	0.27
768.592	0.16
768.768	0.25
768.944	0.18
769.12	0.04
769.295	0.05
769.471	0.08
769.647	0.15
769.823	0.28
769.998	0.12
770.174	0.09
770.35	0.41
770.525	0.41
770.701	0.19
770.877	0.03
771.052	0.08
771.228	0.27
771.403	0.24
771.579	0.14
771.755	0.47
771.93	0.19
772.106	0.05
772.281	0.08
772.457	0.1
772.632	0.27
772.808	-0.05
772.983	0.05
773.159	0.07
773.334	0.31
773.509	0.06
773.685	-0.05
773.86	0.51
774.036	0.3
774.211	0.1
774.386	0.14
774.562	0.31
774.737	0.28
774.912	0.05
775.087	0.34
775.263	0.18
775.438	0.16
775.613	0.13
775.788	0.1
775.964	0.31
776.139	0.49
776.314	-0.02
776.489	0.16
776.664	0.23
776.839	0.06
777.014	0.18
777.19	0.32
777.365	0.34
777.54	0.37
777.715	0.08
777.89	0.17
778.065	0.06
778.24	0.07
778.415	0.37
778.59	0.08
778.765	0.13
778.94	0.02
779.115	0.11
779.289	0.17
779.464	0.19
779.639	0.14
779.814	0.01
779.989	-0.1
780.164	0.3
780.339	0.27
780.513	0.06
780.688	-0.09
780.863	0.12
781.038	0.34
781.212	-0.14
781.387	0.11
781.562	0.51
781.737	0.09
781.911	0.47
782.086	0.24
782.261	0.15
782.435	0.51
782.61	0.11
782.784	0.22
782.959	0.31
783.134	-0.01
783.308	0.11
783.483	0.11
783.657	0.64
783.832	0.46
784.006	-0.16
784.181	0.29
784.355	0.26
784.53	-0.08
784.704	0.06
784.878	0.38
785.053	0.34
785.227	0.32
785.402	0.55
785.576	0.09
785.75	-0.02
785.925	0.17
786.099	0.29
786.273	0.35
786.448	0.39
786.622	0.37
786.796	-0.03
786.97	0.28
787.145	0.43
787.319	-0.11
787.493	0.14
787.667	-0.04
787.841	0.03
788.015	0.22
788.19	0.13
788.364	0.28
788.538	0.34
788.712	0.45
788.886	0.1
789.06	0.42
789.234	0.38
789.408	0.04
789.582	0.19
789.756	0.08
789.93	0.01
790.104	0.18
790.278	0.2
790.452	0.06
790.626	0.4
790.8	0.12
790.973	0.4
791.147	0.32
791.321	0.48
791.495	0.32
791.669	0.35
791.843	0.28
792.016	0.44
792.19	0.58
792.364	0.2
792.538	0.71
792.711	0.42
792.885	0.08
793.059	0.05
793.233	-0.43
793.406	0.59
793.58	0.31
793.754	0.29
793.927	0.09
794.101	0.54
794.274	0.28
794.448	0.29
794.622	0.13
794.795	0.43
794.969	0.07
795.142	0.58
795.316	0.26
795.489	0.32
795.663	0.84
795.836	0.09
796.009	-0.04
796.183	0.61
796.356	0.42
796.53	0.35
796.703	0.02
796.876	0.67
797.05	0.1
797.223	0.34
797.396	0.37
797.57	0.24
797.743	0.43
797.916	0.07
798.09	0.09
798.263	0.5
798.436	0.33
798.609	-0.02
798.782	0.22
798.956	0.35
799.129	0.09
799.302	0.25
799.475	0.16
799.648	0.08
799.821	0.24
799.994	0.17
800.167	-0.08
800.34	0.12
800.514	0.27
800.687	0.18
800.86	0.21
801.033	0.11
801.206	0.34
801.379	-0.19
801.551	0.41
801.724	0.55
801.897	0.73
802.07	0.06
802.243	-0.16
802.416	0.29
802.589	0.17
802.762	0.53
802.935	0.43
803.107	0.52
803.28	0.64
803.453	0.17
803.626	0.23
803.798	-0.01
803.971	0.11
804.144	0.53
804.317	0.39
804.489	0.6
804.662	0.19
804.835	0.42
805.007	-0.04
805.18	0.79
805.353	0.58
805.525	0.12
805.698	-0
805.87	0.45
806.043	0.49
806.215	0.19
806.388	0.25
806.56	0.43
806.733	0.74
806.905	0.42
807.078	0.12
807.25	0.15
807.423	0.51
807.595	0.33
807.768	0.33
807.94	0.72
808.112	0.24
808.285	0.24
808.457	0.25
808.629	0.21
808.802	0.39
808.974	0.18
809.146	0.33
809.318	-0.23
809.491	0.09
809.663	0.45
809.835	0.04
810.007	0.85
810.18	0.59
810.352	0.17
810.524	-0.07
810.696	0.29
810.868	0.66
811.04	0.33
811.212	0.36
811.384	0.69
811.556	0.46
811.728	0.34
811.901	0.47
812.073	0.05
812.245	0.74
812.417	0.31
812.589	-0.21
812.76	0.47
812.932	0.49
813.104	0.47
813.276	0.17
813.448	0.48
813.62	0
813.792	0.91
813.964	0.55
814.136	0.66
814.307	-0.32
814.479	0.21
814.651	0.54
814.823	0.7
814.995	0.51
815.166	0.34
815.338	0.16
815.51	0.32
815.681	1.19
815.853	0.36
816.025	0.25
816.196	0.98
816.368	1.05
816.54	-0.26
816.711	0.26
816.883	0.4
817.054	1.19
817.226	-0.35
817.398	0.42
817.569	0.3
817.741	0.06
817.912	0.25
818.084	0.13
818.255	0.88
818.426	0.09
818.598	0.16
818.769	-0.22
818.941	0.59
819.112	0.67
819.283	0.55
819.455	-0.08
819.626	0.76
819.798	0.69
819.969	0.53
820.14	0.28
820.311	0.09
820.483	0.55
820.654	0.58
820.825	0.33
820.996	0.47
821.168	0.04
821.339	0.45
821.51	0.02
821.681	0.16
821.852	0.33
822.023	-0.23
822.195	-0.46
822.366	0.57
822.537	0.22
822.708	0.2
822.879	0.17
823.05	1.14
823.221	0.7
823.392	0.48
823.563	0.16
823.734	0.91
823.905	0.55
824.076	0.07
824.247	0.29
824.418	0.16
824.589	0.9
824.759	0.52
824.93	0.62
825.101	0.07
825.272	0.53
825.443	0.6
825.614	0.66
825.784	-0.44
825.955	1.2
826.126	1.18
826.297	0.87
826.467	0.85
826.638	0.93
826.809	0.09
826.98	0.3
827.15	0.71
827.321	0.56
827.492	1
827.662	0.15
827.833	1.5
828.003	0.93
828.174	0.44
828.345	-0.29
828.515	1.5
828.686	0.88
828.856	0
829.027	0.45
829.197	1.11
829.368	0.61
829.538	0.39
829.709	0.24
829.879	0.24
830.049	0.03
830.22	0.65
830.39	0.43
830.56	0.98
830.731	0.54
830.901	-0.18
831.072	0.72
831.242	0.52
831.412	0.34
831.582	-0.27
831.753	-0.3
831.923	0.98
832.093	0.63
832.263	0.28
832.434	0.46
832.604	0.59
832.774	0.66
832.944	-0.13
833.114	-0.02
833.284	0.91
833.454	-0.32
833.624	0.07
833.795	-0.29
833.965	1.38
834.135	1.37
834.305	-0.42
834.475	0.06
834.645	0.11
834.815	-0.06
834.985	0.03
835.155	0.32
835.325	0.48
835.494	0.71
835.664	0.37
835.834	-0.52
836.004	0.7
836.174	0.67
836.344	0.53
836.514	-0.36
836.684	0.65
836.853	0.7
837.023	0.58
837.193	-0.06
837.363	1.07
837.532	1.24
837.702	0.66
837.872	0.34
838.041	1.67
838.211	2.4
838.381	-0.41
838.55	0.61
838.72	2.41
838.89	0.75
839.059	0.39
839.229	0
839.398	1.65
839.568	0.63
839.738	0.75
839.907	1.52
840.077	1.08
840.246	-0.25
840.416	-0.1
840.585	-0.36
840.755	1.02
840.924	1.17
841.093	-0.36
841.263	-0.15
841.432	0.55
841.602	0.13
841.771	0.19
841.94	-0.03
842.11	1.59
842.279	1.71
842.448	0.07
842.617	0.15
842.787	1.3
842.956	-0.02
843.125	-0.34
843.294	0.7
843.464	1.59
843.633	0.85
843.802	-0.63
843.971	0.39
844.14	1.25
844.309	1.28
844.479	0.11
844.648	-0.45
844.817	0.81
844.986	1.06
845.155	0.15
845.324	0.41
845.493	0.21
845.662	0.71
845.831	1.49
846	1.12
846.169	0.62
846.338	1.67
846.507	1.03
846.676	1.45
846.844	0.31
847.013	1.37
847.182	0.98
847.351	0.51
847.52	1.33
847.689	1.02
847.858	0.54
848.026	0.32
848.195	0.82
848.364	0.49
848.533	0.08
848.701	-0.25
848.87	0.9
849.039	1.46
849.207	1.14
849.376	1.5
849.545	1.16
849.713	0.33
849.882	-0.15
850.051	0.49
850.219	1.23
850.388	0.89
850.556	0.35
850.725	-0.33
850.893	0.81
851.062	0.67
851.23	1.07
851.399	0.09
851.567	0.04
851.736	-0.22
851.904	-0.18
852.073	1.08
852.241	1.46
852.41	-0.16
852.578	-0.35
852.746	0.4
852.915	1.49
853.083	0.84
853.251	0.22
853.42	-0.26
853.588	0.68
853.756	2.91
853.924	0.79
854.093	0.97
854.261	1.21
854.429	-0.79
854.597	1.23
854.765	-0.03
854.934	1.38
855.102	1.23
855.27	0.8
855.438	0.65
855.606	3.22
855.774	1.35
855.942	-0.19
856.11	-0.57
856.278	0.85
856.446	1.56
856.614	0.98
856.782	-0.32
856.95	1.13
857.118	0.21
857.286	0.83
857.454	0.52
857.622	1.71
857.79	1.62
857.958	-0.23
858.126	0.37
858.294	-1.29
858.462	0.62
858.629	0.79
858.797	0.15
858.965	0.73
859.133	0.31
859.301	1.05
859.468	1.26
859.636	0.2
859.804	2.51
859.971	0.56
860.139	-0.41
860.307	1.12
860.474	0.19
860.642	-0.47
860.81	0.25
860.977	-0.19
861.145	2.47
861.313	-0.18
861.48	1.76
861.648	1.25
861.815	0.93
861.983	-0.26
862.15	0.16
862.318	1.37
862.485	2.45
862.653	0.39
862.82	0.3
862.988	2.85
863.155	-1.02
863.322	-0.53
863.49	0.16
863.657	-0.03
863.824	3.09
863.992	2.13
864.159	1.76
864.326	2.37
864.494	0.63
864.661	3.48
864.828	-0.2
864.996	2.18
865.163	3.11
865.33	0.22
865.497	-0.96
865.664	1.52
865.832	0.75
865.999	0.43
866.166	0.44
866.333	0.2
866.5	0.19
866.667	2.29
866.834	0.97
867.001	2.63
867.168	-0.9
867.335	3.3
867.502	-1.32
867.669	1.54
867.836	3.42
868.003	0.59
868.17	2.34
868.337	1.89
868.504	4.25
868.671	-0.32
868.838	0.67
869.005	0.91
869.172	1.58
869.339	1.15
869.505	0.2
869.672	0.5
869.839	4.51
870.006	1.96
870.173	-0.76
870.339	0.62
870.506	4.07
870.673	-0.46
870.84	1.45
871.006	1.25
871.173	1
871.34	1.86
871.506	0.62
871.673	3.27
871.839	-0.22
872.006	1.84
872.173	0.95
872.339	-0.53
872.506	2.61
872.672	0.84
872.839	-1.57
873.005	1.11
873.172	5.01
873.338	1.18
873.505	2.31
873.671	-0.02
873.838	2.28
874.004	-1.98
874.171	-0.49
874.337	1.09
874.503	3.45
874.67	2.92
874.836	-0.71
875.002	2.38
875.169	2.93
875.335	2.54
875.501	0.61
875.668	1.88
875.834	1.04
876	1.27
876.166	2.5
876.332	2.9
876.499	3.11
876.665	0.57
876.831	3.44
876.997	4.31
877.163	2.89
877.329	0.74
877.495	2.61
877.662	2.94
877.828	2.52
877.994	0.58
878.16	-1.52
878.326	0.71
878.492	2.21
878.658	-0.01
878.824	1.7
878.99	0.59
879.156	-0.72
879.322	5.28
879.487	1.19
879.653	1.38
879.819	0.96
879.985	1.03
880.151	1.71
880.317	2.44
880.483	1.67
880.648	2.31
880.814	-1.33
880.98	3.16
881.146	-1.81
881.312	1.04
881.477	1.53
881.643	1.57
881.809	2.33
881.974	4.2
882.14	0.99
882.306	2.46
882.471	4.44
882.637	0.46
882.803	2.6
882.968	3.32
883.134	4.16
883.299	0.57
883.465	0.37
883.63	3.52
883.796	2.51
883.961	2.55
884.127	1.46
884.292	-1.85
884.458	-1.54
884.623	-1.54
