Data from Apollo_Calib_20240827__AbsoluteIrradiance__530__07-59-01-153.txt Node

Date: Wed Aug 28 07:59:01 BST 2024
User: biology
Spectrometer: FLMT08252
Trigger mode: 0
Integration Time (sec): 5.000000E-1
Scans to average: 5
Electric dark correction enabled: true
Nonlinearity correction enabled: false
Boxcar width: 0
XAxis mode: Wavelengths
Number of Pixels in Spectrum: 3648
>>>>>Begin Spectral Data<<<<<
179.588	-0
179.809	-0
180.03	-0
180.251	-0
180.473	-0
180.694	0
180.915	0
181.136	-0
181.357	0
181.578	-0
181.799	-0
182.02	-0
182.241	0
182.462	-0
182.683	0
182.904	0
183.125	0
183.346	0
183.567	0
183.788	-0
184.009	-0
184.23	0
184.451	0
184.672	-0
184.892	-0
185.113	0
185.334	0
185.555	-0
185.776	-0
185.996	0
186.217	-0
186.438	-0
186.659	-0
186.879	0
187.1	-0
187.321	-0
187.541	-0
187.762	-0
187.983	-0
188.203	0
188.424	0
188.644	-0
188.865	-0
189.086	-0
189.306	-0
189.527	-0
189.747	0
189.968	-0
190.188	0
190.409	-0
190.629	0
190.849	-0
191.07	-0
191.29	0
191.511	-0
191.731	-0
191.951	-0
192.172	-0
192.392	-0
192.612	-0
192.833	0
193.053	0
193.273	0
193.493	-0
193.714	-0
193.934	0
194.154	0
194.374	0
194.594	-0
194.815	0
195.035	-0
195.255	-0
195.475	-0
195.695	0
195.915	0
196.135	-0
196.355	0
196.575	0
196.795	-0
197.015	-0
197.235	-0
197.455	-0
197.675	-0
197.895	-0
198.115	-0
198.335	-0
198.555	-0
198.775	-0
198.995	0
199.214	0
199.434	-0
199.654	-0
199.874	-0
200.094	0.13
200.313	-0.62
200.533	0.09
200.753	-0.8
200.973	0.31
201.192	0.42
201.412	-1.09
201.632	-0.52
201.851	0.58
202.071	-0.79
202.291	-0.38
202.51	-0.67
202.73	0.12
202.95	-0.88
203.169	-0.66
203.389	0.13
203.608	-0.1
203.828	-0.6
204.047	-0.44
204.267	-0.13
204.486	-0.16
204.706	-0.17
204.925	-0.54
205.145	-0.26
205.364	0.15
205.583	0.39
205.803	-0.41
206.022	-0.48
206.242	-0.07
206.461	0.21
206.68	-0.54
206.9	0.08
207.119	0.49
207.338	0.23
207.557	-0.12
207.777	-0.23
207.996	-0.03
208.215	0.08
208.434	0.01
208.654	-0.43
208.873	-0.14
209.092	0.44
209.311	-0.37
209.53	-0.25
209.749	0.02
209.968	-0.29
210.187	-0.07
210.407	-0.41
210.626	-0.23
210.845	0.06
211.064	-0.24
211.283	-0.45
211.502	0.38
211.721	-0.26
211.94	-0.13
212.159	0.21
212.377	0.43
212.596	0.35
212.815	-0.04
213.034	-0.11
213.253	0.25
213.472	0.16
213.691	-0.31
213.91	-0.31
214.128	-0.06
214.347	0.4
214.566	-0.4
214.785	-0.33
215.003	0.08
215.222	-0.11
215.441	-0.05
215.66	-0.25
215.878	-0.05
216.097	0.15
216.316	-0.49
216.534	-0.19
216.753	0.03
216.972	-0.1
217.19	-0.02
217.409	-0.16
217.627	-0.28
217.846	-0.28
218.064	0.07
218.283	-0.4
218.501	0.43
218.72	0.24
218.938	-0.24
219.157	-0.2
219.375	0.08
219.594	0.15
219.812	-0.47
220.031	-0.26
220.249	0.2
220.467	0.19
220.686	-0.06
220.904	-0.23
221.122	-0.13
221.341	0.24
221.559	-0.11
221.777	-0.35
221.995	-0.05
222.214	0.1
222.432	-0.15
222.65	0.03
222.868	0.01
223.086	0.09
223.305	0.09
223.523	-0.09
223.741	0.15
223.959	-0.22
224.177	-0.31
224.395	-0.11
224.613	-0.09
224.831	0.13
225.049	-0.2
225.267	-0.14
225.485	0.08
225.703	-0.19
225.921	-0.18
226.139	-0.05
226.357	0.04
226.575	-0.08
226.793	-0.12
227.011	0.52
227.229	0.11
227.447	0.02
227.665	-0.09
227.883	-0.21
228.1	-0.05
228.318	0.12
228.536	-0.28
228.754	-0.11
228.972	-0.01
229.189	-0.09
229.407	-0.11
229.625	-0.14
229.843	0.06
230.06	0.04
230.278	-0.13
230.496	-0.11
230.713	0.04
230.931	0.11
231.149	-0.1
231.366	-0.21
231.584	-0.04
231.801	0.31
232.019	-0.14
232.236	-0.23
232.454	-0.27
232.671	0.11
232.889	-0.11
233.106	-0.16
233.324	-0.14
233.541	-0.04
233.759	-0
233.976	-0.02
234.194	-0.07
234.411	-0.02
234.628	-0.07
234.846	-0.02
235.063	-0.06
235.28	-0.09
235.498	-0.02
235.715	-0.16
235.932	0.16
236.149	-0.03
236.367	-0.19
236.584	-0.03
236.801	-0.17
237.018	0.15
237.236	-0.06
237.453	-0.06
237.67	0.12
237.887	-0.03
238.104	-0.04
238.321	-0.14
238.538	-0.03
238.755	0.17
238.973	-0.17
239.19	-0.03
239.407	0.01
239.624	0.07
239.841	-0.19
240.058	-0.07
240.275	-0.02
240.492	0.02
240.709	-0.01
240.925	-0.15
241.142	-0.06
241.359	-0.07
241.576	-0.06
241.793	-0.07
242.01	0.01
242.227	-0.01
242.444	-0.04
242.66	0.18
242.877	-0.03
243.094	-0.13
243.311	0
243.527	-0.06
243.744	-0.04
243.961	0.08
244.178	-0.08
244.394	0.03
244.611	0
244.828	0.13
245.044	-0.06
245.261	-0.11
245.477	0.03
245.694	-0.03
245.911	-0.05
246.127	-0.01
246.344	0.2
246.56	0.04
246.777	-0
246.993	-0.1
247.21	0.06
247.426	0.05
247.643	-0.07
247.859	-0.07
248.076	-0.01
248.292	0.17
248.508	-0.08
248.725	-0.04
248.941	0.01
249.157	0.09
249.374	-0.09
249.59	-0.06
249.806	-0.03
250.023	-0.02
250.239	-0.07
250.455	-0.1
250.671	0.02
250.888	-0.01
251.104	0.04
251.32	-0.02
251.536	-0.05
251.752	-0.04
251.969	-0.03
252.185	-0.01
252.401	0.09
252.617	0.01
252.833	-0.13
253.049	0.02
253.265	-0.04
253.481	0.02
253.697	0.01
253.913	-0.13
254.129	-0.02
254.345	0
254.561	-0.02
254.777	-0.01
254.993	0.06
255.209	0.01
255.425	-0.04
255.641	-0.06
255.857	0.03
256.073	-0.08
256.288	-0.06
256.504	-0.05
256.72	-0.03
256.936	0.1
257.152	-0.04
257.367	-0.07
257.583	0.03
257.799	0.07
258.015	-0.1
258.23	-0.07
258.446	0.09
258.662	-0.1
258.877	-0.06
259.093	-0.03
259.309	-0.03
259.524	-0.03
259.74	-0
259.955	-0.12
260.171	0.05
260.387	-0.04
260.602	0.06
260.818	0.09
261.033	-0.11
261.249	-0.03
261.464	-0.09
261.68	-0.12
261.895	-0
262.11	-0.03
262.326	-0.11
262.541	-0.13
262.757	0.08
262.972	-0.05
263.187	-0.01
263.403	-0
263.618	0.05
263.833	-0.03
264.049	-0.05
264.264	-0.02
264.479	0.05
264.694	0.08
264.91	-0.08
265.125	-0.04
265.34	0.03
265.555	0.14
265.77	-0.01
265.986	-0.1
266.201	0.08
266.416	0.07
266.631	-0.02
266.846	-0.06
267.061	0.01
267.276	0.11
267.491	-0.17
267.706	0
267.921	-0.03
268.136	0
268.351	0.02
268.566	-0.12
268.781	0.07
268.996	0.02
269.211	-0.03
269.426	-0.03
269.641	-0.01
269.856	0.05
270.071	-0.05
270.285	-0.06
270.5	0.11
270.715	0.01
270.93	-0.03
271.145	-0.01
271.359	0.02
271.574	-0.07
271.789	0.02
272.004	-0.06
272.218	-0.1
272.433	0.01
272.648	-0.11
272.862	0.06
273.077	-0.03
273.292	0.02
273.506	-0.05
273.721	0.03
273.936	0
274.15	-0.03
274.365	-0.04
274.579	0.01
274.794	0
275.008	0.06
275.223	-0.03
275.437	0.01
275.652	0.08
275.866	-0.01
276.081	-0.01
276.295	0.03
276.509	0.02
276.724	-0.05
276.938	-0
277.153	0.02
277.367	-0.02
277.581	-0.12
277.796	-0.09
278.01	-0.1
278.224	0.06
278.438	0.09
278.653	-0.09
278.867	-0.02
279.081	-0.22
279.295	0.02
279.51	0
279.724	-0.11
279.938	0
280.152	0.01
280.366	-0.08
280.58	0
280.794	0.04
281.008	-0
281.222	0.06
281.437	0.13
281.651	-0
281.865	0.07
282.079	-0.04
282.293	-0.11
282.507	-0.04
282.721	-0.01
282.935	-0.07
283.148	-0.1
283.362	-0.04
283.576	-0.08
283.79	-0.01
284.004	-0.07
284.218	0.06
284.432	-0.05
284.646	0
284.859	-0.01
285.073	-0.03
285.287	0.01
285.501	-0.02
285.714	-0.01
285.928	0.02
286.142	-0.07
286.356	0.04
286.569	-0.04
286.783	0.08
286.997	0.04
287.21	0.02
287.424	0.02
287.637	-0.06
287.851	-0.02
288.065	0
288.278	-0.03
288.492	0.01
288.705	-0.04
288.919	-0
289.132	-0.05
289.346	0.04
289.559	-0.06
289.773	-0.05
289.986	-0.02
290.2	0.03
290.413	0.03
290.626	-0.07
290.84	-0.02
291.053	-0.04
291.267	0.03
291.48	0
291.693	-0
291.906	-0.01
292.12	-0.04
292.333	-0.06
292.546	-0.05
292.76	0.07
292.973	0.01
293.186	0.03
293.399	-0.05
293.612	0.06
293.826	-0.04
294.039	0.03
294.252	-0.03
294.465	0.01
294.678	0
294.891	-0.01
295.104	-0.04
295.317	-0.01
295.53	0.03
295.743	-0.04
295.956	0.04
296.169	0.02
296.382	0.04
296.595	-0.02
296.808	-0.05
297.021	0.04
297.234	0.01
297.447	0
297.66	-0
297.873	0.01
298.086	0.06
298.299	-0.04
298.511	-0.05
298.724	-0.02
298.937	-0.05
299.15	-0.02
299.363	0
299.575	0.02
299.788	0.06
300.001	-0.02
300.213	-0.02
300.426	-0.04
300.639	-0.04
300.852	-0.03
301.064	0.01
301.277	0.04
301.489	0.01
301.702	0.04
301.915	-0.03
302.127	0.03
302.34	0.04
302.552	0.02
302.765	-0.04
302.977	-0.02
303.19	0
303.402	-0.03
303.615	-0.03
303.827	-0.04
304.04	-0.01
304.252	0.03
304.464	0
304.677	0.14
304.889	0.03
305.102	-0
305.314	-0.04
305.526	0.03
305.739	0.02
305.951	-0.03
306.163	-0.03
306.375	0.08
306.588	-0.01
306.8	-0.02
307.012	-0.04
307.224	0.01
307.436	0.04
307.649	-0.06
307.861	0.04
308.073	-0.01
308.285	-0
308.497	-0.06
308.709	-0.03
308.921	0
309.133	0.03
309.346	0
309.558	-0
309.77	0.01
309.982	0.01
310.194	-0
310.406	-0.05
310.617	0.07
310.829	0.02
311.041	0.01
311.253	-0.05
311.465	0.01
311.677	-0.02
311.889	-0
312.101	-0.06
312.313	0.01
312.524	0.01
312.736	-0.09
312.948	-0
313.16	0.1
313.372	0.04
313.583	0.01
313.795	0
314.007	-0.06
314.218	0.02
314.43	-0.02
314.642	-0.06
314.853	-0.04
315.065	0.02
315.277	-0.02
315.488	-0.02
315.7	-0.02
315.912	-0
316.123	-0.05
316.335	0.03
316.546	0.09
316.758	-0
316.969	-0.01
317.181	-0.02
317.392	-0.02
317.604	0.03
317.815	-0
318.026	-0.03
318.238	-0.01
318.449	0
318.661	-0.08
318.872	-0.06
319.083	-0.05
319.295	0.05
319.506	-0.02
319.717	-0.02
319.929	0.02
320.14	-0.01
320.351	-0.02
320.562	-0.05
320.774	0
320.985	-0.02
321.196	-0.06
321.407	-0.06
321.618	0.05
321.829	-0.02
322.041	-0.02
322.252	-0
322.463	0.05
322.674	0.06
322.885	-0.02
323.096	0.02
323.307	0.02
323.518	0.02
323.729	-0.01
323.94	-0.01
324.151	-0.02
324.362	-0.02
324.573	0.01
324.784	-0.01
324.995	0.03
325.206	0.03
325.417	-0.06
325.628	-0.01
325.838	0
326.049	-0.01
326.26	-0.01
326.471	-0.01
326.682	0.04
326.892	0.01
327.103	-0.09
327.314	-0.07
327.525	0.04
327.735	0.03
327.946	0.02
328.157	-0.01
328.368	0.02
328.578	-0.04
328.789	0
328.999	-0.02
329.21	0.01
329.421	0.04
329.631	-0.05
329.842	-0.04
330.052	0.02
330.263	0
330.473	0.02
330.684	-0.01
330.894	-0.03
331.105	-0.01
331.315	-0.05
331.526	-0.06
331.736	0.07
331.947	0.01
332.157	0.05
332.367	-0.06
332.578	0.03
332.788	0.03
332.999	0
333.209	-0.01
333.419	-0.06
333.629	0.02
333.84	0.04
334.05	-0.03
334.26	0.08
334.47	0
334.681	0.04
334.891	-0.02
335.101	0.02
335.311	0.07
335.521	-0.04
335.732	-0.04
335.942	0.07
336.152	0.06
336.362	-0.01
336.572	-0.02
336.782	0.03
336.992	-0.04
337.202	-0.04
337.412	-0.05
337.622	-0.01
337.832	-0
338.042	-0.01
338.252	-0.03
338.462	0
338.672	-0.01
338.882	0.01
339.092	-0.03
339.302	0.06
339.511	0.06
339.721	-0
339.931	-0.04
340.141	0.01
340.351	0.04
340.561	0.02
340.77	-0.02
340.98	0.04
341.19	0.02
341.4	0
341.609	-0.04
341.819	-0.01
342.029	-0.04
342.238	-0.03
342.448	-0.01
342.658	0.02
342.867	0.02
343.077	-0.02
343.286	-0.02
343.496	-0.05
343.706	0.05
343.915	-0
344.125	-0.03
344.334	0.05
344.544	-0.09
344.753	-0.03
344.963	-0.03
345.172	-0.02
345.381	-0.03
345.591	-0.06
345.8	0.01
346.01	0.05
346.219	0.04
346.428	-0.15
346.638	0.01
346.847	-0.03
347.056	0.06
347.266	-0.05
347.475	-0.04
347.684	0.02
347.893	0.01
348.103	0.02
348.312	0
348.521	-0.03
348.73	-0.04
348.94	-0.01
349.149	-0.03
349.358	-0.02
349.567	0.01
349.776	-0.06
349.985	-0.01
350.194	0.01
350.403	0.04
350.612	-0.02
350.821	0.01
351.03	-0.01
351.239	-0.08
351.448	0
351.657	-0.05
351.866	0.09
352.075	-0.01
352.284	0.02
352.493	-0.03
352.702	0.05
352.911	0.01
353.12	0
353.329	0
353.538	0
353.746	-0.01
353.955	-0.05
354.164	0.04
354.373	-0.01
354.582	0.03
354.79	0.03
354.999	0.06
355.208	-0.03
355.416	0.02
355.625	-0.04
355.834	-0.01
356.042	-0.01
356.251	-0.04
356.46	-0.09
356.668	0.02
356.877	0.05
357.085	0
357.294	-0.11
357.503	0.03
357.711	-0.03
357.92	0.11
358.128	-0.01
358.337	-0.06
358.545	0.05
358.754	-0
358.962	0.02
359.17	-0.01
359.379	-0.01
359.587	0.01
359.796	-0.04
360.004	0.04
360.212	0.06
360.421	0.01
360.629	-0.03
360.837	-0
361.046	0.01
361.254	0.07
361.462	0.02
361.67	-0.08
361.879	0.03
362.087	0.05
362.295	0.03
362.503	-0
362.711	-0.06
362.92	-0.03
363.128	-0.05
363.336	-0.04
363.544	-0.08
363.752	0.01
363.96	-0.05
364.168	-0.03
364.376	0
364.584	0.01
364.792	0
365	-0.02
365.208	-0.02
365.416	-0.03
365.624	-0
365.832	-0.05
366.04	-0
366.248	0.04
366.456	0
366.664	0.05
366.872	-0.01
367.079	-0.02
367.287	0.02
367.495	0
367.703	-0
367.911	-0.02
368.118	-0.01
368.326	-0.02
368.534	-0.01
368.742	0.04
368.949	-0.05
369.157	-0.05
369.365	0.02
369.572	-0.01
369.78	-0.05
369.988	0.01
370.195	0.01
370.403	0.03
370.61	-0.05
370.818	0.04
371.026	0.04
371.233	0.01
371.441	-0.02
371.648	-0.03
371.856	0.02
372.063	-0.02
372.271	-0.05
372.478	-0.04
372.685	-0.02
372.893	0.04
373.1	0
373.308	-0.06
373.515	0.02
373.722	-0.01
373.93	-0.03
374.137	0.03
374.344	0.09
374.552	0.07
374.759	-0
374.966	0.03
375.173	-0.01
375.381	0.02
375.588	-0.02
375.795	-0.09
376.002	-0.03
376.209	-0.03
376.417	-0
376.624	0.02
376.831	-0.02
377.038	-0.01
377.245	-0.1
377.452	0.01
377.659	-0.03
377.866	-0.01
378.073	-0.02
378.28	-0
378.487	-0.01
378.694	0.01
378.901	-0.02
379.108	0.01
379.315	0.01
379.522	0.1
379.729	-0.01
379.936	-0.01
380.143	-0.04
380.35	-0.01
380.557	-0.03
380.763	-0
380.97	0
381.177	0.01
381.384	0.03
381.591	-0.03
381.797	0.01
382.004	-0.01
382.211	0.02
382.418	-0.03
382.624	0.03
382.831	-0
383.038	-0.02
383.244	-0.06
383.451	0.01
383.658	0.01
383.864	-0.03
384.071	-0.03
384.277	0.04
384.484	-0.09
384.69	0.02
384.897	-0.02
385.103	-0.04
385.31	-0.04
385.516	-0.02
385.723	-0.04
385.929	-0.04
386.136	-0.01
386.342	0
386.549	-0.03
386.755	0.04
386.961	0
387.168	-0.05
387.374	-0
387.58	0.03
387.787	0.02
387.993	0.05
388.199	-0.04
388.406	-0.01
388.612	0
388.818	-0.02
389.024	-0.01
389.231	-0.04
389.437	0.04
389.643	-0.01
389.849	0
390.055	-0.02
390.261	0.02
390.467	-0.02
390.674	-0.03
390.88	-0.03
391.086	0.01
391.292	-0.03
391.498	0.06
391.704	-0.02
391.91	-0.04
392.116	-0.06
392.322	-0.07
392.528	0
392.734	-0.05
392.94	0.01
393.146	-0.02
393.352	0.03
393.557	-0.02
393.763	-0.01
393.969	0
394.175	-0.02
394.381	-0.03
394.587	-0.03
394.792	-0.04
394.998	0.01
395.204	0.05
395.41	-0.03
395.615	0.05
395.821	0.05
396.027	0.04
396.233	0
396.438	-0.02
396.644	0.04
396.85	-0.01
397.055	-0.04
397.261	-0.03
397.466	0.03
397.672	0
397.878	0.03
398.083	0.02
398.289	0.01
398.494	0.02
398.7	0.03
398.905	-0.06
399.111	0.05
399.316	-0.01
399.522	-0.01
399.727	-0.02
399.932	0
400.138	0.05
400.343	0.05
400.549	0.04
400.754	0.02
400.959	0.01
401.165	-0.01
401.37	0
401.575	-0
401.78	-0.01
401.986	-0.05
402.191	-0.02
402.396	0.02
402.601	0.01
402.807	0
403.012	0.02
403.217	-0
403.422	-0.01
403.627	-0
403.832	-0.03
404.037	0.01
404.243	0.02
404.448	-0.01
404.653	-0.03
404.858	0.01
405.063	0
405.268	-0.06
405.473	-0.06
405.678	-0.03
405.883	0.09
406.088	0.02
406.293	-0.06
406.498	-0.05
406.703	0.03
406.907	-0.02
407.112	-0.05
407.317	0.04
407.522	0.01
407.727	-0.05
407.932	0
408.136	0.07
408.341	0.02
408.546	-0.02
408.751	0.02
408.956	-0.04
409.16	-0.02
409.365	-0.02
409.57	-0.04
409.774	-0.01
409.979	-0.01
410.184	0.01
410.388	-0.03
410.593	0.03
410.798	0.01
411.002	-0.05
411.207	-0.04
411.411	-0.01
411.616	-0.01
411.82	-0.05
412.025	0.05
412.229	-0.03
412.434	0.06
412.638	-0.02
412.843	-0.05
413.047	-0.02
413.252	-0
413.456	-0.03
413.66	0.03
413.865	-0.04
414.069	0.05
414.273	-0.07
414.478	-0.01
414.682	-0.04
414.886	-0.03
415.091	-0.07
415.295	-0.04
415.499	0.02
415.703	-0.02
415.908	0.01
416.112	-0.08
416.316	0.02
416.52	0.01
416.724	-0.06
416.929	-0.05
417.133	0.07
417.337	0.02
417.541	-0.08
417.745	-0.08
417.949	0.02
418.153	0.01
418.357	-0.07
418.561	0.05
418.765	-0.02
418.969	0.09
419.173	0.02
419.377	0.01
419.581	0.04
419.785	-0.02
419.989	-0.07
420.193	-0.06
420.397	0.03
420.601	0.03
420.804	0.03
421.008	0
421.212	-0.01
421.416	0
421.62	-0.03
421.823	-0
422.027	0.08
422.231	0.02
422.435	-0.06
422.638	-0.01
422.842	-0.03
423.046	-0.03
423.249	0.04
423.453	0.04
423.657	-0.04
423.86	-0.05
424.064	0.02
424.268	0.11
424.471	-0.03
424.675	0.07
424.878	0.05
425.082	-0.03
425.285	0.02
425.489	0.01
425.692	-0.01
425.896	-0.04
426.099	0.08
426.303	-0.04
426.506	-0.1
426.71	0.02
426.913	0.01
427.116	0.05
427.32	0.01
427.523	0
427.726	0.09
427.93	-0.09
428.133	-0.08
428.336	-0.08
428.54	-0.1
428.743	-0.02
428.946	-0
429.149	-0.02
429.353	0.03
429.556	-0.01
429.759	0
429.962	-0.06
430.165	-0.02
430.368	-0.05
430.571	-0.05
430.775	-0.03
430.978	-0.01
431.181	0.04
431.384	0.03
431.587	-0.04
431.79	-0.01
431.993	-0.13
432.196	-0.03
432.399	-0.05
432.602	0.04
432.805	-0.05
433.008	0.03
433.211	-0.07
433.414	-0.03
433.616	0.02
433.819	0.02
434.022	-0.11
434.225	0.06
434.428	-0.02
434.631	0.06
434.833	-0.03
435.036	-0.02
435.239	-0.01
435.442	-0
435.645	-0.03
435.847	-0.02
436.05	0
436.253	0.04
436.455	-0.05
436.658	-0.05
436.861	0.04
437.063	-0.08
437.266	-0.03
437.468	0.02
437.671	0.05
437.874	-0.04
438.076	-0.08
438.279	-0.08
438.481	-0.01
438.684	-0.05
438.886	0.02
439.089	-0.09
439.291	-0.03
439.494	0
439.696	-0.05
439.899	-0.01
440.101	0.02
440.303	-0.1
440.506	0
440.708	-0.01
440.91	-0
441.113	-0.09
441.315	0.02
441.517	-0.1
441.72	0.01
441.922	-0.04
442.124	-0.05
442.326	0
442.529	0.09
442.731	-0.06
442.933	0.09
443.135	-0.02
443.337	-0.05
443.539	-0.05
443.742	-0.02
443.944	-0.03
444.146	-0.04
444.348	-0.04
444.55	-0.03
444.752	-0.05
444.954	-0.08
445.156	0.01
445.358	-0.05
445.56	0.05
445.762	-0.05
445.964	-0.02
446.166	-0.07
446.368	-0.07
446.57	0
446.772	-0
446.974	-0.01
447.175	0.02
447.377	-0.04
447.579	0.01
447.781	-0.11
447.983	0.06
448.184	-0.02
448.386	0.03
448.588	-0.09
448.79	-0
448.991	-0.03
449.193	-0.04
449.395	-0.01
449.597	0
449.798	0.01
450	0.02
450.202	-0.07
450.403	-0
450.605	0.02
450.806	-0.04
451.008	-0.1
451.21	-0.01
451.411	-0
451.613	-0.03
451.814	-0.04
452.016	0.01
452.217	0.01
452.419	0.03
452.62	-0
452.821	0.02
453.023	0.06
453.224	0.01
453.426	0.01
453.627	0.03
453.828	0.03
454.03	-0
454.231	-0.04
454.432	-0.04
454.634	0.09
454.835	-0.03
455.036	-0.08
455.238	0.02
455.439	0.06
455.64	-0.07
455.841	-0.11
456.042	0.09
456.244	0.01
456.445	-0.03
456.646	-0.03
456.847	-0.06
457.048	0.06
457.249	0.05
457.45	0.21
457.651	-0.06
457.852	0.02
458.054	0.03
458.255	-0.02
458.456	-0.01
458.657	-0.01
458.858	-0.07
459.058	-0
459.259	0.03
459.46	-0.07
459.661	-0.07
459.862	0.06
460.063	-0.02
460.264	0.06
460.465	-0.06
460.666	0.11
460.866	-0.03
461.067	-0.01
461.268	-0.01
461.469	-0.04
461.67	-0.01
461.87	-0.03
462.071	-0.03
462.272	-0.06
462.473	0
462.673	-0.02
462.874	-0.01
463.075	0.02
463.275	-0.09
463.476	0.04
463.676	-0
463.877	0.02
464.078	-0.05
464.278	0.01
464.479	-0.04
464.679	0.03
464.88	-0
465.08	0.09
465.281	-0.03
465.481	-0.02
465.682	-0.02
465.882	0
466.083	0.02
466.283	0.03
466.483	-0.05
466.684	-0.05
466.884	-0.02
467.085	-0.02
467.285	0.03
467.485	-0.05
467.686	-0.05
467.886	-0.05
468.086	-0
468.286	0.01
468.487	0
468.687	-0.08
468.887	-0.05
469.087	0.04
469.287	-0.05
469.488	-0.08
469.688	0.03
469.888	0.03
470.088	0.03
470.288	0.05
470.488	0.05
470.688	-0.06
470.888	-0.01
471.088	-0.04
471.288	0.01
471.488	-0.01
471.688	-0.01
471.888	-0.03
472.088	0.05
472.288	0.02
472.488	-0.1
472.688	-0.01
472.888	-0.01
473.088	-0.04
473.288	-0.01
473.488	0
473.688	0.08
473.887	-0.03
474.087	-0.03
474.287	-0
474.487	-0.07
474.687	0.03
474.886	-0.02
475.086	-0.04
475.286	-0
475.486	-0.04
475.685	0.02
475.885	-0.06
476.085	-0.02
476.284	0.01
476.484	-0.05
476.684	0.02
476.883	0.04
477.083	0.01
477.282	-0.03
477.482	0.04
477.681	0.07
477.881	-0.02
478.08	-0.03
478.28	-0.04
478.479	0.04
478.679	0.08
478.878	-0.03
479.078	-0.02
479.277	-0
479.477	-0.02
479.676	0.02
479.875	0.02
480.075	-0.04
480.274	0
480.473	0.01
480.673	-0.04
480.872	0.03
481.071	-0
481.271	0.01
481.47	-0.04
481.669	0
481.868	-0.03
482.067	-0.05
482.267	-0.03
482.466	-0.05
482.665	-0.05
482.864	-0.05
483.063	-0.04
483.262	0.01
483.461	0.04
483.661	0.02
483.86	-0.02
484.059	0.01
484.258	0
484.457	-0.01
484.656	-0.02
484.855	0.02
485.054	-0.03
485.253	-0.04
485.452	-0.05
485.651	0.01
485.849	-0.04
486.048	-0.04
486.247	-0.03
486.446	0
486.645	-0.03
486.844	-0.02
487.043	-0.03
487.241	-0.01
487.44	-0.04
487.639	-0.01
487.838	0.02
488.037	0.02
488.235	0.03
488.434	-0.03
488.633	-0.03
488.831	0.03
489.03	0.01
489.229	0
489.427	-0.02
489.626	0.04
489.825	0.02
490.023	0
490.222	0
490.42	0.01
490.619	0.04
490.817	0
491.016	-0
491.214	0.01
491.413	-0.01
491.611	0.01
491.81	0
492.008	0.02
492.207	0
492.405	-0.01
492.604	-0.04
492.802	-0.01
493	-0.01
493.199	-0.01
493.397	-0.01
493.595	-0.01
493.794	-0.02
493.992	0.04
494.19	0
494.388	-0.01
494.587	0
494.785	-0.01
494.983	-0.01
495.181	-0.01
495.379	-0.03
495.578	-0.05
495.776	-0.01
495.974	0
496.172	-0.02
496.37	-0.03
496.568	-0.03
496.766	-0.05
496.964	0.01
497.162	0
497.36	-0.05
497.558	0
497.756	0.03
497.954	-0.02
498.152	-0.02
498.35	0.01
498.548	0
498.746	-0.02
498.944	-0.03
499.142	-0.01
499.34	-0.03
499.538	-0
499.736	-0.05
499.933	0.02
500.131	0.02
500.329	-0.02
500.527	0.03
500.725	0.01
500.922	0.01
501.12	-0
501.318	0
501.516	-0.03
501.713	0.01
501.911	-0.01
502.109	-0.02
502.306	0.01
502.504	-0.01
502.701	-0.02
502.899	-0.02
503.097	0.03
503.294	0.01
503.492	-0.02
503.689	0.01
503.887	0
504.084	0.04
504.282	0
504.479	-0.05
504.677	-0.02
504.874	-0.02
505.072	0.01
505.269	-0.03
505.466	0.01
505.664	0.01
505.861	-0.03
506.059	-0.04
506.256	0.01
506.453	-0.02
506.651	0.03
506.848	0
507.045	0.01
507.242	-0.02
507.44	-0.01
507.637	-0.02
507.834	-0.02
508.031	0.01
508.229	-0.02
508.426	-0
508.623	0
508.82	-0.03
509.017	-0.04
509.214	0.01
509.411	-0.02
509.608	-0.01
509.805	-0.01
510.003	-0.01
510.2	-0.01
510.397	0.01
510.594	-0.02
510.791	-0.02
510.988	0.01
511.184	0.02
511.381	0.01
511.578	-0.03
511.775	0.02
511.972	-0.01
512.169	-0
512.366	0
512.563	-0
512.76	-0.03
512.956	0.01
513.153	-0.01
513.35	-0.01
513.547	-0.03
513.744	-0
513.94	-0.04
514.137	0.01
514.334	0
514.53	0
514.727	-0
514.924	0.06
515.12	-0.02
515.317	-0.04
515.514	-0.02
515.71	-0.06
515.907	-0.03
516.103	0.01
516.3	-0.02
516.497	0.02
516.693	0.05
516.89	-0.02
517.086	-0.04
517.283	0.05
517.479	0.02
517.676	-0.02
517.872	-0.01
518.068	-0.01
518.265	-0.01
518.461	-0.02
518.658	-0.02
518.854	0.01
519.05	-0.03
519.247	-0.02
519.443	0.02
519.639	0.02
519.836	0.02
520.032	-0.01
520.228	-0
520.424	0.03
520.621	0.02
520.817	-0.01
521.013	-0.01
521.209	-0.01
521.405	0.04
521.601	-0
521.798	0
521.994	0.03
522.19	-0.02
522.386	-0.04
522.582	0.02
522.778	-0
522.974	-0.01
523.17	0.02
523.366	-0.02
523.562	0.02
523.758	0.01
523.954	-0.04
524.15	-0.01
524.346	0.01
524.542	-0.01
524.738	-0.01
524.934	0.01
525.129	-0.08
525.325	-0.01
525.521	-0.01
525.717	0.01
525.913	0
526.109	0
526.304	-0.01
526.5	-0.01
526.696	0
526.892	-0
527.087	0.01
527.283	-0.03
527.479	-0.01
527.674	-0.04
527.87	-0.01
528.066	0
528.261	0.02
528.457	-0.01
528.653	0.01
528.848	-0.03
529.044	0.01
529.239	-0.02
529.435	0.02
529.63	0
529.826	0.02
530.021	0.02
530.217	0
530.412	-0.01
530.608	-0.01
530.803	-0
530.999	-0.01
531.194	-0.03
531.389	-0
531.585	-0.05
531.78	-0.01
531.975	-0
532.171	0.02
532.366	-0.01
532.561	0
532.757	-0.03
532.952	0
533.147	0.03
533.342	-0.01
533.538	-0.01
533.733	0.03
533.928	-0.01
534.123	-0.01
534.318	-0.02
534.513	-0.02
534.709	0.01
534.904	-0.02
535.099	-0.01
535.294	-0.02
535.489	-0.01
535.684	-0.03
535.879	-0.02
536.074	-0.01
536.269	-0.02
536.464	-0
536.659	-0.03
536.854	-0.01
537.049	0.03
537.244	0.01
537.439	0
537.634	0.01
537.828	0
538.023	0.01
538.218	-0.04
538.413	0.01
538.608	-0.05
538.803	0.01
538.997	-0.03
539.192	0.01
539.387	-0
539.582	0.02
539.776	0
539.971	-0.01
540.166	-0.01
540.36	-0.02
540.555	0.02
540.75	0.01
540.944	-0.03
541.139	-0.04
541.334	0
541.528	0.02
541.723	-0
541.917	-0.03
542.112	-0.06
542.306	-0.01
542.501	-0.01
542.695	0.02
542.89	-0
543.084	-0.02
543.279	-0
543.473	-0.01
543.668	0.01
543.862	-0
544.056	0.01
544.251	-0.01
544.445	-0
544.64	-0.02
544.834	-0.03
545.028	0.01
545.222	0.02
545.417	0.02
545.611	0.01
545.805	-0
546	-0.02
546.194	0
546.388	-0.02
546.582	0.03
546.776	-0
546.97	0
547.165	0
547.359	-0
547.553	-0.04
547.747	-0.01
547.941	0.01
548.135	0.01
548.329	0.02
548.523	-0.01
548.717	-0
548.911	-0.01
549.105	0.01
549.299	-0
549.493	0.01
549.687	0.01
549.881	0
550.075	-0
550.269	-0.03
550.463	0
550.657	-0.02
550.85	-0
551.044	-0.03
551.238	-0
551.432	-0.01
551.626	-0.05
551.82	-0
552.013	-0.03
552.207	-0
552.401	0.03
552.594	-0.01
552.788	-0.01
552.982	-0
553.176	-0.01
553.369	0.02
553.563	0.02
553.756	-0.03
553.95	-0.03
554.144	0.01
554.337	0.02
554.531	0.01
554.724	0.03
554.918	0
555.111	0.02
555.305	-0.01
555.498	0.04
555.692	0.02
555.885	-0.01
556.079	-0.01
556.272	-0.01
556.466	0.01
556.659	-0.01
556.852	0
557.046	0.01
557.239	0.01
557.432	-0.02
557.626	-0.02
557.819	-0
558.012	-0.01
558.206	0.02
558.399	0.01
558.592	0.02
558.785	-0
558.979	0.01
559.172	0.02
559.365	0.04
559.558	-0
559.751	-0.01
559.944	-0.01
560.138	0.02
560.331	0
560.524	-0.02
560.717	0
560.91	0
561.103	-0.01
561.296	0.02
561.489	0.03
561.682	-0.01
561.875	0.02
562.068	0
562.261	0.01
562.454	0.04
562.647	0
562.84	0
563.032	-0.01
563.225	0.02
563.418	-0.01
563.611	-0
563.804	-0
563.997	-0.01
564.19	-0.02
564.382	-0.03
564.575	-0.04
564.768	-0.01
564.961	0
565.153	0
565.346	0.01
565.539	0.04
565.731	0.03
565.924	0.02
566.117	0.03
566.309	0.02
566.502	0.01
566.695	0.01
566.887	0.01
567.08	-0.03
567.272	0
567.465	-0.02
567.657	0.02
567.85	0.01
568.042	0.01
568.235	0.04
568.427	0.02
568.62	0
568.812	0.04
569.005	0.02
569.197	-0.03
569.389	0.01
569.582	0.01
569.774	0.01
569.966	-0
570.159	0
570.351	0.03
570.543	-0.01
570.736	0.02
570.928	-0.02
571.12	0.01
571.312	0
571.505	-0.02
571.697	0.04
571.889	-0.01
572.081	0.02
572.273	-0.01
572.465	0.04
572.658	0
572.85	0.01
573.042	-0.01
573.234	0.02
573.426	0.04
573.618	-0.04
573.81	0.03
574.002	0.05
574.194	0.06
574.386	-0.02
574.578	-0.03
574.77	0
574.962	-0
575.154	-0.01
575.346	0.01
575.538	0
575.729	0
575.921	0.02
576.113	0.03
576.305	0.06
576.497	0.01
576.689	0.03
576.88	0.01
577.072	0.05
577.264	0.02
577.456	0.04
577.647	-0.02
577.839	0.01
578.031	0.07
578.223	-0.01
578.414	0.01
578.606	0.07
578.798	0.05
578.989	0.04
579.181	0.07
579.372	0.08
579.564	0.03
579.755	0.05
579.947	0.04
580.139	0.07
580.33	-0
580.522	0.02
580.713	-0.02
580.905	0.05
581.096	0.07
581.287	0.07
581.479	0.05
581.67	0.06
581.862	0.06
582.053	0.07
582.244	0.02
582.436	0.09
582.627	0.07
582.818	0.02
583.01	0.05
583.201	0.11
583.392	0.1
583.583	0.1
583.775	0.07
583.966	0.08
584.157	0.09
584.348	0.07
584.54	0.05
584.731	0.11
584.922	0.08
585.113	0.07
585.304	0.11
585.495	0.14
585.686	0.11
585.877	0.14
586.068	0.1
586.259	0.12
586.45	0.12
586.641	0.07
586.832	0.07
587.023	0.12
587.214	0.13
587.405	0.13
587.596	0.11
587.787	0.17
587.978	0.17
588.169	0.11
588.36	0.11
588.551	0.14
588.742	0.13
588.932	0.16
589.123	0.12
589.314	0.17
589.505	0.15
589.696	0.18
589.886	0.15
590.077	0.12
590.268	0.18
590.458	0.15
590.649	0.13
590.84	0.25
591.03	0.16
591.221	0.13
591.412	0.18
591.602	0.21
591.793	0.24
591.984	0.17
592.174	0.2
592.365	0.33
592.555	0.2
592.746	0.24
592.936	0.26
593.127	0.26
593.317	0.3
593.508	0.25
593.698	0.24
593.889	0.26
594.079	0.24
594.269	0.23
594.46	0.25
594.65	0.26
594.84	0.29
595.031	0.24
595.221	0.26
595.411	0.25
595.602	0.32
595.792	0.3
595.982	0.31
596.172	0.37
596.363	0.34
596.553	0.34
596.743	0.33
596.933	0.36
597.123	0.36
597.314	0.33
597.504	0.37
597.694	0.43
597.884	0.38
598.074	0.39
598.264	0.36
598.454	0.44
598.644	0.39
598.834	0.43
599.024	0.37
599.214	0.42
599.404	0.45
599.594	0.46
599.784	0.45
599.974	0.52
600.164	0.49
600.354	0.46
600.544	0.43
600.734	0.51
600.924	0.57
601.114	0.52
601.303	0.56
601.493	0.55
601.683	0.54
601.873	0.58
602.063	0.52
602.252	0.6
602.442	0.53
602.632	0.6
602.821	0.57
603.011	0.63
603.201	0.63
603.39	0.63
603.58	0.65
603.77	0.67
603.959	0.72
604.149	0.7
604.339	0.69
604.528	0.75
604.718	0.74
604.907	0.74
605.097	0.73
605.286	0.73
605.476	0.75
605.665	0.81
605.855	0.79
606.044	0.85
606.234	0.84
606.423	0.81
606.612	0.8
606.802	0.89
606.991	0.91
607.181	0.94
607.37	0.87
607.559	0.89
607.749	0.93
607.938	0.93
608.127	0.97
608.316	0.96
608.506	1.02
608.695	1.02
608.884	0.96
609.073	1.05
609.263	1.1
609.452	1.16
609.641	1.1
609.83	1.09
610.019	1.15
610.208	1.12
610.397	1.12
610.586	1.17
610.775	1.19
610.965	1.22
611.154	1.16
611.343	1.23
611.532	1.21
611.721	1.3
611.91	1.28
612.099	1.32
612.287	1.29
612.476	1.33
612.665	1.38
612.854	1.33
613.043	1.41
613.232	1.42
613.421	1.4
613.61	1.48
613.798	1.5
613.987	1.56
614.176	1.54
614.365	1.59
614.554	1.63
614.742	1.65
614.931	1.6
615.12	1.69
615.309	1.68
615.497	1.71
615.686	1.69
615.875	1.78
616.063	1.76
616.252	1.83
616.44	1.85
616.629	1.89
616.818	1.9
617.006	1.93
617.195	1.95
617.383	2.01
617.572	2.03
617.76	2.1
617.949	2.09
618.137	2.18
618.326	2.2
618.514	2.13
618.703	2.19
618.891	2.31
619.079	2.29
619.268	2.39
619.456	2.3
619.644	2.43
619.833	2.4
620.021	2.47
620.209	2.42
620.398	2.61
620.586	2.56
620.774	2.68
620.962	2.75
621.151	2.8
621.339	2.74
621.527	2.77
621.715	2.81
621.903	2.88
622.092	2.87
622.28	3.04
622.468	2.94
622.656	3.03
622.844	3.11
623.032	3.13
623.22	3.14
623.408	3.31
623.596	3.35
623.784	3.38
623.972	3.37
624.16	3.41
624.348	3.52
624.536	3.6
624.724	3.51
624.912	3.65
625.1	3.69
625.288	3.74
625.476	3.74
625.664	3.83
625.851	3.81
626.039	3.92
626.227	3.96
626.415	3.97
626.603	3.94
626.79	4.05
626.978	4.06
627.166	4.12
627.354	4.12
627.541	4.16
627.729	4.17
627.917	4.35
628.104	4.33
628.292	4.27
628.48	4.44
628.667	4.38
628.855	4.45
629.042	4.51
629.23	4.44
629.418	4.45
629.605	4.57
629.793	4.51
629.98	4.53
630.168	4.53
630.355	4.58
630.543	4.63
630.73	4.56
630.917	4.55
631.105	4.7
631.292	4.65
631.48	4.62
631.667	4.63
631.854	4.63
632.042	4.55
632.229	4.47
632.416	4.57
632.604	4.51
632.791	4.42
632.978	4.48
633.165	4.38
633.353	4.41
633.54	4.44
633.727	4.25
633.914	4.27
634.101	4.29
634.289	4.28
634.476	4.05
634.663	4.09
634.85	4.02
635.037	3.95
635.224	3.92
635.411	3.88
635.598	3.77
635.785	3.72
635.972	3.64
636.159	3.61
636.346	3.49
636.533	3.41
636.72	3.33
636.907	3.31
637.094	3.21
637.281	3.05
637.468	3.11
637.655	3.02
637.842	2.9
638.029	2.79
638.215	2.75
638.402	2.69
638.589	2.59
638.776	2.49
638.963	2.42
639.149	2.44
639.336	2.43
639.523	2.26
639.709	2.22
639.896	2.12
640.083	2.04
640.27	2.02
640.456	1.91
640.643	1.89
640.829	1.73
641.016	1.71
641.203	1.62
641.389	1.65
641.576	1.58
641.762	1.52
641.949	1.43
642.135	1.44
642.322	1.4
642.508	1.31
642.695	1.32
642.881	1.26
643.068	1.17
643.254	1.19
643.441	1.16
643.627	1.07
643.813	1.02
644	1.06
644.186	0.92
644.372	0.92
644.559	0.97
644.745	0.87
644.931	0.81
645.118	0.83
645.304	0.79
645.49	0.74
645.676	0.71
645.862	0.73
646.049	0.72
646.235	0.68
646.421	0.74
646.607	0.68
646.793	0.64
646.979	0.55
647.165	0.6
647.352	0.59
647.538	0.53
647.724	0.51
647.91	0.52
648.096	0.57
648.282	0.5
648.468	0.45
648.654	0.45
648.84	0.44
649.026	0.38
649.212	0.42
649.397	0.4
649.583	0.33
649.769	0.41
649.955	0.37
650.141	0.37
650.327	0.37
650.513	0.31
650.698	0.33
650.884	0.26
651.07	0.34
651.256	0.31
651.442	0.26
651.627	0.24
651.813	0.29
651.999	0.27
652.184	0.27
652.37	0.23
652.556	0.2
652.741	0.26
652.927	0.14
653.113	0.21
653.298	0.2
653.484	0.2
653.669	0.14
653.855	0.18
654.04	0.19
654.226	0.17
654.412	0.12
654.597	0.12
654.782	0.17
654.968	0.22
655.153	0.18
655.339	0.11
655.524	0.11
655.71	0.17
655.895	0.12
656.08	0.12
656.266	0.16
656.451	0.13
656.636	0.07
656.822	0.13
657.007	0.12
657.192	0.11
657.378	0.04
657.563	0.12
657.748	0.16
657.933	0.11
658.118	0.07
658.304	0.09
658.489	0.12
658.674	0.09
658.859	0.07
659.044	0.08
659.229	0.09
659.414	0.07
659.599	0.09
659.785	0.02
659.97	0.08
660.155	0.11
660.34	0.07
660.525	0.06
660.71	0.04
660.895	0.11
661.08	0.06
661.264	0.01
661.449	0.13
661.634	0.07
661.819	0.07
662.004	0.09
662.189	-0.01
662.374	0.04
662.559	-0.01
662.743	-0.03
662.928	0.03
663.113	0
663.298	-0.03
663.483	0.04
663.667	0.06
663.852	-0.02
664.037	0.07
664.221	0.01
664.406	0.05
664.591	0.05
664.775	0.06
664.96	0.04
665.145	0.07
665.329	0.04
665.514	0.02
665.698	0.06
665.883	-0.02
666.068	0.11
666.252	0.01
666.437	-0.02
666.621	0.04
666.806	0.05
666.99	-0.01
667.174	-0.02
667.359	0.05
667.543	0.01
667.728	-0.03
667.912	-0.06
668.096	0.06
668.281	0.02
668.465	-0
668.649	0.05
668.834	-0.02
669.018	-0
669.202	-0.02
669.387	-0.01
669.571	0.09
669.755	-0.04
669.939	0
670.124	0.02
670.308	0.05
670.492	0.04
670.676	0.03
670.86	0
671.044	-0
671.228	0.02
671.413	0
671.597	-0.02
671.781	-0.05
671.965	0.03
672.149	0.01
672.333	0.04
672.517	-0.02
672.701	0.04
672.885	0.01
673.069	-0.01
673.253	0.06
673.437	0.02
673.621	-0.01
673.804	-0.02
673.988	-0.01
674.172	0.03
674.356	-0.07
674.54	-0
674.724	0.1
674.908	-0.02
675.091	0.03
675.275	-0.01
675.459	0.03
675.643	0.08
675.826	-0.01
676.01	-0.01
676.194	-0.02
676.377	0.04
676.561	0.05
676.745	0.03
676.928	0.03
677.112	0.07
677.296	-0.02
677.479	-0.04
677.663	-0.03
677.846	0
678.03	0.01
678.213	-0
678.397	0.01
678.58	-0.04
678.764	0.01
678.947	-0.05
679.131	-0.11
679.314	0
679.498	0.01
679.681	0.01
679.865	0.03
680.048	-0.03
680.231	-0.02
680.415	0.02
680.598	-0.01
680.781	0
680.965	0
681.148	0
681.331	-0.01
681.514	0.01
681.698	-0.06
681.881	0.03
682.064	-0.03
682.247	-0.01
682.43	-0.05
682.614	-0.02
682.797	0.05
682.98	0.02
683.163	-0.03
683.346	0.01
683.529	-0.04
683.712	-0.02
683.895	0.05
684.078	-0.06
684.261	-0.05
684.444	0.01
684.627	0.04
684.81	-0.04
684.993	0.01
685.176	0.06
685.359	-0.04
685.542	-0
685.725	0.01
685.908	-0.02
686.091	-0
686.274	0
686.457	0.02
686.639	0.05
686.822	0.07
687.005	0.01
687.188	0
687.371	0.06
687.553	0.01
687.736	0.02
687.919	0.02
688.102	0.07
688.284	0
688.467	0.01
688.65	-0.06
688.832	-0.02
689.015	-0.03
689.197	-0.02
689.38	0.09
689.563	0.06
689.745	-0.01
689.928	-0.05
690.11	-0.01
690.293	-0.05
690.475	-0.06
690.658	0.01
690.84	-0.03
691.023	0.01
691.205	-0.03
691.388	0.01
691.57	0.07
691.752	0.04
691.935	-0.06
692.117	-0.04
692.3	0.01
692.482	0.01
692.664	0.04
692.847	0.02
693.029	0.06
693.211	0.02
693.393	-0.01
693.576	0
693.758	-0.03
693.94	-0.01
694.122	-0.05
694.304	-0.01
694.487	-0.01
694.669	0.04
694.851	-0.05
695.033	0.02
695.215	-0.06
695.397	-0.08
695.579	0.04
695.761	-0.03
695.943	-0.05
696.125	0.06
696.308	-0.01
696.49	-0.08
696.671	0.12
696.853	0
697.035	0.14
697.217	-0.01
697.399	0.02
697.581	-0.01
697.763	-0.03
697.945	-0.07
698.127	-0.04
698.309	0.07
698.491	0.01
698.672	0.02
698.854	0.04
699.036	0.06
699.218	0.01
699.399	0.07
699.581	0.07
699.763	-0.01
699.945	-0.06
700.126	-0.04
700.308	-0.02
700.49	0
700.671	-0.07
700.853	-0.09
701.035	-0.07
701.216	-0.04
701.398	-0.07
701.579	-0.03
701.761	0.07
701.943	-0.06
702.124	-0.04
702.306	-0.08
702.487	0.05
702.669	0.01
702.85	-0.05
703.031	-0.02
703.213	0.09
703.394	0.07
703.576	-0.07
703.757	0.06
703.938	0.06
704.12	0.07
704.301	0
704.483	0.01
704.664	-0.02
704.845	0.07
705.026	-0.03
705.208	0.04
705.389	-0.03
705.57	-0
705.751	-0.05
705.933	-0.05
706.114	0.06
706.295	0.02
706.476	-0.01
706.657	0.09
706.838	0.04
707.02	0.02
707.201	0.01
707.382	-0.03
707.563	-0.03
707.744	0.01
707.925	-0.08
708.106	-0.06
708.287	0.05
708.468	0.02
708.649	0.01
708.83	0
709.011	-0.09
709.192	0.13
709.373	-0.05
709.554	-0.02
709.734	0.04
709.915	-0
710.096	-0.05
710.277	-0.14
710.458	0
710.639	0.03
710.819	-0.18
711	-0
711.181	0.04
711.362	0.02
711.542	0
711.723	0.01
711.904	0.1
712.085	0.02
712.265	0.03
712.446	-0.07
712.627	-0.04
712.807	-0.03
712.988	-0.05
713.168	-0.05
713.349	0.04
713.53	-0.16
713.71	-0.08
713.891	-0.06
714.071	-0.02
714.252	-0.03
714.432	-0.09
714.613	-0.1
714.793	-0.03
714.974	0.05
715.154	0.09
715.334	-0.01
715.515	0.03
715.695	-0.03
715.876	-0.04
716.056	0.02
716.236	-0.03
716.417	-0.04
716.597	-0.07
716.777	0.14
716.957	-0.01
717.138	-0.07
717.318	0.07
717.498	-0.02
717.678	-0.05
717.859	0
718.039	-0.07
718.219	-0.01
718.399	0.03
718.579	-0.12
718.759	-0.09
718.939	-0.02
719.12	0.01
719.3	-0.03
719.48	-0.14
719.66	-0.07
719.84	0.13
720.02	0
720.2	-0.05
720.38	-0.01
720.56	0.09
720.74	-0.07
720.92	-0.09
721.1	0.06
721.279	0.02
721.459	0.03
721.639	-0.1
721.819	-0.04
721.999	-0.06
722.179	0.09
722.359	-0.06
722.538	-0.03
722.718	-0.03
722.898	-0.06
723.078	0.02
723.257	-0.07
723.437	-0.03
723.617	-0
723.797	-0.06
723.976	-0
724.156	0.02
724.336	0.11
724.515	0
724.695	-0.14
724.874	-0.1
725.054	0.02
725.234	-0.07
725.413	0.07
725.593	-0.06
725.772	-0.03
725.952	-0.14
726.131	-0.02
726.311	0.06
726.49	0.03
726.67	-0.17
726.849	-0.08
727.028	-0.01
727.208	-0.07
727.387	-0.01
727.567	-0.16
727.746	-0.04
727.925	-0.1
728.105	-0.06
728.284	-0.08
728.463	-0.05
728.643	-0.09
728.822	-0.14
729.001	-0.04
729.18	-0.02
729.359	0.01
729.539	-0.03
729.718	-0.12
729.897	-0.04
730.076	-0.1
730.255	-0.13
730.434	0.01
730.614	-0.04
730.793	0.09
730.972	-0.06
731.151	0.06
731.33	0.07
731.509	0.04
731.688	0.06
731.867	-0.02
732.046	-0.15
732.225	0.13
732.404	-0.12
732.583	-0.12
732.762	-0.09
732.941	0.1
733.12	-0.02
733.298	-0.09
733.477	-0.02
733.656	-0.03
733.835	-0.14
734.014	0.01
734.193	-0.04
734.371	0.1
734.55	0.09
734.729	-0.16
734.908	-0.02
735.086	0.08
735.265	0.05
735.444	-0.13
735.623	-0.13
735.801	-0.12
735.98	-0.01
736.159	-0.04
736.337	0.08
736.516	-0.03
736.694	-0
736.873	-0.04
737.052	0.02
737.23	0.01
737.409	-0.06
737.587	0.13
737.766	-0.19
737.944	-0.16
738.123	-0.03
738.301	0.08
738.479	-0.01
738.658	0.04
738.836	-0.17
739.015	0.04
739.193	0.08
739.371	-0.19
739.55	-0.02
739.728	-0.18
739.906	0.1
740.085	0.12
740.263	-0.12
740.441	-0.24
740.62	0.11
740.798	-0
740.976	-0.14
741.154	-0.08
741.332	0.19
741.511	-0.13
741.689	-0.01
741.867	0.1
742.045	-0.01
742.223	-0.1
742.401	-0.16
742.579	-0.13
742.757	0.04
742.935	-0.21
743.114	-0.08
743.292	-0.03
743.47	0.03
743.648	-0.11
743.826	-0.2
744.004	0.08
744.181	0.04
744.359	-0.06
744.537	-0.05
744.715	-0.02
744.893	-0.02
745.071	-0.02
745.249	-0.15
745.427	0
745.605	0.08
745.782	-0.03
745.96	0.04
746.138	-0.01
746.316	0.06
746.493	-0.1
746.671	-0.04
746.849	-0.12
747.027	0.16
747.204	-0.05
747.382	-0.01
747.56	-0.25
747.737	-0.06
747.915	-0.02
748.093	-0.1
748.27	-0.03
748.448	-0.07
748.625	-0.13
748.803	-0.1
748.98	-0.14
749.158	-0.01
749.335	0.13
749.513	-0.07
749.69	-0.01
749.868	-0
750.045	0.02
750.223	-0.07
750.4	-0.26
750.578	0.21
750.755	-0.03
750.932	-0.25
751.11	0.02
751.287	-0.14
751.464	0.02
751.642	-0.13
751.819	0.03
751.996	-0.06
752.173	-0.08
752.351	-0.18
752.528	-0.06
752.705	-0.08
752.882	-0.13
753.06	-0.01
753.237	0.06
753.414	0.15
753.591	0.02
753.768	-0.12
753.945	-0.17
754.122	-0.05
754.299	-0.03
754.476	-0.2
754.654	-0
754.831	0.01
755.008	0.01
755.185	-0.11
755.362	-0.19
755.539	0
755.716	-0.14
755.892	-0
756.069	-0.04
756.246	0.03
756.423	-0.1
756.6	0.14
756.777	0.01
756.954	0.08
757.131	-0.07
757.307	-0.04
757.484	-0.05
757.661	0.04
757.838	0.07
758.015	-0.15
758.191	-0.05
758.368	-0.04
758.545	0.2
758.721	-0.02
758.898	-0.1
759.075	0.03
759.251	0.05
759.428	0.03
759.605	-0.12
759.781	-0.05
759.958	0.05
760.134	-0
760.311	-0.07
760.488	0.11
760.664	-0.05
760.841	-0.12
761.017	-0.1
761.194	-0.02
761.37	0.02
761.547	-0.07
761.723	-0.1
761.899	0.13
762.076	-0.1
762.252	-0.19
762.429	-0.18
762.605	-0.07
762.781	-0.1
762.958	-0.04
763.134	-0.07
763.31	-0.11
763.486	0.07
763.663	-0.16
763.839	-0.06
764.015	-0.19
764.191	-0.15
764.368	0.02
764.544	-0.14
764.72	0.04
764.896	0.04
765.072	0.02
765.248	-0.05
765.425	-0.05
765.601	0.05
765.777	0.11
765.953	-0.22
766.129	-0.01
766.305	-0.21
766.481	0.09
766.657	0.05
766.833	0.08
767.009	0.01
767.185	-0.05
767.361	-0.04
767.537	-0.15
767.713	0.24
767.889	-0.11
768.065	-0.13
768.24	0.09
768.416	0.06
768.592	-0.04
768.768	-0.03
768.944	-0.06
769.12	-0.25
769.295	-0.14
769.471	-0.03
769.647	-0.09
769.823	0.07
769.998	-0.1
770.174	-0.17
770.35	0.23
770.525	0.17
770.701	0.04
770.877	-0.09
771.052	-0.15
771.228	0.06
771.403	-0.05
771.579	0.11
771.755	0.17
771.93	0.01
772.106	-0.15
772.281	-0.27
772.457	0.01
772.632	-0.06
772.808	-0.19
772.983	-0.03
773.159	-0.2
773.334	0.12
773.509	0.04
773.685	-0.09
773.86	0.17
774.036	0.07
774.211	-0.12
774.386	-0.16
774.562	-0.13
774.737	-0.05
774.912	-0.3
775.087	-0.01
775.263	0.09
775.438	-0.01
775.613	-0.08
775.788	-0.04
775.964	0.13
776.139	0.21
776.314	-0.16
776.489	0.12
776.664	-0.12
776.839	-0.28
777.014	0.03
777.19	0.02
777.365	0.13
777.54	0.23
777.715	-0.2
777.89	-0.06
778.065	-0.19
778.24	0
778.415	0.1
778.59	-0.14
778.765	-0.11
778.94	-0.05
779.115	-0.09
779.289	-0.13
779.464	0.01
779.639	-0.09
779.814	-0.36
779.989	-0.14
780.164	0.13
780.339	-0.1
780.513	-0.17
780.688	-0.12
780.863	-0.07
781.038	0.11
781.212	-0.19
781.387	-0.08
781.562	0.29
781.737	0.04
781.911	0.14
782.086	-0.26
782.261	0.08
782.435	0.23
782.61	-0.16
782.784	-0.15
782.959	0.04
783.134	-0.09
783.308	-0.17
783.483	0.07
783.657	0.18
783.832	0.02
784.006	-0.4
784.181	0.01
784.355	0.05
784.53	-0.33
784.704	-0.09
784.878	0.14
785.053	0.09
785.227	0.21
785.402	0.24
785.576	-0.26
785.75	-0.16
785.925	-0.05
786.099	-0.18
786.273	-0.11
786.448	0.27
786.622	-0.08
786.796	-0.1
786.97	-0.08
787.145	0.23
787.319	-0.55
787.493	-0.1
787.667	-0.36
787.841	0
788.015	-0.14
788.19	-0.04
788.364	-0.11
788.538	0.07
788.712	0.1
788.886	-0.14
789.06	0.16
789.234	0.1
789.408	-0.26
789.582	-0.22
789.756	-0.31
789.93	-0.26
790.104	-0.21
790.278	-0.05
790.452	-0.32
790.626	0.1
790.8	-0.34
790.973	-0.08
791.147	0.19
791.321	0.01
791.495	0.05
791.669	-0.07
791.843	0.06
792.016	-0.25
792.19	0.16
792.364	-0.23
792.538	0.5
792.711	-0
792.885	-0.29
793.059	-0.24
793.233	-0.56
793.406	-0.07
793.58	-0.19
793.754	0.12
793.927	-0.11
794.101	0.23
794.274	-0.02
794.448	-0.16
794.622	-0.21
794.795	-0.03
794.969	-0.24
795.142	0.3
795.316	-0.4
795.489	-0.15
795.663	0.28
795.836	-0.32
796.009	-0.23
796.183	0.2
796.356	-0.08
796.53	-0.08
796.703	-0.17
796.876	0.33
797.05	-0.25
797.223	-0.3
797.396	-0.1
797.57	-0.1
797.743	0.32
797.916	-0.06
798.09	-0.34
798.263	0.13
798.436	-0.04
798.609	-0.14
798.782	-0.44
798.956	-0.25
799.129	-0.24
799.302	-0.07
799.475	-0.25
799.648	-0.38
799.821	-0.25
799.994	0.06
800.167	-0.39
800.34	-0.26
800.514	-0.23
800.687	0.04
800.86	-0.19
801.033	0.03
801.206	0.02
801.379	-0.34
801.551	0.28
801.724	-0.05
801.897	0.06
802.07	-0.2
802.243	-0.42
802.416	-0.09
802.589	-0.22
802.762	0.24
802.935	-0.12
803.107	-0.22
803.28	0.22
803.453	-0.13
803.626	-0.32
803.798	-0.11
803.971	-0.25
804.144	-0.22
804.317	0.16
804.489	0.19
804.662	-0.1
804.835	-0.06
805.007	-0.47
805.18	0.58
805.353	0.26
805.525	-0.44
805.698	-0.19
805.87	0.14
806.043	0.25
806.215	-0.44
806.388	-0.31
806.56	-0.12
806.733	0.33
806.905	-0.06
807.078	-0.3
807.25	-0.18
807.423	0.08
807.595	-0.23
807.768	-0.43
807.94	0.36
808.112	0.43
808.285	-0.41
808.457	-0.34
808.629	-0.15
808.802	0.06
808.974	-0.04
809.146	-0.23
809.318	-0.39
809.491	-0.4
809.663	-0.17
809.835	-0.06
810.007	0.14
810.18	0.11
810.352	-0.46
810.524	-0.62
810.696	0.17
810.868	0.07
811.04	-0.06
811.212	-0.42
811.384	0.33
811.556	-0.16
811.728	-0.34
811.901	0.61
812.073	-0.02
812.245	0.11
812.417	0.15
812.589	-0.91
812.76	-0.07
812.932	0.32
813.104	0.53
813.276	-0.13
813.448	0.15
813.62	-0.23
813.792	0.19
813.964	-0.06
814.136	-0.18
814.307	-0.46
814.479	-0.6
814.651	-0.64
814.823	0.57
814.995	-0.28
815.166	-0.17
815.338	-0.43
815.51	-0.92
815.681	0.47
815.853	0
816.025	-0.29
816.196	-0.09
816.368	0.33
816.54	-0.32
816.711	-0.21
816.883	-0.07
817.054	1.25
817.226	-0.31
817.398	-0.02
817.569	-0.15
817.741	-0.12
817.912	-0.08
818.084	-0.29
818.255	-0.18
818.426	-0.35
818.598	-0.04
818.769	-0.35
818.941	0.02
819.112	0.34
819.283	-0.01
819.455	-0.26
819.626	-0.02
819.798	0.17
819.969	-0.09
820.14	-0.14
820.311	-0.2
820.483	0.01
820.654	0.14
820.825	-0.21
820.996	-0.61
821.168	-0.21
821.339	-0.17
821.51	-0.02
821.681	-0.71
821.852	-0.02
822.023	-0.28
822.195	-0.4
822.366	0.21
822.537	-0.42
822.708	0.05
822.879	-0.33
823.05	0.24
823.221	-0.01
823.392	0.07
823.563	-0.44
823.734	0.02
823.905	-0.45
824.076	-0.51
824.247	-0.45
824.418	-0.79
824.589	0.2
824.759	-0.33
824.93	-0.23
825.101	-0.15
825.272	0.09
825.443	0.04
825.614	-0.27
825.784	-0.51
825.955	1.22
826.126	0.66
826.297	-0.08
826.467	0.42
826.638	0.19
826.809	-1.03
826.98	-0.36
827.15	0.25
827.321	-0.07
827.492	0.48
827.662	0.01
827.833	0.43
828.003	-0.31
828.174	-0.54
828.345	-0.7
828.515	0.6
828.686	-0.12
828.856	-0.3
829.027	0.07
829.197	-0.07
829.368	0.35
829.538	-0.43
829.709	-0.65
829.879	-0.06
830.049	0.08
830.22	-0.55
830.39	-0.27
830.56	-0.08
830.731	-0.5
830.901	-0.41
831.072	-0.11
831.242	-0.2
831.412	-0.1
831.582	-0.25
831.753	-0.51
831.923	0.41
832.093	-0.26
832.263	-0.09
832.434	-0.95
832.604	-0.28
832.774	0.12
832.944	-0.52
833.114	0.12
833.284	0.49
833.454	-0.44
833.624	-0.19
833.795	-0.78
833.965	0.45
834.135	0.24
834.305	-0.99
834.475	-0.71
834.645	-0.65
834.815	-0.61
834.985	-0.52
835.155	-0.5
835.325	0.19
835.494	-0.33
835.664	-0.49
835.834	-1.36
836.004	0.47
836.174	-0.38
836.344	-0.37
836.514	-0.83
836.684	-0.24
836.853	-0.35
837.023	0.32
837.193	-0.78
837.363	0.74
837.532	-0.06
837.702	0.15
837.872	-0.54
838.041	-0.33
838.211	0.73
838.381	-0.81
838.55	0.03
838.72	1.05
838.89	0.92
839.059	0.02
839.229	-0.62
839.398	0.56
839.568	0.3
839.738	-0.3
839.907	0.56
840.077	-0.13
840.246	-0.32
840.416	-0.67
840.585	-1.04
840.755	1.16
840.924	0.76
841.093	-1.01
841.263	-0.6
841.432	-0.18
841.602	-0.23
841.771	-1.09
841.94	0.16
842.11	1.62
842.279	0.59
842.448	-0.82
842.617	-0.97
842.787	1.36
842.956	-1.38
843.125	-0.49
843.294	0.32
843.464	0.05
843.633	-0.35
843.802	-0.91
843.971	-0.07
844.14	0.07
844.309	0.44
844.479	-0.78
844.648	-1.61
844.817	-0.71
844.986	0.13
845.155	-0.54
845.324	-0.01
845.493	-0.33
845.662	-1.47
845.831	0.03
846	-0.01
846.169	-0.84
846.338	0.71
846.507	0.39
846.676	-0.07
846.844	-1.06
847.013	0.04
847.182	-0.08
847.351	-0.49
847.52	-0.74
847.689	0.36
847.858	-0.3
848.026	-0.83
848.195	-0.24
848.364	0.13
848.533	-0.53
848.701	-0.25
848.87	-0.24
849.039	0.45
849.207	0.22
849.376	-0.29
849.545	-0.38
849.713	-0.43
849.882	0.04
850.051	0.11
850.219	-0.13
850.388	0.47
850.556	-0.86
850.725	-0.09
850.893	0.16
851.062	-0.25
851.23	0.81
851.399	-2.05
851.567	-0.54
851.736	-0.87
851.904	-0.74
852.073	-0.92
852.241	0.11
852.41	0.56
852.578	-0.6
852.746	0.4
852.915	0.07
853.083	0.21
853.251	-0.4
853.42	-0.41
853.588	-0.3
853.756	1.15
853.924	-0.66
854.093	-0.78
854.261	-0.83
854.429	-1.35
854.597	-0.05
854.765	-1.11
854.934	1.18
855.102	0.82
855.27	-0.65
855.438	-0.55
855.606	0.47
855.774	1.99
855.942	-1.2
856.11	-1.6
856.278	0.15
856.446	1.1
856.614	-0.12
856.782	-0.66
856.95	1.32
857.118	1.44
857.286	0.16
857.454	-0.26
857.622	0.47
857.79	0.42
857.958	-1.23
858.126	-1.16
858.294	-2.13
858.462	-0.33
858.629	0.38
858.797	-0.79
858.965	0.02
859.133	-0.41
859.301	-0.82
859.468	-0.44
859.636	-0.93
859.804	-0.25
859.971	1.06
860.139	-0.19
860.307	0.87
860.474	0.46
860.642	0.61
860.81	-1.03
860.977	-1.38
861.145	-0.9
861.313	-0.34
861.48	-2.02
861.648	-1.04
861.815	0.03
861.983	-1.76
862.15	-2.05
862.318	0.26
862.485	0.71
862.653	-2.5
862.82	-1.46
862.988	2.04
863.155	0.45
863.322	-1.88
863.49	-2.22
863.657	-0.34
863.824	0.4
863.992	0.1
864.159	0.32
864.326	0.61
864.494	-0.08
864.661	3.02
864.828	-1.26
864.996	0.49
865.163	0.95
865.33	-1.91
865.497	-2.13
865.664	-0.11
865.832	-2.53
865.999	-0.95
866.166	-2.09
866.333	-1.56
866.5	-0.11
866.667	-0.54
866.834	0.05
867.001	0.66
867.168	-0.65
867.335	0.64
867.502	-3.28
867.669	-0.11
867.836	0.73
868.003	-0.38
868.17	1.17
868.337	0.24
868.504	1.06
868.671	-2.6
868.838	-1.64
869.005	-0.04
869.172	1.11
869.339	0.13
869.505	-0.55
869.672	-1.28
869.839	0.78
870.006	0.34
870.173	-2.08
870.339	-0.64
870.506	2.11
870.673	0.34
870.84	0.46
871.006	-1.06
871.173	-1.89
871.34	-0.43
871.506	-1.45
871.673	0.9
871.839	-2.98
872.006	-0.42
872.173	-1.49
872.339	0.05
872.506	0.09
872.672	-1.32
872.839	-2.26
873.005	-0.21
873.172	3.12
873.338	1.46
873.505	-0.03
873.671	1.44
873.838	0.18
874.004	-3.41
874.171	-2.75
874.337	-0.37
874.503	0.57
874.67	-1.63
874.836	-0.98
875.002	1.2
875.169	-0.08
875.335	-0.29
875.501	-2.68
875.668	-0.35
875.834	0.34
876	-1.9
876.166	0.94
876.332	-0.86
876.499	2.57
876.665	-0.88
876.831	1.21
876.997	2.13
877.163	-1.24
877.329	-0.74
877.495	0.99
877.662	0.12
877.828	0.24
877.994	0.32
878.16	-4.15
878.326	-2.01
878.492	-0.22
878.658	-0.42
878.824	0.58
878.99	0.14
879.156	-1.73
879.322	3.74
879.487	-2.59
879.653	-0.95
879.819	-1.35
879.985	-0.03
880.151	-1.34
880.317	0.19
880.483	0.7
880.648	-1.43
880.814	-4.55
880.98	-1.42
881.146	-1.03
881.312	-0.65
881.477	-1.14
881.643	-1.05
881.809	1.74
881.974	1.08
882.14	-2.17
882.306	0.4
882.471	2.62
882.637	-0.93
882.803	0.74
882.968	1.35
883.134	2.01
883.299	-0.39
883.465	-0.18
883.63	0.53
883.796	1.09
883.961	0.8
884.127	-0.78
884.292	-4.74
884.458	-2.01
884.623	-2
