Data from Apollo_Calib_20240827__AbsoluteIrradiance__415__06-04-02-216.txt Node

Date: Wed Aug 28 06:04:02 BST 2024
User: biology
Spectrometer: FLMT08252
Trigger mode: 0
Integration Time (sec): 5.000000E-1
Scans to average: 5
Electric dark correction enabled: true
Nonlinearity correction enabled: false
Boxcar width: 0
XAxis mode: Wavelengths
Number of Pixels in Spectrum: 3648
>>>>>Begin Spectral Data<<<<<
179.588	-0
179.809	-0
180.03	-0
180.251	-0
180.473	-0
180.694	0
180.915	0
181.136	-0
181.357	0
181.578	-0
181.799	-0
182.02	-0
182.241	0
182.462	-0
182.683	0
182.904	-0
183.125	-0
183.346	-0
183.567	0
183.788	0
184.009	-0
184.23	0
184.451	0
184.672	0
184.892	0
185.113	0
185.334	0
185.555	-0
185.776	0
185.996	0
186.217	0
186.438	0
186.659	-0
186.879	0
187.1	0
187.321	0
187.541	-0
187.762	0
187.983	0
188.203	0
188.424	0
188.644	0
188.865	-0
189.086	0
189.306	0
189.527	0
189.747	0
189.968	0
190.188	0
190.409	0
190.629	0
190.849	-0
191.07	0
191.29	0
191.511	0
191.731	-0
191.951	0
192.172	0
192.392	0
192.612	0
192.833	0
193.053	0
193.273	0
193.493	0
193.714	0
193.934	0
194.154	0
194.374	0
194.594	0
194.815	0
195.035	0
195.255	0
195.475	-0
195.695	0
195.915	0
196.135	0
196.355	0
196.575	0
196.795	0
197.015	-0
197.235	0
197.455	0
197.675	0
197.895	-0
198.115	0
198.335	0
198.555	0
198.775	0
198.995	0
199.214	0
199.434	0
199.654	0
199.874	0
200.094	1.63
200.313	0.31
200.533	0.83
200.753	0.05
200.973	1.43
201.192	1
201.412	-0.15
201.632	0.36
201.851	1.2
202.071	0.19
202.291	0.35
202.51	-0.2
202.73	0.79
202.95	0.46
203.169	-0.24
203.389	0.34
203.608	0.6
203.828	0.32
204.047	0.28
204.267	1.05
204.486	0.79
204.706	0.48
204.925	0.36
205.145	-0.03
205.364	0.94
205.583	1.1
205.803	0.27
206.022	0.21
206.242	0.64
206.461	0.64
206.68	0.48
206.9	0.28
207.119	0.92
207.338	0.56
207.557	0.12
207.777	0.07
207.996	0.04
208.215	0.9
208.434	0.06
208.654	0.03
208.873	0.64
209.092	1.03
209.311	0.18
209.53	0.1
209.749	-0.02
209.968	0.01
210.187	0.05
210.407	-0.12
210.626	0.38
210.845	0.25
211.064	0.38
211.283	0.12
211.502	0.66
211.721	0.22
211.94	0.22
212.159	0.44
212.377	0.37
212.596	0.39
212.815	0.23
213.034	0.49
213.253	0.34
213.472	0.52
213.691	0.2
213.91	-0.13
214.128	-0.06
214.347	0.5
214.566	-0.22
214.785	-0.28
215.003	0.42
215.222	0.24
215.441	0.04
215.66	-0.05
215.878	0.13
216.097	0.41
216.316	0.05
216.534	0.12
216.753	0.41
216.972	0.11
217.19	0.19
217.409	-0.12
217.627	0.03
217.846	-0.08
218.064	0.2
218.283	0.08
218.501	0.66
218.72	0.35
218.938	-0.06
219.157	-0.02
219.375	0.22
219.594	0.28
219.812	-0.06
220.031	0.13
220.249	0.43
220.467	0.44
220.686	0.07
220.904	-0.02
221.122	0.17
221.341	0.54
221.559	0.23
221.777	0.02
221.995	0.36
222.214	0.29
222.432	0
222.65	0.37
222.868	0.17
223.086	0.2
223.305	0.25
223.523	0.16
223.741	0.49
223.959	0.05
224.177	-0.02
224.395	0.06
224.613	0.15
224.831	0.31
225.049	0.08
225.267	0.08
225.485	0.13
225.703	0.08
225.921	0.04
226.139	0.1
226.357	0.17
226.575	0.17
226.793	0.03
227.011	0.87
227.229	0.14
227.447	0.33
227.665	0.13
227.883	0.02
228.1	0.19
228.318	0.06
228.536	-0.16
228.754	-0.01
228.972	0.26
229.189	0.24
229.407	0.13
229.625	0.17
229.843	0.23
230.06	0.23
230.278	0.21
230.496	0.02
230.713	0.16
230.931	0.21
231.149	0.05
231.366	-0.03
231.584	0.25
231.801	0.42
232.019	0.09
232.236	0.02
232.454	0.04
232.671	0.14
232.889	0.09
233.106	0.1
233.324	0.12
233.541	0.07
233.759	0.17
233.976	-0.01
234.194	0.16
234.411	0.11
234.628	0.03
234.846	-0.02
235.063	0.11
235.28	0.1
235.498	0.19
235.715	0.06
235.932	0.23
236.149	0.04
236.367	0.02
236.584	0.24
236.801	0.1
237.018	0.24
237.236	0.17
237.453	-0.15
237.67	0.36
237.887	0.05
238.104	0.14
238.321	-0
238.538	0.01
238.755	0.22
238.973	-0.03
239.19	0.16
239.407	0.07
239.624	0.18
239.841	0
240.058	0
240.275	0.08
240.492	0.03
240.709	0.1
240.925	0.05
241.142	0.13
241.359	-0.01
241.576	-0.01
241.793	0.07
242.01	0.09
242.227	0.14
242.444	0.19
242.66	0.19
242.877	0.16
243.094	-0.03
243.311	0.14
243.527	0.08
243.744	0.17
243.961	0.08
244.178	0.02
244.394	0.07
244.611	0.19
244.828	0.2
245.044	0.05
245.261	-0.05
245.477	0.1
245.694	0.11
245.911	0.04
246.127	0.14
246.344	0.24
246.56	0.25
246.777	0.08
246.993	0.06
247.21	0.19
247.426	0.15
247.643	0.07
247.859	-0.04
248.076	-0.02
248.292	0.3
248.508	0.06
248.725	0.13
248.941	0.14
249.157	0.19
249.374	0.02
249.59	0.01
249.806	0.12
250.023	0.3
250.239	0.07
250.455	0.08
250.671	0.05
250.888	0.14
251.104	0.17
251.32	0.07
251.536	0.08
251.752	0.03
251.969	0.06
252.185	0.03
252.401	0.29
252.617	0.14
252.833	0.06
253.049	-0.03
253.265	0.08
253.481	0.11
253.697	0.05
253.913	0
254.129	0.17
254.345	0.19
254.561	0.1
254.777	0.08
254.993	0.18
255.209	0.06
255.425	0.09
255.641	0.03
255.857	0.18
256.073	0.17
256.288	0.01
256.504	0.01
256.72	0.09
256.936	0.22
257.152	0.08
257.367	0.05
257.583	0.08
257.799	0.17
258.015	0.03
258.23	0.03
258.446	0.25
258.662	0.08
258.877	0.03
259.093	0.06
259.309	0.06
259.524	0.1
259.74	0.04
259.955	0.01
260.171	0.12
260.387	0.16
260.602	0.15
260.818	0.15
261.033	0.02
261.249	0.06
261.464	0.1
261.68	-0.06
261.895	0.12
262.11	0.13
262.326	0.02
262.541	0.01
262.757	0.15
262.972	0.15
263.187	0.08
263.403	0.08
263.618	0.09
263.833	0.08
264.049	0.05
264.264	0.07
264.479	0.07
264.694	0.18
264.91	0.05
265.125	0.04
265.34	0.15
265.555	0.3
265.77	0.13
265.986	0.09
266.201	0.14
266.416	0.14
266.631	0.03
266.846	0.06
267.061	0.11
267.276	0.16
267.491	-0.06
267.706	0.08
267.921	0.13
268.136	0.09
268.351	0.1
268.566	-0.05
268.781	0.18
268.996	0.11
269.211	0.11
269.426	0
269.641	0.1
269.856	0.2
270.071	0.06
270.285	-0.06
270.5	0.16
270.715	0.12
270.93	0.11
271.145	0.09
271.359	0.17
271.574	0.03
271.789	0.12
272.004	0.02
272.218	0.03
272.433	0.13
272.648	0.05
272.862	0.14
273.077	0.03
273.292	0.1
273.506	0.02
273.721	0.06
273.936	0.09
274.15	0.14
274.365	0.06
274.579	0.13
274.794	0.09
275.008	0.13
275.223	0.03
275.437	0.08
275.652	0.17
275.866	0.13
276.081	0.05
276.295	0.15
276.509	0.08
276.724	0.08
276.938	0.12
277.153	0.16
277.367	0.11
277.581	0.05
277.796	0.06
278.01	0.08
278.224	0.1
278.438	0.21
278.653	-0.02
278.867	0.03
279.081	-0.1
279.295	0.04
279.51	0.05
279.724	-0
279.938	0.11
280.152	0.03
280.366	0.01
280.58	0.05
280.794	0.14
281.008	0.11
281.222	0.11
281.437	0.21
281.651	0.06
281.865	0.19
282.079	0.03
282.293	-0.01
282.507	0.04
282.721	0.06
282.935	0.09
283.148	0
283.362	0.08
283.576	0.02
283.79	0.08
284.004	-0.01
284.218	0.14
284.432	0.08
284.646	0.09
284.859	0.03
285.073	0.02
285.287	0.05
285.501	0.06
285.714	0.02
285.928	0.11
286.142	0.08
286.356	0.02
286.569	0.08
286.783	0.17
286.997	0.09
287.21	0.1
287.424	0.09
287.637	0.06
287.851	0.05
288.065	0.11
288.278	0.06
288.492	0.04
288.705	0.05
288.919	0.05
289.132	-0.02
289.346	0.16
289.559	-0.02
289.773	-0.02
289.986	0.07
290.2	0.08
290.413	0.09
290.626	0.07
290.84	0.03
291.053	0.08
291.267	0.15
291.48	0.09
291.693	0.1
291.906	0.02
292.12	0.02
292.333	0.02
292.546	0.01
292.76	0.13
292.973	0.14
293.186	0.08
293.399	0.04
293.612	0.09
293.826	0.1
294.039	0.06
294.252	0.02
294.465	0.1
294.678	0.08
294.891	0.11
295.104	0
295.317	0.07
295.53	0.1
295.743	0.06
295.956	0.05
296.169	0.13
296.382	0.12
296.595	0.1
296.808	0.02
297.021	0.14
297.234	0.09
297.447	0.05
297.66	0.11
297.873	0.11
298.086	0.1
298.299	0.03
298.511	0.01
298.724	0.05
298.937	0.03
299.15	0.08
299.363	0.05
299.575	0.09
299.788	0.09
300.001	0.04
300.213	-0.01
300.426	0.07
300.639	0.04
300.852	0.04
301.064	0.09
301.277	0.11
301.489	0.12
301.702	0.11
301.915	0.04
302.127	0.08
302.34	0.07
302.552	0.08
302.765	0.07
302.977	0.12
303.19	0.02
303.402	0.08
303.615	0.08
303.827	-0
304.04	0.07
304.252	0.08
304.464	0.02
304.677	0.14
304.889	0.07
305.102	0.01
305.314	-0.02
305.526	0.1
305.739	0.06
305.951	0
306.163	0.04
306.375	0.15
306.588	0.03
306.8	0.02
307.012	0.02
307.224	0.03
307.436	0.14
307.649	-0.03
307.861	0.06
308.073	0.1
308.285	0.05
308.497	0.02
308.709	0
308.921	0.06
309.133	0.11
309.346	0.06
309.558	0.06
309.77	0.08
309.982	0.12
310.194	0.1
310.406	0.01
310.617	0.13
310.829	0.08
311.041	0.06
311.253	0.04
311.465	0.05
311.677	0.08
311.889	0.11
312.101	0.03
312.313	0.14
312.524	0.13
312.736	-0.02
312.948	0.05
313.16	0.14
313.372	0.11
313.583	0.07
313.795	0.03
314.007	0.05
314.218	0.11
314.43	0.05
314.642	0.03
314.853	0.03
315.065	0.11
315.277	0.08
315.488	0.07
315.7	0.09
315.912	0.04
316.123	0.05
316.335	0.09
316.546	0.19
316.758	0.06
316.969	0.02
317.181	0.06
317.392	0.08
317.604	0.1
317.815	0.07
318.026	0.04
318.238	0.03
318.449	0.11
318.661	-0.01
318.872	0.02
319.083	0.02
319.295	0.07
319.506	0.03
319.717	0.11
319.929	0.05
320.14	0.08
320.351	0.07
320.562	0.03
320.774	0.07
320.985	0.06
321.196	0.01
321.407	0
321.618	0.1
321.829	0.07
322.041	0.06
322.252	0.08
322.463	0.03
322.674	0.09
322.885	-0.01
323.096	0.01
323.307	0.07
323.518	0.09
323.729	0.04
323.94	0.05
324.151	0.03
324.362	0.1
324.573	0.06
324.784	0.04
324.995	0.12
325.206	0.12
325.417	0.04
325.628	0.03
325.838	0.07
326.049	0.03
326.26	0.09
326.471	0.05
326.682	0.11
326.892	0.05
327.103	0.01
327.314	-0.01
327.525	0.07
327.735	0.05
327.946	0.06
328.157	0.05
328.368	0.13
328.578	0.07
328.789	0.08
328.999	0.07
329.21	0.05
329.421	0.01
329.631	0.03
329.842	0.04
330.052	0.08
330.263	0.08
330.473	0.11
330.684	0.01
330.894	0.03
331.105	0.04
331.315	0.03
331.526	0.01
331.736	0.17
331.947	0.09
332.157	0.07
332.367	-0.02
332.578	0.1
332.788	0.1
332.999	0.08
333.209	0.07
333.419	0.01
333.629	0.08
333.84	0.08
334.05	0.04
334.26	0.1
334.47	0.06
334.681	0.06
334.891	0.03
335.101	0.06
335.311	0.15
335.521	0.06
335.732	0.02
335.942	0.13
336.152	0.06
336.362	0.08
336.572	0.05
336.782	0.11
336.992	0.03
337.202	0.04
337.412	0.04
337.622	0.12
337.832	0.08
338.042	0.06
338.252	-0.02
338.462	0.03
338.672	0.06
338.882	-0.02
339.092	0.04
339.302	0.13
339.511	0.08
339.721	0.03
339.931	0.01
340.141	0.11
340.351	0.11
340.561	0.09
340.77	0.07
340.98	0.08
341.19	0.09
341.4	0.01
341.609	0.02
341.819	0.07
342.029	0.06
342.238	0.06
342.448	0.01
342.658	0.07
342.867	0.07
343.077	0.03
343.286	0.09
343.496	0.07
343.706	0.09
343.915	-0
344.125	0.04
344.334	0.14
344.544	-0.01
344.753	0.02
344.963	0.03
345.172	0.05
345.381	0.02
345.591	0.03
345.8	0.04
346.01	0.1
346.219	0.05
346.428	-0.04
346.638	0.06
346.847	0.06
347.056	0.1
347.266	0.03
347.475	0.03
347.684	0.09
347.893	0.08
348.103	0.07
348.312	0.03
348.521	0.08
348.73	0.06
348.94	0.09
349.149	0.05
349.358	0.04
349.567	0.05
349.776	0.01
349.985	0.03
350.194	0.08
350.403	0.1
350.612	-0.01
350.821	0.05
351.03	0.07
351.239	0.02
351.448	0.07
351.657	0.02
351.866	0.14
352.075	0.04
352.284	0.11
352.493	-0.03
352.702	0.08
352.911	0.04
353.12	0.06
353.329	0.06
353.538	0.09
353.746	0.08
353.955	0.07
354.164	0.1
354.373	0.04
354.582	0.09
354.79	0.07
354.999	0.06
355.208	0.03
355.416	0.11
355.625	-0.01
355.834	0.06
356.042	0.06
356.251	0.06
356.46	-0
356.668	0.07
356.877	0.16
357.085	0.1
357.294	-0.02
357.503	0.05
357.711	0.05
357.92	0.19
358.128	0.04
358.337	0.03
358.545	0.09
358.754	0.1
358.962	0.13
359.17	0.03
359.379	0.1
359.587	0.1
359.796	0.05
360.004	0.12
360.212	0.1
360.421	0.11
360.629	0.07
360.837	0.01
361.046	0.08
361.254	0.15
361.462	0.07
361.67	0.04
361.879	0.05
362.087	0.1
362.295	0.09
362.503	0.05
362.711	0.02
362.92	0.03
363.128	0.03
363.336	0.03
363.544	0
363.752	0.05
363.96	0.02
364.168	0.02
364.376	0.07
364.584	0.08
364.792	0.11
365	0.1
365.208	0.05
365.416	0.07
365.624	0.09
365.832	0.05
366.04	0.12
366.248	0.04
366.456	0.07
366.664	0.06
366.872	0.03
367.079	0.05
367.287	0.06
367.495	0.07
367.703	0.04
367.911	0.02
368.118	0.04
368.326	0.05
368.534	0.02
368.742	0.12
368.949	0.01
369.157	0.03
369.365	0.07
369.572	0.04
369.78	0.01
369.988	0.13
370.195	0.06
370.403	0.09
370.61	0.04
370.818	0.09
371.026	0.13
371.233	0.02
371.441	0.08
371.648	0.02
371.856	0.11
372.063	0.07
372.271	0.02
372.478	0.02
372.685	0.06
372.893	0.07
373.1	0.01
373.308	0.04
373.515	0.13
373.722	0.07
373.93	0.05
374.137	0.09
374.344	0.14
374.552	0.12
374.759	0.08
374.966	0.06
375.173	0.06
375.381	0.07
375.588	0.07
375.795	-0.01
376.002	0.06
376.209	0.03
376.417	0.05
376.624	0.05
376.831	0.08
377.038	0.07
377.245	-0.04
377.452	0.02
377.659	0.07
377.866	0.03
378.073	0.04
378.28	0.04
378.487	0.11
378.694	0.09
378.901	0.03
379.108	0.06
379.315	0.07
379.522	0.13
379.729	0.13
379.936	0.05
380.143	0.06
380.35	0.05
380.557	0.07
380.763	0.07
380.97	0.06
381.177	0.07
381.384	0.11
381.591	0.02
381.797	0.11
382.004	0.1
382.211	0.07
382.418	0.05
382.624	0.08
382.831	0.09
383.038	0.04
383.244	0.05
383.451	0.09
383.658	0.11
383.864	0.07
384.071	0.03
384.277	0.11
384.484	0.06
384.69	0.11
384.897	0.03
385.103	0.09
385.31	0.02
385.516	0.04
385.723	0.04
385.929	0.08
386.136	0.04
386.342	0.03
386.549	0.02
386.755	0.09
386.961	0.09
387.168	0.03
387.374	0.12
387.58	0.09
387.787	0.09
387.993	0.11
388.199	0.08
388.406	0.05
388.612	0.06
388.818	0.06
389.024	0.04
389.231	0.1
389.437	0.16
389.643	0.1
389.849	0.07
390.055	0.06
390.261	0.08
390.467	0.08
390.674	0.04
390.88	0.06
391.086	0.08
391.292	0.04
391.498	0.07
391.704	0.1
391.91	-0
392.116	0.04
392.322	0.01
392.528	0.08
392.734	0.02
392.94	0.08
393.146	0.01
393.352	0.09
393.557	0.05
393.763	0.05
393.969	0.08
394.175	0.07
394.381	0.04
394.587	0.02
394.792	0.03
394.998	0.08
395.204	0.11
395.41	0.07
395.615	0.09
395.821	0.09
396.027	0.09
396.233	0.02
396.438	0.09
396.644	0.15
396.85	0.08
397.055	0.04
397.261	0.06
397.466	0.09
397.672	0.06
397.878	0.1
398.083	0.11
398.289	0.03
398.494	0.1
398.7	0.1
398.905	0.02
399.111	0.1
399.316	0.04
399.522	0.1
399.727	0.07
399.932	0.05
400.138	0.09
400.343	0.13
400.549	0.12
400.754	0.09
400.959	0.1
401.165	0.06
401.37	0.08
401.575	0.18
401.78	0.09
401.986	0.02
402.191	0.03
402.396	0.04
402.601	0.09
402.807	0.09
403.012	0.1
403.217	0.12
403.422	0.06
403.627	0
403.832	0.06
404.037	0.11
404.243	0.08
404.448	0.08
404.653	0.07
404.858	0.09
405.063	0.09
405.268	0.04
405.473	0.03
405.678	0.09
405.883	0.2
406.088	0.11
406.293	0.02
406.498	0.03
406.703	0.16
406.907	0.05
407.112	0.01
407.317	0.05
407.522	0.12
407.727	0.04
407.932	0.05
408.136	0.19
408.341	0.06
408.546	0.06
408.751	0.05
408.956	0.1
409.16	0.1
409.365	0.08
409.57	0.08
409.774	0.08
409.979	0.15
410.184	0.1
410.388	0.05
410.593	0.09
410.798	0.09
411.002	0.05
411.207	0.16
411.411	0.12
411.616	0.03
411.82	0.06
412.025	0.09
412.229	0.04
412.434	0.16
412.638	0.11
412.843	0.08
413.047	0.12
413.252	0.07
413.456	0.08
413.66	0.1
413.865	0.03
414.069	0.14
414.273	0.04
414.478	0.04
414.682	0.08
414.886	0.07
415.091	0.04
415.295	-0.01
415.499	0.08
415.703	0.06
415.908	0.08
416.112	0.02
416.316	0.13
416.52	0.09
416.724	0.05
416.929	0.06
417.133	0.19
417.337	0.07
417.541	0.09
417.745	0.09
417.949	0.09
418.153	0.14
418.357	0.02
418.561	0.16
418.765	0.06
418.969	0.18
419.173	0.09
419.377	0.11
419.581	0.18
419.785	0.12
419.989	0
420.193	0.09
420.397	0.07
420.601	0.14
420.804	0.12
421.008	0.09
421.212	0.09
421.416	0.14
421.62	0.09
421.823	0.03
422.027	0.14
422.231	0.12
422.435	0.12
422.638	0.13
422.842	0.06
423.046	0.04
423.249	0.13
423.453	0.16
423.657	0.1
423.86	0.07
424.064	0.12
424.268	0.16
424.471	0.06
424.675	0.12
424.878	0.19
425.082	0.13
425.285	0.14
425.489	0.12
425.692	0.08
425.896	0.08
426.099	0.13
426.303	0.05
426.506	0.04
426.71	0.14
426.913	0.14
427.116	0.14
427.32	0.14
427.523	0.12
427.726	0.2
427.93	0.09
428.133	0.14
428.336	0.09
428.54	0.04
428.743	0.11
428.946	0.16
429.149	0.08
429.353	0.11
429.556	0.11
429.759	0.1
429.962	0.06
430.165	0.13
430.368	0.07
430.571	0.11
430.775	0.11
430.978	0.09
431.181	0.11
431.384	0.1
431.587	0.11
431.79	0.11
431.993	0.15
432.196	0.13
432.399	0.08
432.602	0.18
432.805	0.07
433.008	0.08
433.211	0.08
433.414	0.12
433.616	0.16
433.819	0.11
434.022	0.02
434.225	0.18
434.428	0.16
434.631	0.19
434.833	0.11
435.036	0.09
435.239	0.18
435.442	0.1
435.645	0.09
435.847	0.16
436.05	0.16
436.253	0.15
436.455	0.08
436.658	0.13
436.861	0.16
437.063	0.12
437.266	0.06
437.468	0.09
437.671	0.26
437.874	0.15
438.076	0.04
438.279	0.09
438.481	0.1
438.684	0.09
438.886	0.14
439.089	0.03
439.291	0.16
439.494	0.14
439.696	0.06
439.899	0.09
440.101	0.12
440.303	0.04
440.506	0.15
440.708	0.13
440.91	0.12
441.113	0.1
441.315	0.14
441.517	0.04
441.72	0.18
441.922	0.08
442.124	0.08
442.326	0.11
442.529	0.24
442.731	0.06
442.933	0.14
443.135	0.13
443.337	0.07
443.539	0.11
443.742	0.1
443.944	0.11
444.146	0.11
444.348	0.1
444.55	0.1
444.752	0.16
444.954	0.09
445.156	0.11
445.358	0.1
445.56	0.2
445.762	0.14
445.964	0.14
446.166	0.06
446.368	0.1
446.57	0.17
446.772	0.11
446.974	0.1
447.175	0.12
447.377	0.08
447.579	0.08
447.781	0.06
447.983	0.17
448.184	0.1
448.386	0.12
448.588	0.02
448.79	0.1
448.991	0.1
449.193	0.09
449.395	0.12
449.597	0.14
449.798	0.15
450	0.18
450.202	0.12
450.403	0.15
450.605	0.19
450.806	0.1
451.008	0.06
451.21	0.11
451.411	0.1
451.613	0.09
451.814	0.11
452.016	0.13
452.217	0.14
452.419	0.15
452.62	0.15
452.821	0.2
453.023	0.19
453.224	0.26
453.426	0.15
453.627	0.15
453.828	0.19
454.03	0.11
454.231	0.11
454.432	0.11
454.634	0.24
454.835	0.09
455.036	0.09
455.238	0.23
455.439	0.2
455.64	0.1
455.841	0.11
456.042	0.23
456.244	0.15
456.445	0.13
456.646	0.09
456.847	0.1
457.048	0.16
457.249	0.2
457.45	0.36
457.651	0.11
457.852	0.2
458.054	0.12
458.255	0.1
458.456	0.23
458.657	0.13
458.858	0.11
459.058	0.15
459.259	0.17
459.46	0.17
459.661	0.12
459.862	0.25
460.063	0.12
460.264	0.19
460.465	0.07
460.666	0.27
460.866	0.17
461.067	0.11
461.268	0.15
461.469	0.08
461.67	0.13
461.87	0.11
462.071	0.12
462.272	0.12
462.473	0.16
462.673	0.17
462.874	0.12
463.075	0.18
463.275	0.1
463.476	0.22
463.676	0.18
463.877	0.2
464.078	0.16
464.278	0.19
464.479	0.13
464.679	0.19
464.88	0.15
465.08	0.29
465.281	0.11
465.481	0.13
465.682	0.16
465.882	0.17
466.083	0.2
466.283	0.18
466.483	0.18
466.684	0.13
466.884	0.11
467.085	0.17
467.285	0.23
467.485	0.12
467.686	0.18
467.886	0.14
468.086	0.18
468.286	0.16
468.487	0.18
468.687	0.13
468.887	0.17
469.087	0.22
469.287	0.19
469.488	0.12
469.688	0.19
469.888	0.29
470.088	0.22
470.288	0.28
470.488	0.24
470.688	0.15
470.888	0.18
471.088	0.11
471.288	0.21
471.488	0.27
471.688	0.23
471.888	0.17
472.088	0.29
472.288	0.23
472.488	0.19
472.688	0.21
472.888	0.22
473.088	0.25
473.288	0.24
473.488	0.24
473.688	0.3
473.887	0.21
474.087	0.2
474.287	0.25
474.487	0.21
474.687	0.27
474.886	0.23
475.086	0.24
475.286	0.24
475.486	0.27
475.685	0.25
475.885	0.24
476.085	0.25
476.284	0.26
476.484	0.28
476.684	0.29
476.883	0.34
477.083	0.33
477.282	0.29
477.482	0.35
477.681	0.32
477.881	0.31
478.08	0.28
478.28	0.28
478.479	0.38
478.679	0.39
478.878	0.32
479.078	0.32
479.277	0.31
479.477	0.34
479.676	0.4
479.875	0.38
480.075	0.29
480.274	0.38
480.473	0.42
480.673	0.35
480.872	0.46
481.071	0.43
481.271	0.43
481.47	0.36
481.669	0.41
481.868	0.36
482.067	0.42
482.267	0.39
482.466	0.41
482.665	0.44
482.864	0.47
483.063	0.46
483.262	0.5
483.461	0.52
483.661	0.55
483.86	0.53
484.059	0.5
484.258	0.54
484.457	0.52
484.656	0.55
484.855	0.6
485.054	0.51
485.253	0.56
485.452	0.53
485.651	0.62
485.849	0.62
486.048	0.59
486.247	0.61
486.446	0.65
486.645	0.62
486.844	0.66
487.043	0.68
487.241	0.73
487.44	0.66
487.639	0.74
487.838	0.77
488.037	0.77
488.235	0.81
488.434	0.8
488.633	0.72
488.831	0.85
489.03	0.86
489.229	0.86
489.427	0.85
489.626	0.92
489.825	0.94
490.023	0.94
490.222	0.93
490.42	0.97
490.619	1.01
490.817	1.04
491.016	1.03
491.214	1.09
491.413	1.08
491.611	1.07
491.81	1.07
492.008	1.12
492.207	1.19
492.405	1.2
492.604	1.17
492.802	1.24
493	1.25
493.199	1.27
493.397	1.31
493.595	1.34
493.794	1.35
493.992	1.45
494.19	1.42
494.388	1.49
494.587	1.44
494.785	1.48
494.983	1.47
495.181	1.56
495.379	1.62
495.578	1.65
495.776	1.69
495.974	1.68
496.172	1.71
496.37	1.77
496.568	1.8
496.766	1.83
496.964	1.96
497.162	1.93
497.36	1.95
497.558	2
497.756	2.1
497.954	2.08
498.152	2.15
498.35	2.22
498.548	2.16
498.746	2.26
498.944	2.3
499.142	2.32
499.34	2.38
499.538	2.49
499.736	2.43
499.933	2.54
500.131	2.59
500.329	2.7
500.527	2.73
500.725	2.87
500.922	2.87
501.12	2.87
501.318	2.99
501.516	3.02
501.713	3.12
501.911	3.11
502.109	3.14
502.306	3.31
502.504	3.19
502.701	3.29
502.899	3.42
503.097	3.66
503.294	3.56
503.492	3.71
503.689	3.74
503.887	3.79
504.084	3.88
504.282	3.9
504.479	3.97
504.677	4.15
504.874	4.18
505.072	4.11
505.269	4.36
505.466	4.42
505.664	4.53
505.861	4.47
506.059	4.66
506.256	4.71
506.453	4.83
506.651	4.98
506.848	5.1
507.045	5.08
507.242	5.13
507.44	5.21
507.637	5.42
507.834	5.36
508.031	5.6
508.229	5.62
508.426	5.54
508.623	5.83
508.82	5.94
509.017	5.95
509.214	6.02
509.411	6.22
509.608	6.18
509.805	6.4
510.003	6.47
510.2	6.55
510.397	6.77
510.594	6.71
510.791	6.92
510.988	6.89
511.184	6.93
511.381	6.83
511.578	7.15
511.775	7.39
511.972	7.32
512.169	7.44
512.366	7.52
512.563	7.74
512.76	7.8
512.956	7.96
513.153	7.96
513.35	7.96
513.547	8.01
513.744	8.25
513.94	8.22
514.137	8.44
514.334	8.49
514.53	8.54
514.727	8.86
514.924	8.78
515.12	8.82
515.317	8.93
515.514	8.84
515.71	8.87
515.907	9.24
516.103	9.27
516.3	9.21
516.497	9.35
516.693	9.45
516.89	9.51
517.086	9.63
517.283	9.62
517.479	9.49
517.676	9.76
517.872	9.8
518.068	9.87
518.265	9.86
518.461	9.79
518.658	10
518.854	9.99
519.05	10.18
519.247	10.24
519.443	10.15
519.639	10.31
519.836	10.17
520.032	10.09
520.228	10.39
520.424	10.24
520.621	10.31
520.817	10.44
521.013	10.26
521.209	10.56
521.405	10.5
521.601	10.39
521.798	10.3
521.994	10.28
522.19	10.21
522.386	10.28
522.582	10.37
522.778	10.54
522.974	10.28
523.17	10.28
523.366	10.13
523.562	10.26
523.758	10.21
523.954	9.99
524.15	10.27
524.346	10.22
524.542	10.2
524.738	10.04
524.934	10.13
525.129	10.08
525.325	9.82
525.521	9.86
525.717	10.04
525.913	9.73
526.109	9.71
526.304	9.86
526.5	9.68
526.696	9.7
526.892	9.49
527.087	9.72
527.283	9.53
527.479	9.43
527.674	9.1
527.87	9.37
528.066	9.17
528.261	9.14
528.457	8.97
528.653	9.05
528.848	8.98
529.044	8.95
529.239	8.65
529.435	8.66
529.63	8.57
529.826	8.5
530.021	8.41
530.217	8.44
530.412	8.27
530.608	8.21
530.803	8.13
530.999	7.92
531.194	7.94
531.389	8.04
531.585	7.83
531.78	7.89
531.975	7.7
532.171	7.71
532.366	7.56
532.561	7.46
532.757	7.37
532.952	7.49
533.147	7.15
533.342	7.2
533.538	7.08
533.733	7.2
533.928	6.74
534.123	6.86
534.318	6.82
534.513	6.67
534.709	6.81
534.904	6.63
535.099	6.62
535.294	6.55
535.489	6.48
535.684	6.35
535.879	6.24
536.074	6.3
536.269	6.16
536.464	6.09
536.659	5.97
536.854	5.88
537.049	5.92
537.244	5.82
537.439	5.78
537.634	5.71
537.828	5.68
538.023	5.55
538.218	5.52
538.413	5.41
538.608	5.42
538.803	5.3
538.997	5.25
539.192	5.21
539.387	5.17
539.582	5.13
539.776	4.98
539.971	5.06
540.166	4.93
540.36	4.84
540.555	4.9
540.75	4.79
540.944	4.75
541.139	4.69
541.334	4.63
541.528	4.62
541.723	4.63
541.917	4.56
542.112	4.38
542.306	4.31
542.501	4.27
542.695	4.32
542.89	4.23
543.084	4.25
543.279	4.18
543.473	4.15
543.668	4.1
543.862	3.99
544.056	3.97
544.251	3.98
544.445	3.96
544.64	3.92
544.834	3.69
545.028	3.6
545.222	3.73
545.417	3.78
545.611	3.71
545.805	3.59
546	3.45
546.194	3.55
546.388	3.51
546.582	3.36
546.776	3.36
546.97	3.38
547.165	3.34
547.359	3.27
547.553	3.26
547.747	3.15
547.941	3.22
548.135	3.09
548.329	3.14
548.523	3.08
548.717	2.98
548.911	2.98
549.105	2.89
549.299	2.9
549.493	2.88
549.687	2.8
549.881	2.81
550.075	2.77
550.269	2.66
550.463	2.72
550.657	2.63
550.85	2.6
551.044	2.56
551.238	2.59
551.432	2.48
551.626	2.53
551.82	2.48
552.013	2.4
552.207	2.42
552.401	2.38
552.594	2.33
552.788	2.26
552.982	2.26
553.176	2.2
553.369	2.29
553.563	2.22
553.756	2.14
553.95	2.13
554.144	2.09
554.337	2.08
554.531	2.02
554.724	2.02
554.918	2.02
555.111	1.96
555.305	1.91
555.498	1.94
555.692	1.89
555.885	1.86
556.079	1.88
556.272	1.79
556.466	1.8
556.659	1.75
556.852	1.76
557.046	1.71
557.239	1.66
557.432	1.65
557.626	1.63
557.819	1.67
558.012	1.64
558.206	1.64
558.399	1.55
558.592	1.52
558.785	1.5
558.979	1.5
559.172	1.47
559.365	1.48
559.558	1.42
559.751	1.41
559.944	1.41
560.138	1.34
560.331	1.37
560.524	1.36
560.717	1.32
560.91	1.29
561.103	1.32
561.296	1.29
561.489	1.26
561.682	1.26
561.875	1.23
562.068	1.23
562.261	1.19
562.454	1.23
562.647	1.14
562.84	1.18
563.032	1.15
563.225	1.13
563.418	1.08
563.611	1.11
563.804	1.05
563.997	1.04
564.19	0.99
564.382	1.07
564.575	1.01
564.768	0.99
564.961	1.02
565.153	0.97
565.346	0.98
565.539	0.97
565.731	0.97
565.924	0.98
566.117	0.98
566.309	0.91
566.502	0.83
566.695	0.86
566.887	0.9
567.08	0.87
567.272	0.84
567.465	0.83
567.657	0.82
567.85	0.84
568.042	0.84
568.235	0.86
568.427	0.75
568.62	0.77
568.812	0.79
569.005	0.78
569.197	0.7
569.389	0.76
569.582	0.76
569.774	0.74
569.966	0.67
570.159	0.67
570.351	0.72
570.543	0.67
570.736	0.69
570.928	0.63
571.12	0.68
571.312	0.65
571.505	0.61
571.697	0.69
571.889	0.57
572.081	0.64
572.273	0.59
572.465	0.67
572.658	0.59
572.85	0.6
573.042	0.59
573.234	0.57
573.426	0.6
573.618	0.51
573.81	0.55
574.002	0.58
574.194	0.58
574.386	0.49
574.578	0.46
574.77	0.5
574.962	0.51
575.154	0.47
575.346	0.47
575.538	0.49
575.729	0.46
575.921	0.47
576.113	0.46
576.305	0.5
576.497	0.44
576.689	0.45
576.88	0.45
577.072	0.47
577.264	0.41
577.456	0.45
577.647	0.37
577.839	0.42
578.031	0.45
578.223	0.38
578.414	0.36
578.606	0.42
578.798	0.41
578.989	0.35
579.181	0.4
579.372	0.4
579.564	0.38
579.755	0.37
579.947	0.38
580.139	0.38
580.33	0.31
580.522	0.35
580.713	0.29
580.905	0.37
581.096	0.37
581.287	0.34
581.479	0.32
581.67	0.35
581.862	0.34
582.053	0.31
582.244	0.25
582.436	0.32
582.627	0.32
582.818	0.29
583.01	0.25
583.201	0.33
583.392	0.3
583.583	0.27
583.775	0.27
583.966	0.28
584.157	0.29
584.348	0.28
584.54	0.24
584.731	0.29
584.922	0.27
585.113	0.24
585.304	0.27
585.495	0.29
585.686	0.26
585.877	0.29
586.068	0.24
586.259	0.26
586.45	0.25
586.641	0.22
586.832	0.2
587.023	0.22
587.214	0.24
587.405	0.26
587.596	0.23
587.787	0.28
587.978	0.23
588.169	0.2
588.36	0.21
588.551	0.22
588.742	0.22
588.932	0.24
589.123	0.21
589.314	0.23
589.505	0.23
589.696	0.2
589.886	0.17
590.077	0.17
590.268	0.2
590.458	0.15
590.649	0.15
590.84	0.23
591.03	0.17
591.221	0.16
591.412	0.14
591.602	0.22
591.793	0.21
591.984	0.17
592.174	0.16
592.365	0.25
592.555	0.16
592.746	0.19
592.936	0.18
593.127	0.18
593.317	0.22
593.508	0.14
593.698	0.17
593.889	0.18
594.079	0.17
594.269	0.14
594.46	0.17
594.65	0.16
594.84	0.16
595.031	0.15
595.221	0.13
595.411	0.11
595.602	0.21
595.792	0.17
595.982	0.15
596.172	0.21
596.363	0.18
596.553	0.15
596.743	0.16
596.933	0.18
597.123	0.16
597.314	0.12
597.504	0.13
597.694	0.18
597.884	0.16
598.074	0.13
598.264	0.11
598.454	0.14
598.644	0.16
598.834	0.12
599.024	0.07
599.214	0.13
599.404	0.16
599.594	0.12
599.784	0.11
599.974	0.21
600.164	0.15
600.354	0.07
600.544	0.08
600.734	0.13
600.924	0.18
601.114	0.11
601.303	0.11
601.493	0.13
601.683	0.11
601.873	0.12
602.063	0.05
602.252	0.15
602.442	0.05
602.632	0.1
602.821	0.07
603.011	0.12
603.201	0.11
603.39	0.08
603.58	0.07
603.77	0.12
603.959	0.15
604.149	0.11
604.339	0.09
604.528	0.14
604.718	0.15
604.907	0.08
605.097	0.09
605.286	0.04
605.476	0.12
605.665	0.15
605.855	0.1
606.044	0.15
606.234	0.12
606.423	0.09
606.612	0.07
606.802	0.1
606.991	0.08
607.181	0.12
607.37	0.08
607.559	0.08
607.749	0.04
607.938	0.06
608.127	0.1
608.316	0.06
608.506	0.12
608.695	0.06
608.884	0.06
609.073	0.09
609.263	0.13
609.452	0.12
609.641	0.11
609.83	0.08
610.019	0.1
610.208	0.06
610.397	0.08
610.586	0.12
610.775	0.05
610.965	0.1
611.154	0.04
611.343	0.09
611.532	0.08
611.721	0.07
611.91	0.06
612.099	0.12
612.287	0.06
612.476	0.03
612.665	0.11
612.854	0.05
613.043	0.14
613.232	0.05
613.421	0.03
613.61	0.09
613.798	0.06
613.987	0.12
614.176	0.1
614.365	0.11
614.554	0.09
614.742	0.1
614.931	0.04
615.12	0.13
615.309	0.06
615.497	0.09
615.686	0.07
615.875	0.07
616.063	0.08
616.252	0.07
616.44	0.09
616.629	0.08
616.818	0.09
617.006	0.08
617.195	0.09
617.383	0.1
617.572	0.08
617.76	0.04
617.949	0.07
618.137	0.09
618.326	0.1
618.514	0.07
618.703	0.04
618.891	0.13
619.079	0.03
619.268	0.1
619.456	0.05
619.644	0.11
619.833	0.06
620.021	0.07
620.209	0.03
620.398	0.1
620.586	0.08
620.774	0.1
620.962	0.08
621.151	0.12
621.339	0.06
621.527	0.03
621.715	0.02
621.903	0.05
622.092	0.06
622.28	0.07
622.468	0.06
622.656	0.1
622.844	0.11
623.032	0.06
623.22	0.01
623.408	0.12
623.596	0.07
623.784	0.1
623.972	0.05
624.16	0.06
624.348	0.14
624.536	0.06
624.724	0.07
624.912	0.12
625.1	0.07
625.288	0.03
625.476	0.04
625.664	0.09
625.851	0.02
626.039	0.06
626.227	0.08
626.415	0.04
626.603	-0.01
626.79	0.07
626.978	0.03
627.166	0.08
627.354	0.05
627.541	0.05
627.729	0.03
627.917	0.1
628.104	0.1
628.292	0.05
628.48	0.06
628.667	0.07
628.855	0.09
629.042	0.08
629.23	0.04
629.418	0.07
629.605	0.04
629.793	0.02
629.98	0.07
630.168	0.05
630.355	0.05
630.543	0.07
630.73	0
630.917	0.07
631.105	0.12
631.292	0.06
631.48	0.05
631.667	0.16
631.854	0.08
632.042	0.09
632.229	0.03
632.416	0.08
632.604	0.07
632.791	0.03
632.978	0.07
633.165	0.08
633.353	0.12
633.54	0.08
633.727	-0.01
633.914	0.03
634.101	-0.01
634.289	0.1
634.476	0.03
634.663	0.04
634.85	0.08
635.037	0.02
635.224	-0.02
635.411	0.07
635.598	0.1
635.785	0.05
635.972	0.05
636.159	0.07
636.346	-0.01
636.533	0.08
636.72	0.05
636.907	0.05
637.094	0.07
637.281	0.04
637.468	0.06
637.655	0.04
637.842	0.05
638.029	0.05
638.215	0.07
638.402	0.07
638.589	0.02
638.776	0.02
638.963	0.02
639.149	0.09
639.336	0.12
639.523	0.08
639.709	0.04
639.896	0.05
640.083	0.09
640.27	0.07
640.456	0.02
640.643	0.08
640.829	-0.01
641.016	0.05
641.203	0
641.389	0.07
641.576	0.05
641.762	0.04
641.949	0.01
642.135	0.09
642.322	0.04
642.508	-0.01
642.695	0.05
642.881	0.06
643.068	0.03
643.254	0.06
643.441	0.09
643.627	0.05
643.813	0.05
644	0.14
644.186	-0.01
644.372	-0.03
644.559	0.08
644.745	0.02
644.931	0.03
645.118	0.03
645.304	0.05
645.49	0.01
645.676	0.04
645.862	0.08
646.049	0.1
646.235	0.04
646.421	0.12
646.607	0.12
646.793	0.05
646.979	0.01
647.165	0.05
647.352	0.04
647.538	0.09
647.724	0.09
647.91	0.08
648.096	0.09
648.282	0.13
648.468	0.05
648.654	0.07
648.84	0.05
649.026	0.06
649.212	0.06
649.397	0.03
649.583	-0.02
649.769	0.08
649.955	0.04
650.141	0.06
650.327	0.12
650.513	0.03
650.698	0.09
650.884	0.01
651.07	0.03
651.256	0.07
651.442	0.06
651.627	0.05
651.813	0.07
651.999	0.06
652.184	0.05
652.37	0.05
652.556	-0.01
652.741	0.12
652.927	-0.03
653.113	0.02
653.298	0.07
653.484	0.03
653.669	0.01
653.855	0.05
654.04	0.02
654.226	0.06
654.412	0.01
654.597	0.01
654.782	0.08
654.968	0.11
655.153	0.08
655.339	0.04
655.524	0.02
655.71	0.08
655.895	0.08
656.08	0.06
656.266	0.1
656.451	0.06
656.636	-0.01
656.822	0.08
657.007	0.05
657.192	0.04
657.378	-0
657.563	0.06
657.748	0.07
657.933	0.07
658.118	0.06
658.304	0.03
658.489	0.08
658.674	0.08
658.859	-0.02
659.044	0.1
659.229	0.05
659.414	0.04
659.599	0.05
659.785	0
659.97	0
660.155	0.08
660.34	0.05
660.525	0.04
660.71	0.06
660.895	0.09
661.08	0.04
661.264	0.03
661.449	0.11
661.634	0.1
661.819	0.06
662.004	0.07
662.189	0.01
662.374	0.04
662.559	0.02
662.743	0.01
662.928	0.05
663.113	0.03
663.298	-0
663.483	0.05
663.667	0.05
663.852	-0
664.037	0.08
664.221	0.06
664.406	0.1
664.591	0.08
664.775	0.05
664.96	0.1
665.145	0.06
665.329	0.1
665.514	0.02
665.698	0.05
665.883	-0.02
666.068	0.12
666.252	0.05
666.437	-0.03
666.621	0.06
666.806	0.08
666.99	0.05
667.174	-0.01
667.359	0.08
667.543	0.06
667.728	0.02
667.912	-0.04
668.096	0.07
668.281	0.03
668.465	0.09
668.649	0.09
668.834	0.01
669.018	0.07
669.202	0.03
669.387	0.02
669.571	0.12
669.755	0.02
669.939	0.04
670.124	0.07
670.308	0.12
670.492	0.09
670.676	0.06
670.86	0.08
671.044	0.01
671.228	0.09
671.413	0
671.597	0.06
671.781	0.05
671.965	0.07
672.149	0.04
672.333	0.06
672.517	0.06
672.701	0.09
672.885	0.04
673.069	0.02
673.253	0.11
673.437	0.04
673.621	0.02
673.804	0.01
673.988	0.06
674.172	0.09
674.356	-0.01
674.54	0.04
674.724	0.12
674.908	0.05
675.091	0.07
675.275	0.06
675.459	0.05
675.643	0.1
675.826	0.11
676.01	0.1
676.194	0.05
676.377	0.1
676.561	0.08
676.745	0.11
676.928	0.12
677.112	0.1
677.296	0.05
677.479	0.05
677.663	0.05
677.846	0.06
678.03	0.02
678.213	0.03
678.397	0.08
678.58	0.07
678.764	0.06
678.947	0.05
679.131	0.1
679.314	0.1
679.498	0.04
679.681	0.12
679.865	0.13
680.048	0.09
680.231	0.08
680.415	0.06
680.598	0.08
680.781	0.08
680.965	0.08
681.148	0.06
681.331	0.06
681.514	0.08
681.698	0.05
681.881	0.07
682.064	0.1
682.247	0.1
682.43	0.01
682.614	0.08
682.797	0.12
682.98	0.12
683.163	0.04
683.346	0.12
683.529	0.08
683.712	0.04
683.895	0.1
684.078	0.02
684.261	0.07
684.444	0.08
684.627	0.1
684.81	0.04
684.993	0.08
685.176	0.13
685.359	0
685.542	0.02
685.725	0.16
685.908	0.05
686.091	0.04
686.274	0.1
686.457	0.1
686.639	0.02
686.822	0.12
687.005	0.09
687.188	0.07
687.371	0.12
687.553	0.1
687.736	0.11
687.919	0.14
688.102	0.11
688.284	0.03
688.467	0.04
688.65	0.09
688.832	0.05
689.015	0.03
689.197	0.03
689.38	0.17
689.563	0.11
689.745	-0
689.928	0
690.11	0.07
690.293	0.03
690.475	-0.01
690.658	0.09
690.84	0.06
691.023	0.07
691.205	0.03
691.388	0.06
691.57	0.11
691.752	0.13
691.935	0.01
692.117	0.07
692.3	0.06
692.482	0.07
692.664	0.08
692.847	0.04
693.029	0.15
693.211	0.1
693.393	0.06
693.576	0.06
693.758	0.09
693.94	0.04
694.122	0.05
694.304	0.03
694.487	0.02
694.669	0.14
694.851	0.01
695.033	0.06
695.215	0.07
695.397	0
695.579	0.07
695.761	0.07
695.943	-0.04
696.125	0.1
696.308	0.1
696.49	-0.03
696.671	0.18
696.853	0.04
697.035	0.27
697.217	0.07
697.399	0.12
697.581	0.03
697.763	0.09
697.945	-0.03
698.127	0.08
698.309	0.11
698.491	0.07
698.672	0.09
698.854	0.13
699.036	0.19
699.218	0.04
699.399	0.13
699.581	0.14
699.763	0.06
699.945	-0.02
700.126	0.07
700.308	0.09
700.49	0.07
700.671	-0.06
700.853	0.03
701.035	0.04
701.216	0.1
701.398	0.02
701.579	0.09
701.761	0.16
701.943	0.01
702.124	0.08
702.306	0.07
702.487	0.17
702.669	0.09
702.85	0.07
703.031	-0
703.213	0.22
703.394	0.07
703.576	0.01
703.757	0.1
703.938	0.15
704.12	0.21
704.301	0.06
704.483	0.06
704.664	0.07
704.845	0.15
705.026	0.11
705.208	0.07
705.389	0.09
705.57	0.07
705.751	0.07
705.933	0.08
706.114	0.14
706.295	0.07
706.476	-0
706.657	0.18
706.838	0.07
707.02	0.1
707.201	0.01
707.382	0.03
707.563	0.07
707.744	0.05
707.925	0.01
708.106	0.04
708.287	0.1
708.468	0.15
708.649	0.11
708.83	0.06
709.011	-0
709.192	0.14
709.373	-0.01
709.554	0.04
709.734	0.13
709.915	0.12
710.096	0.1
710.277	-0.04
710.458	0.06
710.639	0.11
710.819	-0.05
711	0.06
711.181	0.15
711.362	0.14
711.542	0.15
711.723	0.05
711.904	0.12
712.085	0.1
712.265	0.05
712.446	-0.01
712.627	0.03
712.807	0.05
712.988	0.15
713.168	-0.05
713.349	0.07
713.53	-0
713.71	0.04
713.891	0.04
714.071	0.09
714.252	0.12
714.432	0.01
714.613	0.03
714.793	0.06
714.974	0.1
715.154	0.13
715.334	0.12
715.515	0.13
715.695	-0.01
715.876	0.03
716.056	0.02
716.236	0.01
716.417	-0.02
716.597	0.08
716.777	0.26
716.957	-0.02
717.138	0.07
717.318	0.08
717.498	-0
717.678	0.1
717.859	0.05
718.039	-0.05
718.219	0
718.399	0.19
718.579	-0.01
718.759	0.02
718.939	0.15
719.12	0.08
719.3	0.05
719.48	-0.01
719.66	-0.04
719.84	0.12
720.02	0.09
720.2	0.04
720.38	0.04
720.56	0.1
720.74	-0
720.92	0.14
721.1	0.17
721.279	0.17
721.459	0.06
721.639	-0.02
721.819	0.08
721.999	0.11
722.179	0.14
722.359	0.02
722.538	0.13
722.718	0.03
722.898	0.06
723.078	0.06
723.257	-0.01
723.437	0.03
723.617	0.01
723.797	0.05
723.976	0.11
724.156	0.13
724.336	0.25
724.515	0.17
724.695	-0.02
724.874	0
725.054	0.13
725.234	-0.02
725.413	0.05
725.593	0.01
725.772	0.1
725.952	0.02
726.131	0.03
726.311	0.07
726.49	0.04
726.67	0.07
726.849	0.05
727.028	0.07
727.208	0.11
727.387	0.11
727.567	-0.06
727.746	0.07
727.925	0.01
728.105	-0.01
728.284	0.01
728.463	-0.02
728.643	0.13
728.822	-0.05
729.001	-0
729.18	0.09
729.359	0.12
729.539	0.05
729.718	0.05
729.897	0.11
730.076	0.09
730.255	-0.01
730.434	0.11
730.614	0.06
730.793	0.2
730.972	0.06
731.151	0.13
731.33	0.13
731.509	0.14
731.688	0.06
731.867	0.11
732.046	-0.02
732.225	0.28
732.404	-0
732.583	-0.03
732.762	0.06
732.941	0.09
733.12	0.12
733.298	-0.06
733.477	0.21
733.656	0.11
733.835	-0.01
734.014	0.17
734.193	0.12
734.371	0.2
734.55	0.17
734.729	0.03
734.908	0.02
735.086	0.11
735.265	0.21
735.444	-0.07
735.623	-0.05
735.801	0.06
735.98	0.01
736.159	0.04
736.337	0.11
736.516	0.16
736.694	0.13
736.873	0.04
737.052	0.26
737.23	0.23
737.409	-0
737.587	0.23
737.766	-0.07
737.944	0.07
738.123	0.08
738.301	0.19
738.479	-0.03
738.658	0.13
738.836	0.02
739.015	0.11
739.193	0.18
739.371	-0.03
739.55	0.05
739.728	0.07
739.906	0.25
740.085	0.23
740.263	0.15
740.441	-0.11
740.62	0.23
740.798	0.15
740.976	-0.05
741.154	-0
741.332	0.16
741.511	0.08
741.689	0.17
741.867	0.17
742.045	0.14
742.223	0.05
742.401	-0.12
742.579	0.01
742.757	0.12
742.935	-0.03
743.114	-0.01
743.292	0.09
743.47	0.21
743.648	0.07
743.826	-0.08
744.004	0.14
744.181	0.08
744.359	0.06
744.537	0.14
744.715	0.03
744.893	0.09
745.071	-0.01
745.249	0.06
745.427	0.03
745.605	0.19
745.782	0.13
745.96	0.13
746.138	0.17
746.316	0.05
746.493	0.09
746.671	0.1
746.849	0
747.027	0.22
747.204	0.03
747.382	0.13
747.56	-0.02
747.737	0.21
747.915	-0.06
748.093	0.06
748.27	0.09
748.448	0.1
748.625	-0.03
748.803	0.01
748.98	-0.03
749.158	0.19
749.335	0.01
749.513	0
749.69	0.09
749.868	0.02
750.045	0.13
750.223	-0.01
750.4	-0.19
750.578	0.25
750.755	0.08
750.932	-0.03
751.11	0.25
751.287	-0.13
751.464	0.1
751.642	0.05
751.819	0.18
751.996	-0.02
752.173	0.07
752.351	-0.08
752.528	0.07
752.705	-0
752.882	-0.06
753.06	0.12
753.237	0.22
753.414	0.29
753.591	0.23
753.768	0.18
753.945	0.09
754.122	-0.08
754.299	0.04
754.476	0.01
754.654	0.06
754.831	0.15
755.008	0.2
755.185	-0.04
755.362	0
755.539	-0.01
755.716	0.04
755.892	0.15
756.069	0.05
756.246	0.03
756.423	0.08
756.6	0.2
756.777	0.04
756.954	0.14
757.131	0.09
757.307	0.02
757.484	-0.08
757.661	0.11
757.838	0.17
758.015	-0.02
758.191	0.13
758.368	0.13
758.545	0.17
758.721	0.25
758.898	-0.03
759.075	0.12
759.251	0.12
759.428	0.25
759.605	-0.07
759.781	-0.05
759.958	0.06
760.134	0
760.311	0.05
760.488	0.2
760.664	0.13
760.841	0.21
761.017	-0.05
761.194	0.19
761.37	0.11
761.547	0.06
761.723	0.08
761.899	0.07
762.076	-0.01
762.252	-0.13
762.429	0.07
762.605	0.15
762.781	0.11
762.958	0.25
763.134	0.21
763.31	-0.03
763.486	0.07
763.663	-0.09
763.839	0.08
764.015	-0.11
764.191	0.1
764.368	-0.01
764.544	-0.03
764.72	0.13
764.896	0.18
765.072	0.17
765.248	-0.02
765.425	0.03
765.601	0.13
765.777	0.09
765.953	-0.09
766.129	-0.1
766.305	0.07
766.481	0.12
766.657	0.08
766.833	0.19
767.009	-0
767.185	-0.12
767.361	0.02
767.537	-0.02
767.713	0.2
767.889	-0.03
768.065	0.06
768.24	-0.21
768.416	0.13
768.592	0.13
768.768	0.06
768.944	0.08
769.12	-0.01
769.295	-0.05
769.471	0.08
769.647	0.04
769.823	0.11
769.998	-0.02
770.174	0.01
770.35	0.38
770.525	0.32
770.701	0.23
770.877	0.11
771.052	0.12
771.228	0.25
771.403	0.08
771.579	0.32
771.755	0.27
771.93	-0.06
772.106	0.11
772.281	-0.06
772.457	0.03
772.632	0.08
772.808	-0.05
772.983	0.03
773.159	-0.07
773.334	0.22
773.509	-0.02
773.685	0.03
773.86	0.32
774.036	0.3
774.211	0.02
774.386	0.11
774.562	-0.04
774.737	0.1
774.912	0.04
775.087	0.18
775.263	0.04
775.438	0.17
775.613	0.09
775.788	-0.13
775.964	0.27
776.139	0.38
776.314	-0.03
776.489	0.17
776.664	0.13
776.839	0.05
777.014	0.17
777.19	0.36
777.365	0.28
777.54	0.25
777.715	0.21
777.89	0.25
778.065	-0.09
778.24	-0.01
778.415	0.27
778.59	-0.19
778.765	-0.02
778.94	0.2
779.115	0.02
779.289	0.07
779.464	0.01
779.639	0.03
779.814	-0.12
779.989	-0.1
780.164	0.24
780.339	0.09
780.513	-0.09
780.688	-0.02
780.863	0.19
781.038	0.19
781.212	-0.07
781.387	0.08
781.562	0.46
781.737	0.05
781.911	0.14
782.086	-0.01
782.261	0.03
782.435	0.32
782.61	0.14
782.784	0.12
782.959	0.45
783.134	0.01
783.308	-0.1
783.483	0.03
783.657	0.59
783.832	0.06
784.006	-0.33
784.181	0.11
784.355	0.27
784.53	-0.15
784.704	-0.06
784.878	0.44
785.053	0.3
785.227	0.09
785.402	0.38
785.576	-0.27
785.75	0.15
785.925	0.2
786.099	0.16
786.273	-0.04
786.448	0.21
786.622	0.34
786.796	0.05
786.97	-0
787.145	0.63
787.319	-0.22
787.493	-0.08
787.667	-0.29
787.841	0.09
788.015	0.33
788.19	-0.05
788.364	0.15
788.538	0.11
788.712	0.29
788.886	0.17
789.06	0.5
789.234	0.17
789.408	-0
789.582	-0.13
789.756	0.08
789.93	-0.1
790.104	-0.11
790.278	-0.09
790.452	-0.02
790.626	0.2
790.8	0.21
790.973	0.3
791.147	0.44
791.321	0.31
791.495	0.28
791.669	0.08
791.843	0.31
792.016	0.09
792.19	0.52
792.364	-0.05
792.538	0.5
792.711	0.2
792.885	-0.02
793.059	-0.12
793.233	-0.31
793.406	0.21
793.58	0.28
793.754	0.15
793.927	0.25
794.101	0.43
794.274	0.01
794.448	0.07
794.622	-0.36
794.795	0.49
794.969	-0.05
795.142	0.49
795.316	0.09
795.489	0.03
795.663	0.48
795.836	-0.1
796.009	0.06
796.183	0.8
796.356	0.02
796.53	0.2
796.703	-0.02
796.876	0.73
797.05	0.04
797.223	0.14
797.396	-0.03
797.57	0.05
797.743	0.46
797.916	0.2
798.09	0
798.263	0.36
798.436	0.21
798.609	0.03
798.782	-0.15
798.956	0.33
799.129	0.1
799.302	-0.07
799.475	0.06
799.648	0.01
799.821	-0.18
799.994	0.04
800.167	-0.26
800.34	-0.06
800.514	0.12
800.687	0.11
800.86	-0.02
801.033	0.23
801.206	0.41
801.379	-0.11
801.551	0.41
801.724	0.34
801.897	0.68
802.07	0.07
802.243	-0.41
802.416	0.04
802.589	-0.06
802.762	0.19
802.935	-0.04
803.107	0.32
803.28	0.18
803.453	0.23
803.626	-0.16
803.798	0.02
803.971	-0.08
804.144	0.53
804.317	0.24
804.489	0.29
804.662	0.13
804.835	0.33
805.007	-0.16
805.18	0.5
805.353	0.24
805.525	-0.14
805.698	-0.16
805.87	0.4
806.043	0.52
806.215	0.05
806.388	-0.22
806.56	-0
806.733	0.47
806.905	0.17
807.078	-0.25
807.25	-0.34
807.423	0.1
807.595	-0.29
807.768	-0.02
807.94	0.65
808.112	0.21
808.285	0.11
808.457	0.11
808.629	-0.08
808.802	0.35
808.974	0.06
809.146	-0.03
809.318	-0.12
809.491	0.42
809.663	0.26
809.835	-0.09
810.007	0.5
810.18	0.24
810.352	-0.16
810.524	0.14
810.696	-0.02
810.868	0.87
811.04	0.14
811.212	-0.09
811.384	0.52
811.556	0.18
811.728	-0.01
811.901	0.64
812.073	-0.26
812.245	0.59
812.417	0.42
812.589	-0.46
812.76	0.22
812.932	0.52
813.104	0.26
813.276	0.26
813.448	0.74
813.62	0.24
813.792	0.23
813.964	-0.35
814.136	0.12
814.307	0.2
814.479	0.17
814.651	-0.17
814.823	1.1
814.995	0.05
815.166	0.22
815.338	-0.24
815.51	-0.4
815.681	0.82
815.853	0.19
816.025	0.2
816.196	0.7
816.368	0.56
816.54	-0.28
816.711	-0.17
816.883	0.58
817.054	0.7
817.226	-0.6
817.398	0.23
817.569	-0.06
817.741	0.17
817.912	0.04
818.084	0.15
818.255	0.3
818.426	-0.07
818.598	-0.16
818.769	-0.16
818.941	0.05
819.112	0.63
819.283	0.14
819.455	0.12
819.626	0.07
819.798	0.66
819.969	0.06
820.14	-0.37
820.311	0.05
820.483	0.45
820.654	0.05
820.825	0.17
820.996	-0.35
821.168	-0.07
821.339	0.27
821.51	0.26
821.681	0.06
821.852	-0.11
822.023	-0.39
822.195	-0.1
822.366	0.7
822.537	0.07
822.708	0.51
822.879	-0.23
823.05	0.17
823.221	-0.37
823.392	0.41
823.563	0.5
823.734	0.02
823.905	0.22
824.076	0.05
824.247	-0.33
824.418	-0.36
824.589	0.71
824.759	0.12
824.93	0.05
825.101	-0.33
825.272	-0.13
825.443	0.16
825.614	0.5
825.784	-0.8
825.955	0.86
826.126	0.91
826.297	0.47
826.467	0.87
826.638	0.8
826.809	-0.86
826.98	0.56
827.15	0.63
827.321	0.5
827.492	0.93
827.662	-0.13
827.833	1.24
828.003	0.65
828.174	-0.39
828.345	-0.39
828.515	1.2
828.686	0.42
828.856	0.04
829.027	0.05
829.197	-0.09
829.368	0.58
829.538	-0.34
829.709	0.35
829.879	0.79
830.049	0.08
830.22	0.1
830.39	0.25
830.56	0.92
830.731	0.04
830.901	-0.73
831.072	0.08
831.242	0.29
831.412	0.79
831.582	0.04
831.753	-0.39
831.923	1.03
832.093	0.64
832.263	0.01
832.434	-0.62
832.604	0.2
832.774	0.2
832.944	0.42
833.114	0.14
833.284	0.62
833.454	-0.75
833.624	-0.14
833.795	-0.01
833.965	0.04
834.135	0.91
834.305	0.23
834.475	-0.62
834.645	-0.03
834.815	-0.37
834.985	-0.31
835.155	-0.1
835.325	0.46
835.494	0.62
835.664	0.39
835.834	0.08
836.004	0.53
836.174	0.52
836.344	0.48
836.514	-0.88
836.684	-0.13
836.853	0.89
837.023	0.31
837.193	0.38
837.363	0.04
837.532	0.6
837.702	-0.12
837.872	-0.54
838.041	0.94
838.211	1.27
838.381	-0.58
838.55	-0.39
838.72	1.99
838.89	0.91
839.059	-0.12
839.229	-0.74
839.398	1.12
839.568	-0.85
839.738	0.11
839.907	1.73
840.077	0.33
840.246	-0.04
840.416	-0.29
840.585	-0.5
840.755	1.42
840.924	0.85
841.093	-0.39
841.263	-0.22
841.432	0.45
841.602	-0.01
841.771	0.09
841.94	0.05
842.11	1.44
842.279	2.05
842.448	-0.5
842.617	-0.23
842.787	1.35
842.956	-0.24
843.125	0.41
843.294	0.46
843.464	0.58
843.633	0.1
843.802	-0.25
843.971	0.42
844.14	0.29
844.309	1.45
844.479	-0.59
844.648	-0.36
844.817	0.05
844.986	0.95
845.155	-0.27
845.324	0.54
845.493	0.37
845.662	-0.6
845.831	0.87
846	0.15
846.169	-0.64
846.338	1.43
846.507	0.85
846.676	0.74
846.844	-0.3
847.013	1.73
847.182	0.53
847.351	0.34
847.52	-0.06
847.689	0.43
847.858	0.6
848.026	-0.23
848.195	0.15
848.364	0.34
848.533	-0.37
848.701	-0.08
848.87	0.24
849.039	1.18
849.207	1.27
849.376	1.02
849.545	2.05
849.713	0.11
849.882	-0.56
850.051	0.12
850.219	1.1
850.388	-0.01
850.556	-0.39
850.725	-0.32
850.893	-0.53
851.062	0.71
851.23	1
851.399	-1.61
851.567	-0.05
851.736	0.46
851.904	-0.9
852.073	0.69
852.241	1.18
852.41	-0.23
852.578	-0.28
852.746	-0.34
852.915	0.68
853.083	1.17
853.251	-1.33
853.42	-1.28
853.588	0.32
853.756	0.98
853.924	0.29
854.093	-0.42
854.261	0.78
854.429	-1.93
854.597	1.72
854.765	-1.25
854.934	0.52
855.102	0.89
855.27	-1.22
855.438	1.25
855.606	1.69
855.774	0.4
855.942	-1.19
856.11	-0.99
856.278	-0.16
856.446	1.15
856.614	0.9
856.782	-0.58
856.95	1.26
857.118	2.13
857.286	0.65
857.454	-0.49
857.622	1.74
857.79	0.82
857.958	-1.19
858.126	0.31
858.294	-1.97
858.462	-0.5
858.629	0.64
858.797	-1.57
858.965	0.47
859.133	0.5
859.301	0.66
859.468	1.16
859.636	-0.16
859.804	2.61
859.971	1.1
860.139	-0.48
860.307	0.97
860.474	0.73
860.642	-0.18
860.81	-0.14
860.977	0.22
861.145	0.75
861.313	-0.13
861.48	0.69
861.648	0.43
861.815	1.05
861.983	-0.31
862.15	0.11
862.318	1.26
862.485	1.47
862.653	-0.39
862.82	-1.14
862.988	1.06
863.155	-1.1
863.322	-1.04
863.49	-0.94
863.657	-0.69
863.824	1.35
863.992	1.22
864.159	0.27
864.326	1.96
864.494	-0.28
864.661	2.41
864.828	-0.09
864.996	2.4
865.163	2.71
865.33	-0.79
865.497	-1.97
865.664	0.96
865.832	-1.61
865.999	-0.53
866.166	-0.88
866.333	-0.53
866.5	-0.94
866.667	1.63
866.834	-0.1
867.001	1.13
867.168	-1.91
867.335	-0.79
867.502	-1.03
867.669	0.1
867.836	2.7
868.003	0.79
868.17	0.59
868.337	2.77
868.504	2.63
868.671	-1.42
868.838	-0.54
869.005	-0.38
869.172	-0.85
869.339	0.26
869.505	-0.28
869.672	-1.78
869.839	3.28
870.006	1.65
870.173	-1.66
870.339	2.47
870.506	3.21
870.673	-0.85
870.84	1
871.006	1.45
871.173	0.09
871.34	-0.9
871.506	-0.57
871.673	1.52
871.839	-2.92
872.006	0.06
872.173	0.22
872.339	-0.6
872.506	3.37
872.672	0.09
872.839	-1.61
873.005	1.11
873.172	4.36
873.338	1.78
873.505	-0.43
873.671	0.95
873.838	1.38
874.004	-1.45
874.171	-0.42
874.337	0.93
874.503	-0.01
874.67	2.07
874.836	0.13
875.002	3.19
875.169	2.15
875.335	0.92
875.501	-0.8
875.668	-0.47
875.834	0.89
876	-1.63
876.166	0.72
876.332	1.41
876.499	2.82
876.665	0.03
876.831	1.51
876.997	3.58
877.163	3.24
877.329	0.1
877.495	1.78
877.662	1.4
877.828	0.76
877.994	1.46
878.16	-2.19
878.326	0.43
878.492	-0.01
878.658	-0.6
878.824	0.1
878.99	1.52
879.156	0.64
879.322	3.56
879.487	-0.66
879.653	-0.36
879.819	0.1
879.985	-0.59
880.151	1.73
880.317	0.85
880.483	0.46
880.648	0.48
880.814	-1.43
880.98	0.22
881.146	-1.57
881.312	0.68
881.477	-0.07
881.643	-0.55
881.809	2.85
881.974	1.63
882.14	-1.91
882.306	0.57
882.471	5.36
882.637	-1.04
882.803	1.41
882.968	2.5
883.134	2.61
883.299	-0.48
883.465	0.44
883.63	-0.1
883.796	1.87
883.961	1.14
884.127	0.42
884.292	-3.94
884.458	-1.8
884.623	-1.8
