Data from Apollo_Calib_20240827__AbsoluteIrradiance__611__09-20-01-771.txt Node

Date: Wed Aug 28 09:20:01 BST 2024
User: biology
Spectrometer: FLMT08252
Trigger mode: 0
Integration Time (sec): 5.000000E-1
Scans to average: 5
Electric dark correction enabled: true
Nonlinearity correction enabled: false
Boxcar width: 0
XAxis mode: Wavelengths
Number of Pixels in Spectrum: 3648
>>>>>Begin Spectral Data<<<<<
179.588	-0
179.809	-0
180.03	-0
180.251	-0
180.473	-0
180.694	0
180.915	0
181.136	-0
181.357	0
181.578	-0
181.799	-0
182.02	-0
182.241	0
182.462	-0
182.683	0
182.904	-0
183.125	-0
183.346	0
183.567	0
183.788	0
184.009	-0
184.23	0
184.451	0
184.672	0
184.892	0
185.113	0
185.334	0
185.555	0
185.776	0
185.996	0
186.217	0
186.438	0
186.659	0
186.879	0
187.1	0
187.321	0
187.541	0
187.762	0
187.983	0
188.203	0
188.424	0
188.644	0
188.865	0
189.086	0
189.306	0
189.527	0
189.747	0
189.968	0
190.188	0
190.409	0
190.629	0
190.849	0
191.07	0
191.29	0
191.511	0
191.731	0
191.951	0
192.172	0
192.392	0
192.612	0
192.833	0
193.053	0
193.273	0
193.493	0
193.714	0
193.934	0
194.154	0
194.374	0
194.594	0
194.815	0
195.035	0
195.255	0
195.475	0
195.695	0
195.915	0
196.135	0
196.355	0
196.575	0
196.795	0
197.015	0
197.235	0
197.455	0
197.675	0
197.895	0
198.115	0
198.335	0
198.555	0
198.775	0
198.995	0
199.214	0
199.434	0
199.654	0
199.874	0
200.094	2.12
200.313	0.36
200.533	0.81
200.753	0.41
200.973	1.75
201.192	1.15
201.412	-0.07
201.632	0.74
201.851	1.9
202.071	0.5
202.291	0.2
202.51	0.16
202.73	1.49
202.95	0.81
203.169	0.02
203.389	0.84
203.608	0.99
203.828	0.4
204.047	0.86
204.267	0.88
204.486	0.78
204.706	1
204.925	0.6
205.145	0.81
205.364	1.3
205.583	1.37
205.803	0.37
206.022	0.3
206.242	0.83
206.461	0.53
206.68	0.3
206.9	0.91
207.119	1.04
207.338	1.47
207.557	0.29
207.777	0.4
207.996	0.04
208.215	1.08
208.434	0.16
208.654	0.36
208.873	0.69
209.092	0.83
209.311	0.52
209.53	0.48
209.749	0.21
209.968	0.33
210.187	0.44
210.407	-0.05
210.626	0.28
210.845	0.8
211.064	0.62
211.283	0.24
211.502	0.69
211.721	0.5
211.94	0.13
212.159	0.63
212.377	0.68
212.596	0.66
212.815	0.33
213.034	0.64
213.253	0.79
213.472	0.51
213.691	0.42
213.91	0.12
214.128	0.27
214.347	0.77
214.566	-0.08
214.785	-0.05
215.003	0.48
215.222	0.47
215.441	0.31
215.66	0.12
215.878	0.39
216.097	0.53
216.316	0.14
216.534	0.24
216.753	0.53
216.972	0.41
217.19	0.39
217.409	0.31
217.627	0.17
217.846	0.37
218.064	0.28
218.283	0.16
218.501	0.66
218.72	0.57
218.938	0.16
219.157	0.32
219.375	0.47
219.594	0.27
219.812	0.15
220.031	0.08
220.249	0.61
220.467	0.72
220.686	0.19
220.904	0.09
221.122	0.1
221.341	0.58
221.559	0.45
221.777	0.17
221.995	0.26
222.214	0.38
222.432	0.15
222.65	0.31
222.868	0.37
223.086	0.44
223.305	0.35
223.523	0.3
223.741	0.59
223.959	0.16
224.177	0.03
224.395	0.15
224.613	0.41
224.831	0.48
225.049	0.19
225.267	0.21
225.485	0.37
225.703	0.32
225.921	0.26
226.139	0.12
226.357	0.34
226.575	0.27
226.793	0.29
227.011	0.9
227.229	0.27
227.447	0.19
227.665	0.15
227.883	0.02
228.1	0.25
228.318	0.37
228.536	-0.08
228.754	0.19
228.972	0.35
229.189	0.42
229.407	0.26
229.625	0.09
229.843	0.43
230.06	0.3
230.278	0.15
230.496	0.28
230.713	0.19
230.931	0.38
231.149	0.18
231.366	0.03
231.584	0.34
231.801	0.53
232.019	0.24
232.236	-0.05
232.454	0.09
232.671	0.29
232.889	0.21
233.106	0.17
233.324	0.17
233.541	0.21
233.759	0.24
233.976	0.06
234.194	0.16
234.411	0.14
234.628	0.09
234.846	0.12
235.063	0.19
235.28	0.08
235.498	0.22
235.715	0.05
235.932	0.33
236.149	0.28
236.367	0.05
236.584	0.25
236.801	0.14
237.018	0.3
237.236	0.08
237.453	-0.01
237.67	0.29
237.887	0.2
238.104	0.14
238.321	0.03
238.538	0.14
238.755	0.32
238.973	-0.04
239.19	0.28
239.407	0.26
239.624	0.21
239.841	0.05
240.058	-0.01
240.275	0.22
240.492	0.18
240.709	0.08
240.925	0.1
241.142	0.27
241.359	0.14
241.576	0.05
241.793	0.17
242.01	0.23
242.227	0.22
242.444	0.19
242.66	0.21
242.877	0.22
243.094	0.14
243.311	0.21
243.527	0.2
243.744	0.22
243.961	0.24
244.178	0.1
244.394	0.16
244.611	0.24
244.828	0.36
245.044	0.07
245.261	0.15
245.477	0.13
245.694	0.15
245.911	0.03
246.127	0.09
246.344	0.3
246.56	0.21
246.777	0.11
246.993	0.08
247.21	0.16
247.426	0.16
247.643	0.04
247.859	0.06
248.076	0.13
248.292	0.33
248.508	0.07
248.725	0.13
248.941	0.22
249.157	0.32
249.374	0.09
249.59	0.1
249.806	0.19
250.023	0.12
250.239	0.07
250.455	0.07
250.671	0.17
250.888	0.29
251.104	0.16
251.32	0.12
251.536	0.1
251.752	0.13
251.969	0.18
252.185	0.15
252.401	0.32
252.617	0.13
252.833	0.1
253.049	0.19
253.265	0.18
253.481	0.24
253.697	0.03
253.913	0.12
254.129	0.26
254.345	0.22
254.561	0.13
254.777	0.15
254.993	0.13
255.209	0.15
255.425	0.11
255.641	0.05
255.857	0.28
256.073	0.07
256.288	0.01
256.504	0.06
256.72	0.17
256.936	0.29
257.152	0.07
257.367	0.03
257.583	0.14
257.799	0.24
258.015	0.1
258.23	0.12
258.446	0.33
258.662	0.19
258.877	0.06
259.093	0.07
259.309	0.15
259.524	0.09
259.74	0.1
259.955	0.07
260.171	0.17
260.387	0.16
260.602	0.21
260.818	0.13
261.033	0.11
261.249	0.13
261.464	0.14
261.68	0.05
261.895	0.17
262.11	0.2
262.326	0.12
262.541	-0.01
262.757	0.26
262.972	0.16
263.187	0.08
263.403	0.13
263.618	0.15
263.833	0.12
264.049	0.05
264.264	0.07
264.479	0.15
264.694	0.24
264.91	0.02
265.125	0.12
265.34	0.19
265.555	0.25
265.77	0.14
265.986	0.1
266.201	0.18
266.416	0.19
266.631	0.1
266.846	0.08
267.061	0.11
267.276	0.1
267.491	0.03
267.706	0.18
267.921	0.07
268.136	0.2
268.351	0.15
268.566	0.06
268.781	0.22
268.996	0.08
269.211	0.13
269.426	0.11
269.641	-0.04
269.856	0.15
270.071	0.08
270.285	0.03
270.5	0.14
270.715	0.17
270.93	0.14
271.145	0.11
271.359	0.18
271.574	0.06
271.789	0.13
272.004	0.1
272.218	0.1
272.433	0.18
272.648	0.08
272.862	0.16
273.077	0.12
273.292	0.14
273.506	0.01
273.721	0.05
273.936	0.14
274.15	0.14
274.365	0.14
274.579	0.13
274.794	0.22
275.008	0.22
275.223	0.08
275.437	0.13
275.652	0.17
275.866	0.12
276.081	0.12
276.295	0.2
276.509	0.1
276.724	0.1
276.938	0.12
277.153	0.13
277.367	0.15
277.581	0.11
277.796	0.1
278.01	0.04
278.224	0.15
278.438	0.19
278.653	0.04
278.867	0.06
279.081	0.11
279.295	0.1
279.51	0.09
279.724	-0
279.938	0.15
280.152	0.06
280.366	0.05
280.58	0.12
280.794	0.21
281.008	0.13
281.222	0.13
281.437	0.24
281.651	0.11
281.865	0.17
282.079	0.1
282.293	-0.01
282.507	0.06
282.721	0.12
282.935	0.09
283.148	0.01
283.362	0.09
283.576	0.08
283.79	0.09
284.004	0.1
284.218	0.12
284.432	0.07
284.646	0.07
284.859	0.06
285.073	0.07
285.287	0.11
285.501	0.12
285.714	0.14
285.928	0.12
286.142	0.11
286.356	0.07
286.569	0.03
286.783	0.14
286.997	0.14
287.21	0.08
287.424	0.09
287.637	0.07
287.851	0.08
288.065	0.1
288.278	0.1
288.492	0.11
288.705	0.07
288.919	0.13
289.132	0.05
289.346	0.14
289.559	0.05
289.773	0.08
289.986	0.1
290.2	0.08
290.413	0.13
290.626	0.09
290.84	0.09
291.053	0.08
291.267	0.16
291.48	0.07
291.693	0.1
291.906	0.03
292.12	0.11
292.333	0.09
292.546	0.09
292.76	0.14
292.973	0.13
293.186	0.11
293.399	0.04
293.612	0.14
293.826	0.13
294.039	0.05
294.252	0.08
294.465	0.14
294.678	0.13
294.891	0.12
295.104	0.06
295.317	0.09
295.53	0.1
295.743	0.04
295.956	0.07
296.169	0.12
296.382	0.11
296.595	0.06
296.808	0.03
297.021	0.06
297.234	0.09
297.447	0.05
297.66	0.09
297.873	0.12
298.086	0.12
298.299	0.08
298.511	0.05
298.724	0.05
298.937	0.03
299.15	0.06
299.363	0.14
299.575	0.09
299.788	0.12
300.001	0.06
300.213	0.03
300.426	0.07
300.639	0.06
300.852	0.02
301.064	0.1
301.277	0.14
301.489	0.08
301.702	0.13
301.915	0.08
302.127	0.1
302.34	0.15
302.552	0.12
302.765	0.06
302.977	0.11
303.19	0.06
303.402	0.08
303.615	0.06
303.827	0.07
304.04	0.09
304.252	0.09
304.464	0.07
304.677	0.17
304.889	0.13
305.102	0.04
305.314	0.06
305.526	0.14
305.739	0.1
305.951	-0.01
306.163	0.04
306.375	0.13
306.588	0.04
306.8	0.04
307.012	0.03
307.224	0.1
307.436	0.16
307.649	0.01
307.861	0.09
308.073	0.11
308.285	0.06
308.497	0.04
308.709	0.03
308.921	0.09
309.133	0.13
309.346	0.03
309.558	0.06
309.77	0.11
309.982	0.16
310.194	0.13
310.406	0.03
310.617	0.16
310.829	0.1
311.041	0.09
311.253	0.03
311.465	0.05
311.677	0.06
311.889	0.08
312.101	0
312.313	0.12
312.524	0.12
312.736	0.02
312.948	0.09
313.16	0.15
313.372	0.15
313.583	0.11
313.795	0.09
314.007	0.07
314.218	0.14
314.43	0.06
314.642	0.03
314.853	0.03
315.065	0.11
315.277	0.05
315.488	0.07
315.7	0.1
315.912	0.09
316.123	0.08
316.335	0.06
316.546	0.17
316.758	0.05
316.969	0.01
317.181	0.12
317.392	0.04
317.604	0.12
317.815	0.02
318.026	0.08
318.238	0.08
318.449	0.1
318.661	0.02
318.872	0.03
319.083	0.01
319.295	0.12
319.506	0.04
319.717	0.12
319.929	0.09
320.14	0.11
320.351	0.1
320.562	0.04
320.774	0.06
320.985	0.06
321.196	0
321.407	0.02
321.618	0.1
321.829	0.09
322.041	0.09
322.252	0.07
322.463	0.14
322.674	0.07
322.885	0.05
323.096	0.04
323.307	0.09
323.518	0.09
323.729	0.08
323.94	0.07
324.151	0.04
324.362	0.07
324.573	0.08
324.784	0.07
324.995	0.15
325.206	0.11
325.417	0.05
325.628	0.05
325.838	0.07
326.049	0.08
326.26	0.11
326.471	0.06
326.682	0.13
326.892	0.07
327.103	0.03
327.314	0.04
327.525	0.14
327.735	0.11
327.946	0.08
328.157	0.07
328.368	0.05
328.578	0.08
328.789	0.12
328.999	0.08
329.21	0.06
329.421	0.1
329.631	0.06
329.842	0.01
330.052	0.15
330.263	0.13
330.473	0.14
330.684	0.04
330.894	0.1
331.105	0.1
331.315	0.09
331.526	0.02
331.736	0.18
331.947	0.07
332.157	0.08
332.367	0.05
332.578	0.09
332.788	0.14
332.999	0.11
333.209	0.09
333.419	0.04
333.629	0.09
333.84	0.11
334.05	0.08
334.26	0.16
334.47	0.11
334.681	0.13
334.891	0.06
335.101	0.15
335.311	0.16
335.521	0.12
335.732	0.03
335.942	0.11
336.152	0.12
336.362	0.13
336.572	0.09
336.782	0.07
336.992	0.03
337.202	0.08
337.412	0.06
337.622	0.07
337.832	0.08
338.042	0.08
338.252	0.06
338.462	0.04
338.672	0.05
338.882	0.04
339.092	0.03
339.302	0.14
339.511	0.1
339.721	0.05
339.931	0.02
340.141	0.11
340.351	0.15
340.561	0.09
340.77	0.11
340.98	0.09
341.19	0.12
341.4	0.08
341.609	0.05
341.819	0.04
342.029	0.02
342.238	0.1
342.448	0.05
342.658	0.11
342.867	0.09
343.077	0.09
343.286	0.11
343.496	0.07
343.706	0.18
343.915	0.08
344.125	0.13
344.334	0.07
344.544	-0.01
344.753	0.06
344.963	0.07
345.172	0.06
345.381	0.03
345.591	0.05
345.8	0.07
346.01	0.12
346.219	0.09
346.428	-0.07
346.638	0.03
346.847	0.04
347.056	0.15
347.266	0.04
347.475	0.05
347.684	0.06
347.893	0.05
348.103	0.08
348.312	0.06
348.521	0.04
348.73	0.06
348.94	0.07
349.149	0.07
349.358	0.02
349.567	0.04
349.776	0.03
349.985	0.06
350.194	0.12
350.403	0.09
350.612	0.02
350.821	0.06
351.03	0.06
351.239	0.02
351.448	0.06
351.657	0.04
351.866	0.14
352.075	0.08
352.284	0.11
352.493	0.04
352.702	0.11
352.911	0.06
353.12	0.07
353.329	0.04
353.538	0.09
353.746	-0
353.955	0.02
354.164	0.04
354.373	0.03
354.582	0.1
354.79	0.09
354.999	0.11
355.208	0.06
355.416	0.14
355.625	0.07
355.834	0.06
356.042	0.09
356.251	0.02
356.46	0.01
356.668	0.08
356.877	0.15
357.085	0.11
357.294	-0.02
357.503	0.08
357.711	0.07
357.92	0.13
358.128	0.1
358.337	0.07
358.545	0.15
358.754	0.04
358.962	0.12
359.17	0.08
359.379	0.11
359.587	0.09
359.796	0.08
360.004	0.09
360.212	0.11
360.421	0.16
360.629	0.05
360.837	0.01
361.046	0.09
361.254	0.2
361.462	0.1
361.67	0.05
361.879	0.04
362.087	0.16
362.295	0.06
362.503	0.05
362.711	0.03
362.92	0.04
363.128	0.03
363.336	0.04
363.544	0.02
363.752	0.05
363.96	0.08
364.168	0.07
364.376	0.08
364.584	0.1
364.792	0.07
365	0.09
365.208	0.07
365.416	0.07
365.624	0.1
365.832	0.04
366.04	0.08
366.248	0.06
366.456	0.09
366.664	0.06
366.872	0.06
367.079	0.06
367.287	0.08
367.495	0.1
367.703	0.06
367.911	0.07
368.118	0.06
368.326	0.05
368.534	0.03
368.742	0.15
368.949	0.03
369.157	0.06
369.365	0.07
369.572	0.08
369.78	0.03
369.988	0.1
370.195	0.08
370.403	0.1
370.61	0.05
370.818	0.06
371.026	0.09
371.233	0.07
371.441	0.07
371.648	0.03
371.856	0.08
372.063	0.08
372.271	0.04
372.478	0.02
372.685	0.07
372.893	0.08
373.1	0.03
373.308	0.06
373.515	0.14
373.722	0.12
373.93	0.06
374.137	0.1
374.344	0.13
374.552	0.1
374.759	0.09
374.966	0.09
375.173	0.05
375.381	0.07
375.588	0.05
375.795	0.01
376.002	0.04
376.209	0.12
376.417	0.03
376.624	0.05
376.831	0.09
377.038	0.07
377.245	0.01
377.452	0.05
377.659	0.09
377.866	0.06
378.073	0.1
378.28	0.09
378.487	0.1
378.694	0.08
378.901	0.07
379.108	0.07
379.315	0.1
379.522	0.14
379.729	0.09
379.936	0.04
380.143	0.04
380.35	0.06
380.557	0.07
380.763	0.08
380.97	0.05
381.177	0.07
381.384	0.08
381.591	0.06
381.797	0.08
382.004	0.08
382.211	0.07
382.418	0.02
382.624	0.11
382.831	0.13
383.038	0.07
383.244	0.09
383.451	0.05
383.658	0.1
383.864	0.06
384.071	0.04
384.277	0.14
384.484	0.04
384.69	0.09
384.897	0.03
385.103	0.08
385.31	0.05
385.516	0.04
385.723	0.03
385.929	0.06
386.136	0.08
386.342	0.09
386.549	0.05
386.755	0.14
386.961	0.1
387.168	0.04
387.374	0.08
387.58	0.08
387.787	0.07
387.993	0.04
388.199	0.09
388.406	0.04
388.612	0.04
388.818	0.07
389.024	-0
389.231	0.07
389.437	0.16
389.643	0.09
389.849	0.03
390.055	0.05
390.261	0.08
390.467	0.05
390.674	0
390.88	0.09
391.086	0.09
391.292	0.06
391.498	0.1
391.704	0.04
391.91	0.05
392.116	0.06
392.322	-0.07
392.528	0.06
392.734	0.03
392.94	0.1
393.146	0.06
393.352	0.08
393.557	0.1
393.763	0.08
393.969	0.07
394.175	0.04
394.381	0.08
394.587	0.05
394.792	0.11
394.998	0.1
395.204	0.1
395.41	0.04
395.615	0.12
395.821	0.07
396.027	0.11
396.233	0.04
396.438	0.08
396.644	0.12
396.85	0.09
397.055	0.04
397.261	0.08
397.466	0.04
397.672	0.09
397.878	0.14
398.083	0.09
398.289	0.08
398.494	0.1
398.7	0.08
398.905	-0.02
399.111	0.16
399.316	0.04
399.522	0.08
399.727	0.05
399.932	0.06
400.138	0.08
400.343	0.14
400.549	0.06
400.754	0.1
400.959	0.06
401.165	0.08
401.37	0.05
401.575	0.03
401.78	0.09
401.986	-0
402.191	0.07
402.396	0.05
402.601	0.1
402.807	0.1
403.012	0.05
403.217	0.08
403.422	0.08
403.627	0.09
403.832	0.04
404.037	0.11
404.243	0.08
404.448	0.01
404.653	0.05
404.858	0.11
405.063	0.1
405.268	0.03
405.473	0.03
405.678	0.09
405.883	0.21
406.088	0.13
406.293	0.04
406.498	0.02
406.703	0.11
406.907	0.04
407.112	-0
407.317	0.07
407.522	0.14
407.727	0.02
407.932	0.04
408.136	0.12
408.341	0.06
408.546	0.07
408.751	0.09
408.956	0.04
409.16	0.1
409.365	0.03
409.57	0.03
409.774	0.12
409.979	0.1
410.184	0.08
410.388	0.04
410.593	0.14
410.798	0.06
411.002	0.06
411.207	0.08
411.411	0.1
411.616	0.02
411.82	0.06
412.025	0.13
412.229	0.06
412.434	0.11
412.638	0.05
412.843	0.04
413.047	0.08
413.252	0.03
413.456	0.04
413.66	0.1
413.865	-0.01
414.069	0.15
414.273	0.05
414.478	0.06
414.682	0.03
414.886	0
415.091	0.05
415.295	0.03
415.499	0.07
415.703	0.09
415.908	0.12
416.112	-0.01
416.316	0.1
416.52	0.1
416.724	0.02
416.929	0.06
417.133	0.16
417.337	0.04
417.541	0.06
417.745	0.07
417.949	0.08
418.153	0.1
418.357	-0.03
418.561	0.13
418.765	0.1
418.969	0.18
419.173	0.11
419.377	0.03
419.581	0.15
419.785	0.01
419.989	-0.02
420.193	0.02
420.397	0.06
420.601	0.12
420.804	0.15
421.008	0.11
421.212	0.06
421.416	0.1
421.62	0.05
421.823	0.02
422.027	0.16
422.231	0.11
422.435	0.05
422.638	0.05
422.842	0.05
423.046	0.04
423.249	0.09
423.453	0.08
423.657	0.07
423.86	0.06
424.064	0.07
424.268	0.12
424.471	0.07
424.675	0.15
424.878	0.13
425.082	0.03
425.285	0.08
425.489	0.1
425.692	0.07
425.896	0.05
426.099	0.09
426.303	0.08
426.506	-0.04
426.71	0.1
426.913	0.13
427.116	0.14
427.32	0.02
427.523	0.04
427.726	0.17
427.93	0.01
428.133	0.06
428.336	0.08
428.54	0.06
428.743	0.08
428.946	0.16
429.149	0.04
429.353	0.09
429.556	0.08
429.759	0.03
429.962	0.06
430.165	0.05
430.368	0.04
430.571	0.02
430.775	0.08
430.978	0.03
431.181	0.05
431.384	0.1
431.587	0.04
431.79	0.02
431.993	-0.02
432.196	0.06
432.399	0.08
432.602	0.13
432.805	0.06
433.008	0.04
433.211	-0.01
433.414	0.12
433.616	0.12
433.819	0.12
434.022	-0
434.225	0.11
434.428	0.1
434.631	0.19
434.833	0.12
435.036	0.04
435.239	0.15
435.442	0.09
435.645	0.1
435.847	0.08
436.05	0.08
436.253	0.07
436.455	0.01
436.658	0.06
436.861	0.13
437.063	0.04
437.266	0.02
437.468	0.14
437.671	0.2
437.874	0.08
438.076	0.03
438.279	0.05
438.481	0.08
438.684	0.08
438.886	0.09
439.089	-0.01
439.291	0.11
439.494	0.11
439.696	0.03
439.899	0.07
440.101	0.09
440.303	-0
440.506	0.1
440.708	0.09
440.91	0.12
441.113	0.04
441.315	0.13
441.517	0.02
441.72	0.14
441.922	0.02
442.124	0.03
442.326	0.1
442.529	0.16
442.731	0.03
442.933	0.22
443.135	0.05
443.337	0.05
443.539	0.03
443.742	0.07
443.944	0.13
444.146	0.09
444.348	0.05
444.55	0.05
444.752	0.03
444.954	0.02
445.156	0.1
445.358	0.04
445.56	0.11
445.762	0.05
445.964	0.11
446.166	0.07
446.368	0.05
446.57	0.11
446.772	0.1
446.974	0.02
447.175	0.08
447.377	0.02
447.579	0.03
447.781	0
447.983	0.14
448.184	0.06
448.386	0.05
448.588	-0.01
448.79	0.06
448.991	0.06
449.193	0.03
449.395	0.05
449.597	0.09
449.798	0.08
450	0.1
450.202	0.06
450.403	0.05
450.605	0.11
450.806	0.1
451.008	0.03
451.21	0.06
451.411	0.07
451.613	0.06
451.814	0.07
452.016	0.12
452.217	0.06
452.419	0.12
452.62	0.08
452.821	0.11
453.023	0.15
453.224	0.1
453.426	0.07
453.627	0.12
453.828	0.11
454.03	0.05
454.231	0.05
454.432	0.02
454.634	0.16
454.835	0.08
455.036	0.01
455.238	0.12
455.439	0.19
455.64	-0
455.841	0.07
456.042	0.2
456.244	0.11
456.445	0.06
456.646	-0.02
456.847	0.02
457.048	0.08
457.249	0.15
457.45	0.26
457.651	0.04
457.852	0.13
458.054	0.05
458.255	0.08
458.456	0.15
458.657	0.08
458.858	0.05
459.058	0.12
459.259	0.12
459.46	0.08
459.661	0.1
459.862	0.2
460.063	0.08
460.264	0.06
460.465	0.02
460.666	0.14
460.866	0.06
461.067	0.09
461.268	0.06
461.469	0.03
461.67	0.08
461.87	0.03
462.071	0.09
462.272	-0
462.473	0.11
462.673	0.08
462.874	0.07
463.075	0.1
463.275	0.04
463.476	0.07
463.676	0.09
463.877	0.13
464.078	0.12
464.278	0.1
464.479	0.08
464.679	0.09
464.88	0.09
465.08	0.13
465.281	0.04
465.481	0.02
465.682	0.04
465.882	0.12
466.083	0.05
466.283	0.07
466.483	0.07
466.684	-0
466.884	0.02
467.085	0.08
467.285	0.12
467.485	0
467.686	0.09
467.886	0.04
468.086	0.07
468.286	0.07
468.487	0.09
468.687	0.02
468.887	0.1
469.087	0.07
469.287	0.09
469.488	0.02
469.688	0.09
469.888	0.11
470.088	0.07
470.288	0.11
470.488	0.13
470.688	0.02
470.888	0.04
471.088	0.03
471.288	0.11
471.488	0.08
471.688	0.1
471.888	0.05
472.088	0.13
472.288	0.08
472.488	0.02
472.688	0.01
472.888	0.04
473.088	0.09
473.288	0.12
473.488	0.07
473.688	0.15
473.887	0.06
474.087	0.01
474.287	0.06
474.487	0.03
474.687	0.09
474.886	0.02
475.086	0.06
475.286	0.05
475.486	0.07
475.685	0.08
475.885	0.03
476.085	0.02
476.284	0.07
476.484	0.05
476.684	0.05
476.883	0.1
477.083	0.08
477.282	0.06
477.482	0.11
477.681	0.11
477.881	0.04
478.08	0.04
478.28	0.03
478.479	0.06
478.679	0.11
478.878	0.01
479.078	0.04
479.277	0.03
479.477	0.01
479.676	0.09
479.875	0.07
480.075	0.03
480.274	0.08
480.473	0.06
480.673	0.01
480.872	0.08
481.071	0.06
481.271	0.06
481.47	0.03
481.669	0.03
481.868	0.01
482.067	0.01
482.267	0.02
482.466	0.02
482.665	0.03
482.864	0.02
483.063	0.04
483.262	0.06
483.461	0.09
483.661	0.09
483.86	0.05
484.059	0.05
484.258	0.04
484.457	0.03
484.656	0.07
484.855	0.1
485.054	-0
485.253	0.02
485.452	0
485.651	0.04
485.849	0.07
486.048	-0.01
486.247	0.03
486.446	0.05
486.645	-0.01
486.844	-0
487.043	0.03
487.241	0.06
487.44	-0.01
487.639	0.02
487.838	0.06
488.037	0.01
488.235	0.1
488.434	0.04
488.633	0.04
488.831	0.05
489.03	0.07
489.229	0.07
489.427	0.03
489.626	0.08
489.825	0.08
490.023	0.04
490.222	0.03
490.42	0.06
490.619	0.07
490.817	0.06
491.016	0.02
491.214	0.06
491.413	0.03
491.611	0.02
491.81	0.04
492.008	0.06
492.207	0.07
492.405	0.05
492.604	0.01
492.802	0.02
493	0.05
493.199	0.01
493.397	0.03
493.595	0.04
493.794	0.04
493.992	0.08
494.19	0.02
494.388	0.05
494.587	0.02
494.785	0.05
494.983	0.02
495.181	0.05
495.379	0.05
495.578	0.03
495.776	0.04
495.974	0.05
496.172	0.02
496.37	0.03
496.568	-0.01
496.766	0.02
496.964	0.05
497.162	0.03
497.36	-0.01
497.558	0.05
497.756	0.04
497.954	0.02
498.152	0.01
498.35	0.02
498.548	0.03
498.746	0.04
498.944	0
499.142	0.03
499.34	0.01
499.538	0.03
499.736	0.02
499.933	0.07
500.131	0.05
500.329	0.04
500.527	0.08
500.725	0.05
500.922	0.05
501.12	0.05
501.318	0.03
501.516	0.02
501.713	0.04
501.911	0.05
502.109	0.01
502.306	0.04
502.504	0.03
502.701	0.01
502.899	0.04
503.097	0.07
503.294	0.04
503.492	0.03
503.689	0.03
503.887	0.04
504.084	0.08
504.282	0.04
504.479	-0
504.677	0.03
504.874	0.02
505.072	0.02
505.269	0.04
505.466	0.07
505.664	0.05
505.861	0.01
506.059	-0.01
506.256	0.05
506.453	0.02
506.651	0.07
506.848	0.05
507.045	0.06
507.242	0.05
507.44	0.01
507.637	0.02
507.834	0.03
508.031	0.06
508.229	-0
508.426	0.04
508.623	0.04
508.82	0.03
509.017	0
509.214	0.04
509.411	0.04
509.608	-0
509.805	0.03
510.003	0.04
510.2	0.02
510.397	0.08
510.594	0.03
510.791	0.02
510.988	0.03
511.184	0.05
511.381	0.03
511.578	0.03
511.775	0.07
511.972	0.02
512.169	0.02
512.366	0.03
512.563	0.06
512.76	0.03
512.956	0.04
513.153	0.02
513.35	0.05
513.547	0.03
513.744	0.02
513.94	-0
514.137	0.04
514.334	0.04
514.53	0.04
514.727	0.05
514.924	0.09
515.12	0.02
515.317	0.01
515.514	0.02
515.71	0.01
515.907	0.02
516.103	0.05
516.3	0.06
516.497	0.05
516.693	0.07
516.89	0.02
517.086	0.01
517.283	0.1
517.479	0.04
517.676	0.03
517.872	0.05
518.068	0.02
518.265	0.03
518.461	0.02
518.658	0
518.854	0.04
519.05	0.01
519.247	0.02
519.443	0.05
519.639	0.04
519.836	0.03
520.032	0.04
520.228	0.04
520.424	0.08
520.621	0.06
520.817	0.03
521.013	0.04
521.209	0.04
521.405	0.08
521.601	0.04
521.798	0.03
521.994	0.06
522.19	0.01
522.386	0.01
522.582	0.02
522.778	0.03
522.974	0.03
523.17	0.02
523.366	0.04
523.562	0.06
523.758	0.03
523.954	0.01
524.15	0.03
524.346	0.05
524.542	0.01
524.738	0.03
524.934	0.02
525.129	0.03
525.325	0.04
525.521	0.03
525.717	0.04
525.913	0.02
526.109	0.02
526.304	0.05
526.5	0.06
526.696	0.05
526.892	0.03
527.087	0.04
527.283	0.02
527.479	0.05
527.674	0.01
527.87	0.04
528.066	0.04
528.261	0.06
528.457	0.03
528.653	0.04
528.848	0.03
529.044	0.03
529.239	0.04
529.435	0.06
529.63	0.03
529.826	0.09
530.021	0.04
530.217	0.07
530.412	0.02
530.608	-0
530.803	0.04
530.999	0.04
531.194	0.02
531.389	0.02
531.585	-0.01
531.78	0.03
531.975	0.04
532.171	0.06
532.366	0.02
532.561	0.03
532.757	0.02
532.952	0.02
533.147	0.04
533.342	0.05
533.538	0.02
533.733	0.06
533.928	0.03
534.123	0.03
534.318	-0.01
534.513	0.04
534.709	0.05
534.904	0.03
535.099	0.04
535.294	0.04
535.489	0.02
535.684	0.03
535.879	0
536.074	0.06
536.269	0.02
536.464	0.03
536.659	0.03
536.854	0.04
537.049	0.02
537.244	0.05
537.439	0.03
537.634	0.05
537.828	0.04
538.023	0.02
538.218	-0
538.413	0.04
538.608	0.02
538.803	0.06
538.997	0.01
539.192	0.08
539.387	0.06
539.582	0.05
539.776	0.03
539.971	0.02
540.166	0.03
540.36	0.02
540.555	0.03
540.75	0.04
540.944	0.03
541.139	0.01
541.334	0.03
541.528	0.04
541.723	0.04
541.917	0.03
542.112	-0.01
542.306	0.01
542.501	0.03
542.695	0.03
542.89	0.02
543.084	0.05
543.279	0.03
543.473	0.04
543.668	0.03
543.862	0.05
544.056	0.06
544.251	0
544.445	0.04
544.64	0.04
544.834	0.01
545.028	0.04
545.222	0.05
545.417	0.04
545.611	0.05
545.805	0.06
546	0.04
546.194	0.03
546.388	0.03
546.582	0.06
546.776	0.05
546.97	0.04
547.165	0.04
547.359	0.05
547.553	0.03
547.747	0.05
547.941	0.03
548.135	0.02
548.329	0.05
548.523	0.04
548.717	0.03
548.911	0.04
549.105	0.04
549.299	0.04
549.493	0.05
549.687	0.06
549.881	0.07
550.075	0.04
550.269	0.02
550.463	0.06
550.657	0.03
550.85	0.03
551.044	0.03
551.238	0.04
551.432	0.02
551.626	0.03
551.82	0.03
552.013	0.02
552.207	0.07
552.401	0.05
552.594	0.04
552.788	0.04
552.982	0.03
553.176	0.03
553.369	0.03
553.563	0.05
553.756	0.01
553.95	0.02
554.144	0.02
554.337	0.06
554.531	0.04
554.724	0.07
554.918	0.04
555.111	0.05
555.305	0.04
555.498	0.05
555.692	0.08
555.885	0.05
556.079	0.04
556.272	0.04
556.466	0.06
556.659	0.06
556.852	0.04
557.046	0.01
557.239	0.07
557.432	0.03
557.626	0.01
557.819	0.07
558.012	0.07
558.206	0.06
558.399	0.06
558.592	0.07
558.785	0.04
558.979	0.05
559.172	0.07
559.365	0.05
559.558	0.06
559.751	0.03
559.944	0.04
560.138	0.05
560.331	0.05
560.524	0.03
560.717	0.06
560.91	0.05
561.103	0.06
561.296	0.07
561.489	0.07
561.682	0.04
561.875	0.1
562.068	0.07
562.261	0.06
562.454	0.07
562.647	0.08
562.84	0.08
563.032	0.04
563.225	0.04
563.418	0.04
563.611	0.03
563.804	0.04
563.997	0.02
564.19	0.02
564.382	0.01
564.575	0.05
564.768	0.05
564.961	0.01
565.153	0.04
565.346	0.1
565.539	0.06
565.731	0.07
565.924	0.08
566.117	0.05
566.309	0.07
566.502	0.04
566.695	0.03
566.887	0.06
567.08	0.01
567.272	0.06
567.465	0.06
567.657	0.04
567.85	0.06
568.042	0.06
568.235	0.1
568.427	0.05
568.62	0.03
568.812	0.07
569.005	0.06
569.197	0.01
569.389	0.07
569.582	0.07
569.774	0.08
569.966	0.04
570.159	0.02
570.351	0.06
570.543	0.03
570.736	0.05
570.928	0.02
571.12	0.06
571.312	0.05
571.505	0.03
571.697	0.08
571.889	0.02
572.081	0.05
572.273	0.05
572.465	0.09
572.658	0.07
572.85	0.06
573.042	0.04
573.234	0.05
573.426	0.08
573.618	0.04
573.81	0.08
574.002	0.09
574.194	0.1
574.386	0.03
574.578	-0.01
574.77	0.04
574.962	0.07
575.154	0.02
575.346	0.05
575.538	0.08
575.729	0.07
575.921	0.06
576.113	0.03
576.305	0.08
576.497	0.04
576.689	0.05
576.88	0.03
577.072	0.08
577.264	0.07
577.456	0.08
577.647	0.01
577.839	0.07
578.031	0.11
578.223	0.04
578.414	0.03
578.606	0.1
578.798	0.07
578.989	0.05
579.181	0.05
579.372	0.08
579.564	0.04
579.755	0.08
579.947	0.06
580.139	0.08
580.33	0.02
580.522	0.05
580.713	-0.01
580.905	0.07
581.096	0.08
581.287	0.06
581.479	0.05
581.67	0.08
581.862	0.08
582.053	0.06
582.244	0.04
582.436	0.08
582.627	0.07
582.818	0.08
583.01	0.04
583.201	0.1
583.392	0.1
583.583	0.08
583.775	0.07
583.966	0.04
584.157	0.07
584.348	0.06
584.54	0.03
584.731	0.13
584.922	0.07
585.113	0.07
585.304	0.1
585.495	0.12
585.686	0.1
585.877	0.11
586.068	0.1
586.259	0.11
586.45	0.11
586.641	0.08
586.832	0.04
587.023	0.08
587.214	0.09
587.405	0.08
587.596	0.07
587.787	0.16
587.978	0.09
588.169	0.08
588.36	0.07
588.551	0.11
588.742	0.08
588.932	0.14
589.123	0.09
589.314	0.13
589.505	0.12
589.696	0.08
589.886	0.07
590.077	0.05
590.268	0.09
590.458	0.07
590.649	0.08
590.84	0.13
591.03	0.09
591.221	0.08
591.412	0.08
591.602	0.13
591.793	0.14
591.984	0.07
592.174	0.11
592.365	0.19
592.555	0.09
592.746	0.15
592.936	0.13
593.127	0.14
593.317	0.17
593.508	0.11
593.698	0.12
593.889	0.14
594.079	0.14
594.269	0.1
594.46	0.12
594.65	0.12
594.84	0.14
595.031	0.07
595.221	0.13
595.411	0.08
595.602	0.16
595.792	0.12
595.982	0.15
596.172	0.21
596.363	0.14
596.553	0.15
596.743	0.15
596.933	0.15
597.123	0.18
597.314	0.11
597.504	0.14
597.694	0.18
597.884	0.14
598.074	0.15
598.264	0.15
598.454	0.2
598.644	0.15
598.834	0.14
599.024	0.14
599.214	0.18
599.404	0.19
599.594	0.14
599.784	0.17
599.974	0.21
600.164	0.21
600.354	0.13
600.544	0.16
600.734	0.21
600.924	0.21
601.114	0.17
601.303	0.17
601.493	0.18
601.683	0.2
601.873	0.21
602.063	0.17
602.252	0.23
602.442	0.17
602.632	0.2
602.821	0.17
603.011	0.28
603.201	0.24
603.39	0.19
603.58	0.19
603.77	0.25
603.959	0.26
604.149	0.26
604.339	0.24
604.528	0.3
604.718	0.27
604.907	0.28
605.097	0.28
605.286	0.27
605.476	0.29
605.665	0.29
605.855	0.29
606.044	0.33
606.234	0.31
606.423	0.32
606.612	0.28
606.802	0.31
606.991	0.34
607.181	0.32
607.37	0.3
607.559	0.3
607.749	0.31
607.938	0.34
608.127	0.35
608.316	0.34
608.506	0.34
608.695	0.36
608.884	0.35
609.073	0.38
609.263	0.39
609.452	0.41
609.641	0.43
609.83	0.4
610.019	0.42
610.208	0.4
610.397	0.42
610.586	0.42
610.775	0.4
610.965	0.42
611.154	0.44
611.343	0.47
611.532	0.44
611.721	0.46
611.91	0.48
612.099	0.51
612.287	0.5
612.476	0.48
612.665	0.53
612.854	0.49
613.043	0.57
613.232	0.54
613.421	0.5
613.61	0.57
613.798	0.58
613.987	0.63
614.176	0.61
614.365	0.62
614.554	0.62
614.742	0.64
614.931	0.62
615.12	0.7
615.309	0.67
615.497	0.67
615.686	0.65
615.875	0.72
616.063	0.72
616.252	0.74
616.44	0.74
616.629	0.76
616.818	0.77
617.006	0.79
617.195	0.82
617.383	0.84
617.572	0.82
617.76	0.83
617.949	0.86
618.137	0.9
618.326	0.91
618.514	0.87
618.703	0.88
618.891	0.97
619.079	0.89
619.268	1.06
619.456	0.95
619.644	1.07
619.833	1.02
620.021	1.02
620.209	1.03
620.398	1.14
620.586	1.09
620.774	1.18
620.962	1.13
621.151	1.27
621.339	1.19
621.527	1.14
621.715	1.2
621.903	1.26
622.092	1.25
622.28	1.38
622.468	1.27
622.656	1.36
622.844	1.42
623.032	1.46
623.22	1.39
623.408	1.54
623.596	1.48
623.784	1.6
623.972	1.53
624.16	1.58
624.348	1.65
624.536	1.68
624.724	1.66
624.912	1.76
625.1	1.75
625.288	1.76
625.476	1.77
625.664	1.92
625.851	1.87
626.039	1.92
626.227	1.93
626.415	1.98
626.603	1.91
626.79	2.05
626.978	2.09
627.166	2.14
627.354	2.14
627.541	2.19
627.729	2.1
627.917	2.32
628.104	2.3
628.292	2.33
628.48	2.37
628.667	2.4
628.855	2.54
629.042	2.58
629.23	2.61
629.418	2.63
629.605	2.68
629.793	2.67
629.98	2.75
630.168	2.73
630.355	2.82
630.543	2.97
630.73	2.88
630.917	3.03
631.105	3.15
631.292	3.16
631.48	3.18
631.667	3.29
631.854	3.32
632.042	3.32
632.229	3.34
632.416	3.51
632.604	3.53
632.791	3.48
632.978	3.68
633.165	3.67
633.353	3.76
633.54	3.88
633.727	3.82
633.914	3.93
634.101	3.87
634.289	4.09
634.476	4.09
634.663	4.08
634.85	4.28
635.037	4.32
635.224	4.3
635.411	4.5
635.598	4.5
635.785	4.54
635.972	4.68
636.159	4.72
636.346	4.79
636.533	4.84
636.72	4.95
636.907	4.94
637.094	5.02
637.281	5.04
637.468	5.23
637.655	5.31
637.842	5.37
638.029	5.45
638.215	5.55
638.402	5.64
638.589	5.62
638.776	5.76
638.963	5.84
639.149	6.02
639.336	6.1
639.523	6.12
639.709	6.24
639.896	6.29
640.083	6.38
640.27	6.54
640.456	6.55
640.643	6.64
640.829	6.61
641.016	6.8
641.203	6.91
641.389	7.06
641.576	7.21
641.762	7.21
641.949	7.3
642.135	7.5
642.322	7.57
642.508	7.6
642.695	7.9
642.881	7.88
643.068	7.91
643.254	8.21
643.441	8.32
643.627	8.46
643.813	8.44
644	8.8
644.186	8.65
644.372	9
644.559	9.01
644.745	9.23
644.931	9.25
645.118	9.46
645.304	9.57
645.49	9.87
645.676	9.88
645.862	10.03
646.049	10.35
646.235	10.4
646.421	10.77
646.607	10.94
646.793	10.9
646.979	10.99
647.165	11.27
647.352	11.44
647.538	11.59
647.724	11.85
647.91	11.85
648.096	12.12
648.282	12.3
648.468	12.46
648.654	12.79
648.84	12.89
649.026	13.23
649.212	13.15
649.397	13.49
649.583	13.86
649.769	14.06
649.955	14.15
650.141	14.47
650.327	14.54
650.513	14.93
650.698	15.04
650.884	15.06
651.07	15.62
651.256	15.63
651.442	15.98
651.627	15.77
651.813	16.46
651.999	16.43
652.184	16.79
652.37	17.23
652.556	17.28
652.741	17.57
652.927	17.38
653.113	17.95
653.298	18.26
653.484	18.52
653.669	18.65
653.855	18.93
654.04	19.2
654.226	19.26
654.412	19.63
654.597	19.51
654.782	20.04
654.968	20.23
655.153	20.5
655.339	20.81
655.524	20.96
655.71	21.15
655.895	21.51
656.08	21.83
656.266	22.02
656.451	22.03
656.636	22.15
656.822	22.36
657.007	22.66
657.192	22.9
657.378	23.05
657.563	23.01
657.748	23.47
657.933	23.8
658.118	23.34
658.304	24.09
658.489	24.18
658.674	24.17
658.859	24.13
659.044	24.24
659.229	24.42
659.414	24.69
659.599	24.73
659.785	24.74
659.97	24.67
660.155	24.69
660.34	25.08
660.525	24.78
660.71	24.86
660.895	25.01
661.08	24.79
661.264	24.4
661.449	24.38
661.634	24.04
661.819	24.29
662.004	23.76
662.189	23.77
662.374	23.58
662.559	23.08
662.743	22.98
662.928	22.65
663.113	22.2
663.298	22.04
663.483	21.65
663.667	21.18
663.852	20.91
664.037	20.52
664.221	20.24
664.406	19.9
664.591	19.46
664.775	18.86
664.96	18.59
665.145	17.8
665.329	17.61
665.514	17.18
665.698	16.42
665.883	15.97
666.068	15.8
666.252	15.28
666.437	14.79
666.621	14.41
666.806	13.96
666.99	13.49
667.174	13.1
667.359	12.68
667.543	12.24
667.728	11.99
667.912	11.39
668.096	11.02
668.281	10.69
668.465	10.51
668.649	10.09
668.834	9.53
669.018	9.49
669.202	9.21
669.387	8.81
669.571	8.67
669.755	8.17
669.939	7.86
670.124	7.67
670.308	7.38
670.492	7.19
670.676	6.86
670.86	6.69
671.044	6.41
671.228	6.32
671.413	6.04
671.597	5.91
671.781	5.69
671.965	5.52
672.149	5.3
672.333	5.17
672.517	4.93
672.701	4.87
672.885	4.65
673.069	4.39
673.253	4.53
673.437	4.3
673.621	4.17
673.804	3.97
673.988	3.83
674.172	3.64
674.356	3.51
674.54	3.51
674.724	3.51
674.908	3.26
675.091	3.28
675.275	3.13
675.459	3.08
675.643	2.98
675.826	2.87
676.01	2.69
676.194	2.64
676.377	2.6
676.561	2.6
676.745	2.42
676.928	2.38
677.112	2.37
677.296	2.22
677.479	2.11
677.663	2.06
677.846	2.02
678.03	2
678.213	1.9
678.397	1.9
678.58	1.83
678.764	1.71
678.947	1.6
679.131	1.62
679.314	1.63
679.498	1.52
679.681	1.55
679.865	1.55
680.048	1.45
680.231	1.39
680.415	1.35
680.598	1.29
680.781	1.22
680.965	1.17
681.148	1.13
681.331	1.18
681.514	1.22
681.698	1.09
681.881	1.1
682.064	1.06
682.247	1.02
682.43	0.91
682.614	0.95
682.797	0.98
682.98	0.96
683.163	0.89
683.346	0.91
683.529	0.85
683.712	0.79
683.895	0.86
684.078	0.72
684.261	0.78
684.444	0.83
684.627	0.75
684.81	0.71
684.993	0.68
685.176	0.68
685.359	0.62
685.542	0.6
685.725	0.71
685.908	0.64
686.091	0.61
686.274	0.65
686.457	0.6
686.639	0.57
686.822	0.62
687.005	0.57
687.188	0.54
687.371	0.63
687.553	0.6
687.736	0.55
687.919	0.6
688.102	0.54
688.284	0.49
688.467	0.43
688.65	0.45
688.832	0.38
689.015	0.47
689.197	0.39
689.38	0.53
689.563	0.56
689.745	0.38
689.928	0.39
690.11	0.43
690.293	0.43
690.475	0.36
690.658	0.44
690.84	0.38
691.023	0.35
691.205	0.37
691.388	0.37
691.57	0.39
691.752	0.35
691.935	0.27
692.117	0.33
692.3	0.32
692.482	0.33
692.664	0.34
692.847	0.33
693.029	0.43
693.211	0.35
693.393	0.3
693.576	0.24
693.758	0.3
693.94	0.26
694.122	0.28
694.304	0.3
694.487	0.28
694.669	0.35
694.851	0.19
695.033	0.27
695.215	0.27
695.397	0.19
695.579	0.3
695.761	0.21
695.943	0.2
696.125	0.29
696.308	0.23
696.49	0.15
696.671	0.4
696.853	0.24
697.035	0.35
697.217	0.19
697.399	0.28
697.581	0.2
697.763	0.24
697.945	0.2
698.127	0.18
698.309	0.27
698.491	0.21
698.672	0.24
698.854	0.24
699.036	0.3
699.218	0.19
699.399	0.26
699.581	0.3
699.763	0.17
699.945	0.15
700.126	0.17
700.308	0.23
700.49	0.22
700.671	0.11
700.853	0.18
701.035	0.2
701.216	0.23
701.398	0.15
701.579	0.18
701.761	0.24
701.943	0.19
702.124	0.19
702.306	0.17
702.487	0.33
702.669	0.18
702.85	0.17
703.031	0.11
703.213	0.25
703.394	0.25
703.576	0.15
703.757	0.25
703.938	0.27
704.12	0.37
704.301	0.21
704.483	0.12
704.664	0.21
704.845	0.23
705.026	0.19
705.208	0.14
705.389	0.16
705.57	0.13
705.751	0.19
705.933	0.22
706.114	0.26
706.295	0.19
706.476	0.1
706.657	0.23
706.838	0.17
707.02	0.23
707.201	0.11
707.382	0.14
707.563	0.21
707.744	0.11
707.925	0.12
708.106	0.1
708.287	0.2
708.468	0.23
708.649	0.19
708.83	0.17
709.011	0.12
709.192	0.25
709.373	0.08
709.554	0.18
709.734	0.28
709.915	0.2
710.096	0.12
710.277	0.1
710.458	0.15
710.639	0.18
710.819	0.02
711	0.16
711.181	0.22
711.362	0.18
711.542	0.12
711.723	0.12
711.904	0.24
712.085	0.17
712.265	0.12
712.446	0.07
712.627	0.12
712.807	0.13
712.988	0.15
713.168	0.1
713.349	0.19
713.53	-0.02
713.71	0.06
713.891	0.16
714.071	0.14
714.252	0.05
714.432	0.12
714.613	0.04
714.793	0.17
714.974	0.24
715.154	0.24
715.334	0.2
715.515	0.26
715.695	0.05
715.876	0.16
716.056	0.09
716.236	0.15
716.417	0.12
716.597	0.04
716.777	0.23
716.957	0.11
717.138	0.19
717.318	0.09
717.498	0.07
717.678	0.13
717.859	0.17
718.039	0.09
718.219	0.18
718.399	0.1
718.579	0.02
718.759	-0
718.939	0.21
719.12	0.19
719.3	0.15
719.48	-0.01
719.66	-0.03
719.84	0.21
720.02	0.12
720.2	0.07
720.38	0.19
720.56	0.27
720.74	0.1
720.92	0.12
721.1	0.25
721.279	0.17
721.459	0.17
721.639	0.04
721.819	0.22
721.999	0.1
722.179	0.22
722.359	0.08
722.538	0.11
722.718	0.15
722.898	0.07
723.078	0.12
723.257	0.13
723.437	0.18
723.617	0.14
723.797	0.05
723.976	0.16
724.156	0.12
724.336	0.17
724.515	0.26
724.695	-0
724.874	0.08
725.054	0.18
725.234	0.07
725.413	0.18
725.593	0.13
725.772	0.1
725.952	0.13
726.131	0.07
726.311	0.15
726.49	0.15
726.67	0.11
726.849	0.08
727.028	0.19
727.208	0.1
727.387	0.15
727.567	0.04
727.746	0.12
727.925	0.04
728.105	0.08
728.284	0.17
728.463	-0.06
728.643	0.15
728.822	0.06
729.001	0.15
729.18	0.21
729.359	0.19
729.539	0.16
729.718	0.13
729.897	0.25
730.076	0.07
730.255	0.02
730.434	0.2
730.614	0.12
730.793	0.21
730.972	0.12
731.151	0.2
731.33	0.24
731.509	0.18
731.688	0.18
731.867	0.07
732.046	0.01
732.225	0.28
732.404	-0.02
732.583	0.1
732.762	0.14
732.941	0.26
733.12	0.21
733.298	0.12
733.477	0.2
733.656	0.12
733.835	0.06
734.014	0.21
734.193	0.18
734.371	0.18
734.55	0.21
734.729	0.03
734.908	0.15
735.086	0.13
735.265	0.25
735.444	-0
735.623	0.12
735.801	-0.01
735.98	0.15
736.159	0.1
736.337	0.18
736.516	0.23
736.694	0.12
736.873	0.15
737.052	0.19
737.23	0.26
737.409	0.04
737.587	0.29
737.766	0.04
737.944	0.08
738.123	0.17
738.301	0.2
738.479	0.11
738.658	0.2
738.836	0.01
739.015	0.22
739.193	0.31
739.371	0.08
739.55	0.01
739.728	0.03
739.906	0.21
740.085	0.33
740.263	-0.01
740.441	-0.09
740.62	0.33
740.798	0.22
740.976	0.04
741.154	0.01
741.332	0.28
741.511	0.18
741.689	0.04
741.867	0.19
742.045	0.19
742.223	0.09
742.401	0.09
742.579	0.03
742.757	0.11
742.935	0.07
743.114	0.1
743.292	0.12
743.47	0.15
743.648	0.16
743.826	0.1
744.004	0.16
744.181	0.21
744.359	0.17
744.537	0.12
744.715	0.15
744.893	0.16
745.071	0.07
745.249	0.06
745.427	0.09
745.605	0.13
745.782	0.22
745.96	0.08
746.138	0.18
746.316	0.25
746.493	0.08
746.671	0.24
746.849	0.2
747.027	0.2
747.204	0.09
747.382	0.22
747.56	0.02
747.737	0.02
747.915	0.12
748.093	0.18
748.27	-0.02
748.448	0.07
748.625	-0.03
748.803	-0.02
748.98	0.1
749.158	0.15
749.335	0.23
749.513	0.15
749.69	-0.04
749.868	0.05
750.045	0.13
750.223	0.03
750.4	-0.09
750.578	0.33
750.755	0.13
750.932	-0.04
751.11	0.34
751.287	0.04
751.464	0.27
751.642	0.12
751.819	0.23
751.996	0.15
752.173	0.1
752.351	0.04
752.528	0.09
752.705	0.14
752.882	0.06
753.06	0.11
753.237	0.15
753.414	0.3
753.591	0.34
753.768	0.23
753.945	-0.01
754.122	0.11
754.299	0.11
754.476	-0.01
754.654	0.12
754.831	0.23
755.008	0.11
755.185	0.05
755.362	0.02
755.539	0.16
755.716	0.08
755.892	0.05
756.069	0.02
756.246	0.1
756.423	0.14
756.6	0.31
756.777	0.1
756.954	0.12
757.131	0.08
757.307	0.07
757.484	-0
757.661	0.1
757.838	0.17
758.015	0.08
758.191	0.23
758.368	0.14
758.545	0.38
758.721	0.07
758.898	0.02
759.075	0.14
759.251	0.18
759.428	0.17
759.605	-0.02
759.781	-0.02
759.958	0.17
760.134	0.29
760.311	-0.01
760.488	0.23
760.664	0.32
760.841	0.1
761.017	0.08
761.194	0.18
761.37	0.29
761.547	0.16
761.723	0.08
761.899	0.13
762.076	0.04
762.252	0.03
762.429	0.04
762.605	0.29
762.781	0.05
762.958	0.3
763.134	0.17
763.31	0.08
763.486	0.31
763.663	-0.03
763.839	0.06
764.015	-0.09
764.191	0.02
764.368	0.11
764.544	0
764.72	0.04
764.896	0.18
765.072	0.07
765.248	0.18
765.425	0.13
765.601	0.01
765.777	0.18
765.953	0
766.129	0.17
766.305	0.07
766.481	0.22
766.657	0.17
766.833	0.2
767.009	0
767.185	0.04
767.361	0.18
767.537	-0.02
767.713	0.27
767.889	0.1
768.065	0.16
768.24	-0.07
768.416	0.28
768.592	0.05
768.768	0.11
768.944	0.13
769.12	0.04
769.295	0.06
769.471	0.06
769.647	0.14
769.823	0.35
769.998	0.09
770.174	0.09
770.35	0.47
770.525	0.46
770.701	0.14
770.877	0.15
771.052	0.08
771.228	0.18
771.403	0.2
771.579	0.14
771.755	0.39
771.93	0.21
772.106	0.08
772.281	-0.08
772.457	0.09
772.632	0.11
772.808	-0.11
772.983	-0
773.159	-0.02
773.334	0.32
773.509	0.09
773.685	-0.05
773.86	0.35
774.036	0.44
774.211	0.18
774.386	0.09
774.562	0.3
774.737	0.13
774.912	0.05
775.087	0.24
775.263	0.12
775.438	0.2
775.613	-0.09
775.788	0.13
775.964	0.22
776.139	0.48
776.314	-0.05
776.489	0.21
776.664	0.24
776.839	0.02
777.014	0.17
777.19	0.31
777.365	0.4
777.54	0.38
777.715	-0.09
777.89	0.2
778.065	0.11
778.24	0.22
778.415	0.17
778.59	0.22
778.765	-0.04
778.94	0.22
779.115	0.17
779.289	0.17
779.464	0.16
779.639	0
779.814	-0.1
779.989	-0.07
780.164	0.32
780.339	0.24
780.513	0.09
780.688	0.03
780.863	0.19
781.038	0.32
781.212	-0.14
781.387	0.24
781.562	0.53
781.737	-0.01
781.911	0.23
782.086	-0.01
782.261	0.16
782.435	0.49
782.61	0.04
782.784	0.03
782.959	0.36
783.134	0.01
783.308	0.07
783.483	0.12
783.657	0.6
783.832	0.37
784.006	-0.14
784.181	0.11
784.355	0.39
784.53	-0.13
784.704	0.1
784.878	0.53
785.053	0.17
785.227	0.37
785.402	0.49
785.576	0.03
785.75	0.09
785.925	0.26
786.099	0.19
786.273	0.29
786.448	0.05
786.622	0.23
786.796	0.15
786.97	0.11
787.145	0.46
787.319	-0.19
787.493	0.16
787.667	-0.13
787.841	0.18
788.015	0.41
788.19	0.07
788.364	0.26
788.538	0.38
788.712	0.45
788.886	0.23
789.06	0.46
789.234	0.34
789.408	0.08
789.582	0.15
789.756	0.15
789.93	0.15
790.104	0.07
790.278	-0.01
790.452	0.01
790.626	0.29
790.8	0.14
790.973	0.23
791.147	0.42
791.321	0.29
791.495	0.36
791.669	0.03
791.843	0.33
792.016	0.29
792.19	0.72
792.364	-0.06
792.538	0.63
792.711	0.31
792.885	0.22
793.059	0
793.233	-0.18
793.406	0.25
793.58	0.13
793.754	0.36
793.927	-0.01
794.101	0.56
794.274	0.22
794.448	0.39
794.622	0.15
794.795	0.41
794.969	0.03
795.142	0.59
795.316	0.16
795.489	0.07
795.663	0.69
795.836	-0.02
796.009	0.17
796.183	0.51
796.356	0.06
796.53	0.21
796.703	0.27
796.876	0.81
797.05	0.11
797.223	0.09
797.396	0.39
797.57	0.38
797.743	0.53
797.916	0.33
798.09	0.3
798.263	0.46
798.436	0.41
798.609	0.02
798.782	0.21
798.956	0.3
799.129	0.17
799.302	0.18
799.475	-0.04
799.648	0.24
799.821	-0.06
799.994	0.31
800.167	-0.12
800.34	0.33
800.514	0.28
800.687	0.12
800.86	0.1
801.033	0.31
801.206	0.46
801.379	0.17
801.551	0.5
801.724	0.31
801.897	0.84
802.07	0.15
802.243	0.02
802.416	0.17
802.589	0.04
802.762	0.63
802.935	0.19
803.107	0.47
803.28	0.59
803.453	0.46
803.626	0.28
803.798	-0
803.971	-0.11
804.144	0.06
804.317	0.46
804.489	0.28
804.662	0.34
804.835	0.21
805.007	-0.11
805.18	0.76
805.353	0.17
805.525	0.09
805.698	0.01
805.87	0.37
806.043	0.63
806.215	-0.07
806.388	0.13
806.56	0.29
806.733	0.81
806.905	0.34
807.078	0.24
807.25	-0.12
807.423	0.49
807.595	0.5
807.768	0.38
807.94	0.59
808.112	0.73
808.285	0.19
808.457	0.39
808.629	0.53
808.802	0.44
808.974	0.37
809.146	0.31
809.318	-0.07
809.491	0.56
809.663	0.42
809.835	0.05
810.007	0.24
810.18	0.28
810.352	-0.04
810.524	0.1
810.696	0.21
810.868	0.5
811.04	0.28
811.212	0.27
811.384	0.51
811.556	0.35
811.728	-0.07
811.901	0.93
812.073	0.51
812.245	0.39
812.417	0.44
812.589	-0.17
812.76	-0.06
812.932	0.47
813.104	0.87
813.276	0.15
813.448	0.56
813.62	0.34
813.792	0.56
813.964	0.25
814.136	0.42
814.307	0.05
814.479	-0.12
814.651	-0.09
814.823	0.85
814.995	0.36
815.166	0.25
815.338	0.1
815.51	-0.25
815.681	0.99
815.853	0.26
816.025	0.16
816.196	0.82
816.368	0.81
816.54	-0.12
816.711	0.32
816.883	-0.07
817.054	1.17
817.226	-0.38
817.398	0.66
817.569	0.03
817.741	0.03
817.912	0.56
818.084	-0.24
818.255	0.31
818.426	0.14
818.598	0.68
818.769	0.07
818.941	1.01
819.112	0.83
819.283	0.7
819.455	-0.18
819.626	0.34
819.798	0.45
819.969	0.3
820.14	0.24
820.311	0.15
820.483	0.13
820.654	0.44
820.825	0.3
820.996	-0.02
821.168	-0.25
821.339	0.61
821.51	-0.38
821.681	0.18
821.852	-0.03
822.023	-0.26
822.195	-0.61
822.366	0.11
822.537	0.35
822.708	0.37
822.879	0.11
823.05	0.81
823.221	0.01
823.392	0.92
823.563	0.31
823.734	0.59
823.905	0.03
824.076	0.8
824.247	0.14
824.418	0.13
824.589	0.89
824.759	0.65
824.93	0.37
825.101	-0.28
825.272	0.56
825.443	0.94
825.614	1.17
825.784	-0.37
825.955	1.44
826.126	1.34
826.297	0.57
826.467	1.52
826.638	0.95
826.809	-0.53
826.98	0.22
827.15	0.57
827.321	0.58
827.492	1.58
827.662	0.62
827.833	1.62
828.003	0.56
828.174	0.22
828.345	0.11
828.515	1.09
828.686	0.69
828.856	0.23
829.027	0.7
829.197	0.93
829.368	0.69
829.538	0.29
829.709	0.42
829.879	0.16
830.049	0.79
830.22	0.45
830.39	1.19
830.56	1.12
830.731	0.26
830.901	-0.18
831.072	0.43
831.242	0.98
831.412	0.47
831.582	0.74
831.753	0.24
831.923	0.71
832.093	0.08
832.263	0.42
832.434	-0.03
832.604	0.56
832.774	1.01
832.944	0.42
833.114	0.02
833.284	0.45
833.454	0.36
833.624	0.53
833.795	-0.1
833.965	1.64
834.135	0.62
834.305	-0.45
834.475	0.19
834.645	0.71
834.815	-0.09
834.985	-0.32
835.155	0.18
835.325	0.94
835.494	0.49
835.664	0.68
835.834	0.42
836.004	0.81
836.174	1.08
836.344	0.87
836.514	-0.45
836.684	0.49
836.853	0.88
837.023	0.87
837.193	0.3
837.363	1.44
837.532	0.95
837.702	0.47
837.872	-0.42
838.041	1.17
838.211	2.14
838.381	0.13
838.55	0.86
838.72	2.76
838.89	1.29
839.059	0.43
839.229	0.39
839.398	2.04
839.568	0.23
839.738	0.73
839.907	1.17
840.077	0.6
840.246	0.3
840.416	-0.07
840.585	-0.22
840.755	1.61
840.924	1.62
841.093	-0.44
841.263	0.12
841.432	0.9
841.602	0.18
841.771	-0.23
841.94	0.86
842.11	1.36
842.279	2.54
842.448	0.51
842.617	0.13
842.787	1.49
842.956	0.16
843.125	0.29
843.294	1.14
843.464	1.77
843.633	0.68
843.802	-0.11
843.971	0.63
844.14	1.76
844.309	1.14
844.479	-0.29
844.648	0.36
844.817	-0.07
844.986	0.52
845.155	0.35
845.324	0.33
845.493	0.55
845.662	0.8
845.831	0.99
846	2.1
846.169	0.63
846.338	1.93
846.507	0.79
846.676	1.07
846.844	0.6
847.013	1.08
847.182	0.88
847.351	-0.21
847.52	1.42
847.689	1.64
847.858	0.86
848.026	0.86
848.195	0.17
848.364	0.19
848.533	-0.16
848.701	-0.1
848.87	1.16
849.039	1.63
849.207	1.37
849.376	1.1
849.545	1.44
849.713	0.13
849.882	-0.27
850.051	1.55
850.219	0.93
850.388	1.93
850.556	0.44
850.725	1.5
850.893	1.11
851.062	0.68
851.23	2.22
851.399	0.1
851.567	-0.02
851.736	0.9
851.904	-0.5
852.073	0.72
852.241	0.76
852.41	0.97
852.578	0.64
852.746	0.3
852.915	1.2
853.083	0.57
853.251	-0.02
853.42	1.18
853.588	1.45
853.756	1.95
853.924	0.42
854.093	0.78
854.261	-0.21
854.429	-0.85
854.597	1.04
854.765	0.14
854.934	2.36
855.102	1.63
855.27	1
855.438	2.15
855.606	1.31
855.774	1.48
855.942	-0.75
856.11	-0.67
856.278	0.91
856.446	1.59
856.614	0.71
856.782	0.2
856.95	2.12
857.118	1.86
857.286	0.76
857.454	0.27
857.622	0.46
857.79	1.34
857.958	-0.05
858.126	0.75
858.294	-1.2
858.462	1.86
858.629	-0.14
858.797	0.52
858.965	0.75
859.133	1.11
859.301	0.87
859.468	1.35
859.636	0.16
859.804	2.05
859.971	1.62
860.139	-0.66
860.307	2.62
860.474	0.18
860.642	-0.83
860.81	0.81
860.977	1.15
861.145	1.02
861.313	0.17
861.48	1.15
861.648	0.61
861.815	1.23
861.983	-0.29
862.15	0.7
862.318	1.29
862.485	2.11
862.653	-0.78
862.82	0.13
862.988	1.72
863.155	1.11
863.322	-0.08
863.49	-0.18
863.657	0.75
863.824	3.94
863.992	1.79
864.159	0.91
864.326	2.79
864.494	-0.11
864.661	3.66
864.828	-0.7
864.996	1.49
865.163	3.21
865.33	-0.32
865.497	-1.5
865.664	0.23
865.832	0.21
865.999	0.7
866.166	-0.76
866.333	-0.88
866.5	1.76
866.667	1.44
866.834	0.58
867.001	2.76
867.168	0.41
867.335	1.08
867.502	-1.48
867.669	2.49
867.836	2.52
868.003	0.44
868.17	1.14
868.337	2.12
868.504	2.09
868.671	-1
868.838	1
869.005	2.05
869.172	2.16
869.339	1.52
869.505	1.48
869.672	1.99
869.839	2.61
870.006	2.59
870.173	-0.71
870.339	0.53
870.506	3.86
870.673	-0.76
870.84	0.86
871.006	2.64
871.173	-0.42
871.34	1.8
871.506	0.77
871.673	0.53
871.839	-0.04
872.006	1.16
872.173	1.54
872.339	0.69
872.506	3.03
872.672	1.87
872.839	-0.5
873.005	2.09
873.172	5.06
873.338	2.46
873.505	1.2
873.671	0.06
873.838	2.54
874.004	-0.74
874.171	-0.47
874.337	0.51
874.503	3.43
874.67	0.43
874.836	0.22
875.002	3.37
875.169	1.94
875.335	2.26
875.501	0.52
875.668	1.44
875.834	2.55
876	1.58
876.166	1.62
876.332	0.32
876.499	4.78
876.665	-0.22
876.831	1.31
876.997	4.11
877.163	0.75
877.329	0.78
877.495	1.73
877.662	2.19
877.828	2.67
877.994	-0.8
878.16	-1.37
878.326	0.53
878.492	1.25
878.658	0.7
878.824	2.33
878.99	2.52
879.156	0.89
879.322	3.56
879.487	0.01
879.653	1.27
879.819	2.05
879.985	1.28
880.151	2.1
880.317	3.77
880.483	1.21
880.648	2.59
880.814	-2.13
880.98	2.55
881.146	-2.05
881.312	-0.42
881.477	1.08
881.643	1.93
881.809	2.24
881.974	3.42
882.14	1.01
882.306	1.07
882.471	3.2
882.637	0.39
882.803	2.19
882.968	4.22
883.134	4.11
883.299	0.5
883.465	1.38
883.63	2.96
883.796	1.93
883.961	2.54
884.127	1.5
884.292	-3.62
884.458	-0.58
884.623	-0.58
