Data from Apollo_Calib_20240827__AbsoluteIrradiance__413__06-02-00-620.txt Node

Date: Wed Aug 28 06:02:00 BST 2024
User: biology
Spectrometer: FLMT08252
Trigger mode: 0
Integration Time (sec): 5.000000E-1
Scans to average: 5
Electric dark correction enabled: true
Nonlinearity correction enabled: false
Boxcar width: 0
XAxis mode: Wavelengths
Number of Pixels in Spectrum: 3648
>>>>>Begin Spectral Data<<<<<
179.588	-0
179.809	-0
180.03	-0
180.251	-0
180.473	-0
180.694	0
180.915	0
181.136	-0
181.357	-0
181.578	-0
181.799	0
182.02	-0
182.241	0
182.462	-0
182.683	0
182.904	-0
183.125	-0
183.346	0
183.567	0
183.788	0
184.009	0
184.23	0
184.451	0
184.672	0
184.892	-0
185.113	0
185.334	0
185.555	0
185.776	-0
185.996	0
186.217	0
186.438	0
186.659	0
186.879	0
187.1	0
187.321	0
187.541	0
187.762	0
187.983	0
188.203	0
188.424	0
188.644	0
188.865	0
189.086	0
189.306	0
189.527	0
189.747	0
189.968	-0
190.188	0
190.409	0
190.629	0
190.849	-0
191.07	0
191.29	0
191.511	0
191.731	0
191.951	-0
192.172	0
192.392	0
192.612	0
192.833	0
193.053	0
193.273	0
193.493	0
193.714	0
193.934	0
194.154	0
194.374	0
194.594	0
194.815	0
195.035	0
195.255	0
195.475	-0
195.695	0
195.915	0
196.135	0
196.355	0
196.575	0
196.795	0
197.015	0
197.235	-0
197.455	-0
197.675	0
197.895	-0
198.115	-0
198.335	0
198.555	0
198.775	0
198.995	0
199.214	0
199.434	0
199.654	0
199.874	0
200.094	1.46
200.313	0.27
200.533	0.25
200.753	0.05
200.973	1.73
201.192	0.95
201.412	-0.17
201.632	0.27
201.851	1.19
202.071	0.3
202.291	0.18
202.51	-0.21
202.73	1.04
202.95	0.24
203.169	-0.12
203.389	0.6
203.608	0.38
203.828	-0.01
204.047	0.18
204.267	0.99
204.486	0.26
204.706	0.45
204.925	0.25
205.145	-0.08
205.364	0.4
205.583	1.49
205.803	0.22
206.022	-0
206.242	0.41
206.461	0.59
206.68	0.06
206.9	0.6
207.119	0.91
207.338	0.82
207.557	0.17
207.777	0.27
207.996	0.28
208.215	0.88
208.434	-0.19
208.654	-0.13
208.873	0.15
209.092	0.94
209.311	0.02
209.53	0.16
209.749	0.33
209.968	0.09
210.187	0.22
210.407	-0.22
210.626	0.3
210.845	0.44
211.064	0.07
211.283	0.05
211.502	0.52
211.721	0.17
211.94	0.15
212.159	0.2
212.377	0.37
212.596	0.45
212.815	0.51
213.034	0.56
213.253	0.33
213.472	0.37
213.691	0.28
213.91	0.08
214.128	0.05
214.347	0.73
214.566	-0.24
214.785	-0.11
215.003	0.22
215.222	0.27
215.441	0.08
215.66	0.02
215.878	0.15
216.097	0.46
216.316	-0.04
216.534	0.18
216.753	0.38
216.972	0.01
217.19	0.28
217.409	0.06
217.627	0.01
217.846	0.04
218.064	0.15
218.283	0.12
218.501	0.68
218.72	0.43
218.938	-0.04
219.157	0.04
219.375	0.28
219.594	0.39
219.812	-0.07
220.031	-0.09
220.249	0.33
220.467	0.41
220.686	0.24
220.904	-0.03
221.122	0.1
221.341	0.42
221.559	0.22
221.777	-0.04
221.995	0.09
222.214	0.26
222.432	0.04
222.65	0.35
222.868	0.08
223.086	0.28
223.305	0.24
223.523	-0.11
223.741	0.45
223.959	0.03
224.177	-0.09
224.395	0.06
224.613	0.17
224.831	0.19
225.049	0.02
225.267	0.13
225.485	0.21
225.703	0.12
225.921	-0.02
226.139	0.04
226.357	0.36
226.575	0.29
226.793	0.11
227.011	0.71
227.229	0.23
227.447	0.38
227.665	0.03
227.883	0.03
228.1	0.09
228.318	0.14
228.536	-0.21
228.754	0.01
228.972	0.2
229.189	0.24
229.407	0.13
229.625	0.1
229.843	0.22
230.06	0.39
230.278	0.17
230.496	0.16
230.713	0.19
230.931	0.25
231.149	0.08
231.366	-0.05
231.584	0.09
231.801	0.59
232.019	0.19
232.236	0.02
232.454	0.02
232.671	0.17
232.889	0.08
233.106	0.01
233.324	0.02
233.541	0.1
233.759	0.12
233.976	0.05
234.194	0.1
234.411	0.12
234.628	0.05
234.846	0
235.063	0.22
235.28	0.07
235.498	0.02
235.715	0.08
235.932	0.29
236.149	0.13
236.367	-0.02
236.584	0.26
236.801	0.11
237.018	0.13
237.236	0.17
237.453	0
237.67	0.26
237.887	0.11
238.104	0.15
238.321	0.02
238.538	0
238.755	0.19
238.973	-0.07
239.19	0.13
239.407	0.16
239.624	0.14
239.841	-0.04
240.058	0.04
240.275	0.21
240.492	0.12
240.709	0.16
240.925	0.08
241.142	0.14
241.359	0
241.576	0.03
241.793	0.09
242.01	0.14
242.227	0.22
242.444	0.11
242.66	0.2
242.877	0.16
243.094	-0.02
243.311	0.07
243.527	0.08
243.744	0.13
243.961	0.12
244.178	0.03
244.394	0.1
244.611	0.11
244.828	0.27
245.044	0.08
245.261	0.15
245.477	0.17
245.694	0.16
245.911	-0
246.127	0.14
246.344	0.19
246.56	0.14
246.777	0.03
246.993	0.11
247.21	0.15
247.426	0.25
247.643	0.08
247.859	-0.03
248.076	0.06
248.292	0.35
248.508	0.04
248.725	0.09
248.941	0.15
249.157	0.22
249.374	0.04
249.59	0.07
249.806	0.07
250.023	0.29
250.239	0.04
250.455	0.09
250.671	0.06
250.888	0.15
251.104	0.13
251.32	0.03
251.536	0.1
251.752	0.12
251.969	0.17
252.185	0.1
252.401	0.29
252.617	0.08
252.833	0.09
253.049	0.16
253.265	0.04
253.481	0.04
253.697	-0.02
253.913	0.01
254.129	0.07
254.345	0.1
254.561	0.03
254.777	0.03
254.993	0.1
255.209	0.05
255.425	0.1
255.641	0.02
255.857	0.17
256.073	0.13
256.288	0
256.504	0.1
256.72	0.12
256.936	0.17
257.152	0.06
257.367	0.01
257.583	0.16
257.799	0.18
258.015	0.08
258.23	0.09
258.446	0.19
258.662	0.11
258.877	-0.03
259.093	-0.01
259.309	0.05
259.524	0.11
259.74	0.03
259.955	-0.01
260.171	0.11
260.387	0.09
260.602	0.16
260.818	0.14
261.033	0.02
261.249	0.04
261.464	0.01
261.68	-0
261.895	0.1
262.11	0.11
262.326	0.09
262.541	-0.06
262.757	0.18
262.972	0.12
263.187	0.14
263.403	0.14
263.618	0.11
263.833	0.09
264.049	0.04
264.264	0.14
264.479	0.16
264.694	0.27
264.91	0.04
265.125	0.09
265.34	0.19
265.555	0.21
265.77	0.12
265.986	-0
266.201	0.2
266.416	0.19
266.631	0.03
266.846	0.07
267.061	0.16
267.276	0.11
267.491	-0.05
267.706	0.1
267.921	0.13
268.136	0.03
268.351	0.1
268.566	0.01
268.781	0.16
268.996	0.13
269.211	0.05
269.426	-0.02
269.641	0.1
269.856	0.18
270.071	0.04
270.285	0.01
270.5	0.13
270.715	0.15
270.93	0.1
271.145	0.12
271.359	0.14
271.574	0.03
271.789	0.14
272.004	0
272.218	0.04
272.433	0.11
272.648	0.06
272.862	0.1
273.077	0.06
273.292	0.04
273.506	0.06
273.721	0.04
273.936	0.12
274.15	0.17
274.365	0.04
274.579	0.09
274.794	0.18
275.008	0.13
275.223	-0.04
275.437	0.07
275.652	0.16
275.866	0.14
276.081	0.08
276.295	0.13
276.509	0.06
276.724	0.05
276.938	0.02
277.153	0.12
277.367	0.16
277.581	0.04
277.796	0.01
278.01	0
278.224	0.13
278.438	0.28
278.653	0.05
278.867	0.07
279.081	0.11
279.295	0.1
279.51	0.09
279.724	-0
279.938	0.12
280.152	0.14
280.366	0.06
280.58	0.08
280.794	0.13
281.008	0.1
281.222	0.16
281.437	0.16
281.651	0.15
281.865	0.18
282.079	0.02
282.293	-0.03
282.507	0.01
282.721	0.06
282.935	0.07
283.148	-0
283.362	0.04
283.576	-0.01
283.79	0.06
284.004	0.05
284.218	0.14
284.432	0.03
284.646	0.03
284.859	0.07
285.073	0.06
285.287	0.07
285.501	0.08
285.714	0.1
285.928	0.11
286.142	0.03
286.356	0
286.569	0.02
286.783	0.18
286.997	0.12
287.21	0.09
287.424	0.05
287.637	0.04
287.851	0.03
288.065	0.08
288.278	0.03
288.492	0.09
288.705	0.1
288.919	0.04
289.132	0.03
289.346	0.14
289.559	-0.02
289.773	0.02
289.986	0.1
290.2	0.06
290.413	0.14
290.626	-0.01
290.84	0.04
291.053	0.04
291.267	0.17
291.48	0.08
291.693	0.09
291.906	0.05
292.12	0.06
292.333	0.01
292.546	0.06
292.76	0.17
292.973	0.09
293.186	0.11
293.399	0.06
293.612	0.1
293.826	0.08
294.039	0.05
294.252	0.04
294.465	0.11
294.678	0.09
294.891	0.05
295.104	0.02
295.317	0.03
295.53	0.08
295.743	0.04
295.956	0.05
296.169	0.11
296.382	0.14
296.595	0.12
296.808	0.01
297.021	0.18
297.234	0.1
297.447	0.05
297.66	0.05
297.873	0.12
298.086	0.08
298.299	0.02
298.511	0.05
298.724	0.03
298.937	0.02
299.15	0.02
299.363	0.12
299.575	0.11
299.788	0.07
300.001	0.08
300.213	-0.01
300.426	0.03
300.639	-0.01
300.852	0.01
301.064	0.08
301.277	0.11
301.489	0.06
301.702	0.08
301.915	0.09
302.127	0.12
302.34	0.1
302.552	0.1
302.765	0.01
302.977	0.09
303.19	0.01
303.402	0.05
303.615	0.04
303.827	0.02
304.04	0.07
304.252	0.09
304.464	0.03
304.677	0.14
304.889	0.07
305.102	0.07
305.314	0.04
305.526	0.1
305.739	0.1
305.951	0.01
306.163	0.06
306.375	0.15
306.588	0.01
306.8	0.04
307.012	0.02
307.224	0.04
307.436	0.1
307.649	-0.05
307.861	0.06
308.073	0.08
308.285	0.09
308.497	0.03
308.709	0.03
308.921	0.09
309.133	0.12
309.346	0.05
309.558	0.03
309.77	0.12
309.982	0.12
310.194	0.1
310.406	0.04
310.617	0.12
310.829	0.07
311.041	0.12
311.253	0.02
311.465	0.06
311.677	0.08
311.889	0.04
312.101	0.04
312.313	0.12
312.524	0.1
312.736	0.02
312.948	0.04
313.16	0.14
313.372	0.08
313.583	0.1
313.795	0.05
314.007	0.01
314.218	0.11
314.43	0.06
314.642	0.03
314.853	0.05
315.065	0.09
315.277	0.05
315.488	0.05
315.7	0.15
315.912	0.08
316.123	0.06
316.335	0.05
316.546	0.14
316.758	0.05
316.969	0.03
317.181	0.03
317.392	0.05
317.604	0.12
317.815	0.03
318.026	0.03
318.238	0.06
318.449	0.09
318.661	-0.02
318.872	-0.01
319.083	0.02
319.295	0.08
319.506	0.04
319.717	0.07
319.929	0.08
320.14	0.08
320.351	0.09
320.562	0.04
320.774	0.06
320.985	0.08
321.196	0.01
321.407	0.01
321.618	0.08
321.829	0.06
322.041	0.08
322.252	0.07
322.463	0.11
322.674	0.11
322.885	0.02
323.096	0.06
323.307	0.07
323.518	0.11
323.729	0.05
323.94	0.04
324.151	0.02
324.362	0.05
324.573	0.06
324.784	0.02
324.995	0.1
325.206	0.1
325.417	0.02
325.628	0.05
325.838	0.05
326.049	0.09
326.26	0.07
326.471	0.02
326.682	0.09
326.892	0.1
327.103	-0
327.314	-0
327.525	0.1
327.735	0.09
327.946	0.1
328.157	0.03
328.368	0.05
328.578	0.03
328.789	0.08
328.999	0.08
329.21	0.06
329.421	0.08
329.631	0.01
329.842	0.06
330.052	0.1
330.263	0.08
330.473	0.07
330.684	0.02
330.894	0.04
331.105	0.09
331.315	0.05
331.526	0.01
331.736	0.13
331.947	0.08
332.157	0.07
332.367	0.02
332.578	0.07
332.788	0.1
332.999	0.15
333.209	0.1
333.419	0.06
333.629	0.03
333.84	0.08
334.05	0.07
334.26	0.13
334.47	0.04
334.681	0.15
334.891	0.04
335.101	0.09
335.311	0.11
335.521	0.04
335.732	0
335.942	0.12
336.152	0.09
336.362	0.09
336.572	0.07
336.782	0.07
336.992	0.05
337.202	0.09
337.412	-0
337.622	0.1
337.832	0.05
338.042	0.11
338.252	0.02
338.462	0.03
338.672	0.05
338.882	-0.02
339.092	0.02
339.302	0.14
339.511	0.09
339.721	0.04
339.931	0.03
340.141	0.08
340.351	0.12
340.561	0.06
340.77	0.07
340.98	0.05
341.19	0.09
341.4	0.03
341.609	0.01
341.819	0.03
342.029	-0
342.238	0.05
342.448	0.02
342.658	0.09
342.867	0.08
343.077	0.1
343.286	0.03
343.496	0.09
343.706	0.16
343.915	-0.01
344.125	0.06
344.334	0.08
344.544	0.02
344.753	0.03
344.963	0.04
345.172	0.01
345.381	0.04
345.591	0.03
345.8	0.04
346.01	0.1
346.219	0.11
346.428	-0.07
346.638	0.05
346.847	0.06
347.056	0.1
347.266	0.06
347.475	0.04
347.684	0.09
347.893	0.07
348.103	0.1
348.312	0.06
348.521	0.03
348.73	0.07
348.94	0.07
349.149	0.04
349.358	0.02
349.567	0.05
349.776	0.04
349.985	0.02
350.194	0.07
350.403	0.1
350.612	0.01
350.821	0.05
351.03	0.02
351.239	0.01
351.448	0.05
351.657	0
351.866	0.12
352.075	0.05
352.284	0.1
352.493	0.03
352.702	0.1
352.911	0.08
353.12	0.05
353.329	0.04
353.538	0.1
353.746	0.05
353.955	0.04
354.164	0.05
354.373	0.04
354.582	0.1
354.79	0.06
354.999	0.09
355.208	0.02
355.416	0.14
355.625	-0.01
355.834	0.05
356.042	0.1
356.251	0.04
356.46	0.01
356.668	0.09
356.877	0.14
357.085	0.07
357.294	-0.03
357.503	0.08
357.711	0.03
357.92	0.2
358.128	0.07
358.337	0.08
358.545	0.05
358.754	0.03
358.962	0.06
359.17	0.03
359.379	0.11
359.587	0.11
359.796	0.07
360.004	0.09
360.212	0.06
360.421	0.08
360.629	0.05
360.837	0.04
361.046	0.11
361.254	0.13
361.462	0.06
361.67	0.05
361.879	0.04
362.087	0.14
362.295	0.1
362.503	0.03
362.711	0.01
362.92	0.06
363.128	0.03
363.336	0.01
363.544	0.01
363.752	0.07
363.96	-0
364.168	0.03
364.376	0.1
364.584	0.1
364.792	0.09
365	0.1
365.208	0.06
365.416	0.05
365.624	0.07
365.832	0.05
366.04	0.17
366.248	0.06
366.456	0.11
366.664	0.07
366.872	0.07
367.079	0.07
367.287	0.07
367.495	0.07
367.703	0.08
367.911	0.03
368.118	0.08
368.326	0.06
368.534	0.03
368.742	0.15
368.949	-0.02
369.157	0.03
369.365	0.08
369.572	0.04
369.78	0.05
369.988	0.1
370.195	0.1
370.403	0.11
370.61	0.03
370.818	0.07
371.026	0.07
371.233	0.03
371.441	0.07
371.648	0.05
371.856	0.1
372.063	0.11
372.271	0.04
372.478	0.03
372.685	0.02
372.893	0.09
373.1	0.04
373.308	0.03
373.515	0.13
373.722	0.1
373.93	0.08
374.137	0.09
374.344	0.11
374.552	0.09
374.759	0.06
374.966	0.07
375.173	0.04
375.381	0.07
375.588	0.04
375.795	0
376.002	0
376.209	0.04
376.417	0.05
376.624	0.06
376.831	0.09
377.038	0.01
377.245	-0.02
377.452	0.04
377.659	0.04
377.866	0.05
378.073	0.06
378.28	0.05
378.487	0.04
378.694	0.11
378.901	0.04
379.108	0.05
379.315	0.11
379.522	0.14
379.729	0.07
379.936	0.1
380.143	0.06
380.35	0.06
380.557	0.07
380.763	0.05
380.97	0.05
381.177	0.08
381.384	0.08
381.591	0.01
381.797	0.1
382.004	0.11
382.211	0.07
382.418	0.04
382.624	0.07
382.831	0.11
383.038	0.04
383.244	0.07
383.451	0.08
383.658	0.1
383.864	0.06
384.071	0.01
384.277	0.15
384.484	0.04
384.69	0.1
384.897	0.06
385.103	0.05
385.31	0.02
385.516	0.07
385.723	-0
385.929	0.01
386.136	0.06
386.342	0.06
386.549	0.05
386.755	0.1
386.961	0.06
387.168	0.07
387.374	0.08
387.58	0.09
387.787	0.06
387.993	0.08
388.199	0.08
388.406	0.05
388.612	0.09
388.818	0.01
389.024	0.05
389.231	0.08
389.437	0.14
389.643	0.07
389.849	0.04
390.055	0.07
390.261	0.06
390.467	0.06
390.674	0.04
390.88	0.05
391.086	0.1
391.292	0.01
391.498	0.12
391.704	0.09
391.91	0.03
392.116	0.05
392.322	-0.05
392.528	0.09
392.734	0.08
392.94	0.06
393.146	0.01
393.352	0.07
393.557	0.06
393.763	0.1
393.969	0.11
394.175	0.06
394.381	0.08
394.587	0.01
394.792	0.04
394.998	0.11
395.204	0.08
395.41	0.03
395.615	0.12
395.821	0.08
396.027	0.1
396.233	0.06
396.438	0.08
396.644	0.16
396.85	0.09
397.055	0.08
397.261	0.09
397.466	0.08
397.672	0.04
397.878	0.12
398.083	0.1
398.289	0.06
398.494	0.16
398.7	0.09
398.905	0.01
399.111	0.11
399.316	0.04
399.522	0.05
399.727	0.07
399.932	0.06
400.138	0.04
400.343	0.11
400.549	0.05
400.754	0.05
400.959	0.11
401.165	0.04
401.37	0.12
401.575	0.14
401.78	0.05
401.986	0.04
402.191	0.09
402.396	0.09
402.601	0.13
402.807	0.1
403.012	0.09
403.217	0.13
403.422	0.1
403.627	0.06
403.832	0.06
404.037	0.11
404.243	0.13
404.448	0.06
404.653	0.02
404.858	0.11
405.063	0.07
405.268	0.09
405.473	0.04
405.678	0.06
405.883	0.22
406.088	0.08
406.293	0.02
406.498	0.07
406.703	0.11
406.907	0.1
407.112	0.05
407.317	0.08
407.522	0.11
407.727	0.04
407.932	0.11
408.136	0.15
408.341	0.06
408.546	0.1
408.751	0.08
408.956	0.11
409.16	0.12
409.365	0.06
409.57	0.1
409.774	0.1
409.979	0.11
410.184	0.1
410.388	0.03
410.593	0.13
410.798	0.12
411.002	0.06
411.207	0.09
411.411	0.09
411.616	0.07
411.82	0.07
412.025	0.09
412.229	0.03
412.434	0.17
412.638	0.09
412.843	0.07
413.047	0.12
413.252	0.05
413.456	0.07
413.66	0.1
413.865	0.06
414.069	0.18
414.273	0.12
414.478	0.05
414.682	0.07
414.886	0.08
415.091	0.04
415.295	-0.02
415.499	0.11
415.703	0.05
415.908	0.14
416.112	-0
416.316	0.16
416.52	0.12
416.724	-0.02
416.929	0.05
417.133	0.18
417.337	0.08
417.541	0.04
417.745	0.03
417.949	0.11
418.153	0.09
418.357	0
418.561	0.17
418.765	0.08
418.969	0.24
419.173	0.13
419.377	0.09
419.581	0.17
419.785	0.05
419.989	0.05
420.193	0.11
420.397	0.09
420.601	0.12
420.804	0.14
421.008	0.09
421.212	0.08
421.416	0.17
421.62	0.07
421.823	0.09
422.027	0.22
422.231	0.12
422.435	0.09
422.638	0.13
422.842	0.1
423.046	0.05
423.249	0.12
423.453	0.14
423.657	0.14
423.86	0.1
424.064	0.1
424.268	0.15
424.471	0.06
424.675	0.15
424.878	0.13
425.082	0.11
425.285	0.14
425.489	0.08
425.692	0.07
425.896	0.09
426.099	0.13
426.303	0.06
426.506	0.03
426.71	0.16
426.913	0.16
427.116	0.15
427.32	0.16
427.523	0.1
427.726	0.18
427.93	0.08
428.133	0.09
428.336	0.06
428.54	0.08
428.743	0.15
428.946	0.16
429.149	0.11
429.353	0.14
429.556	0.1
429.759	0.09
429.962	0.06
430.165	0.11
430.368	0.09
430.571	0.09
430.775	0.13
430.978	0.02
431.181	0.12
431.384	0.08
431.587	0.06
431.79	0.06
431.993	0.11
432.196	0.09
432.399	0.08
432.602	0.16
432.805	0.07
433.008	0.11
433.211	0.06
433.414	0.12
433.616	0.12
433.819	0.14
434.022	-0.02
434.225	0.2
434.428	0.1
434.631	0.19
434.833	0.13
435.036	0.12
435.239	0.14
435.442	0.15
435.645	0.06
435.847	0.13
436.05	0.17
436.253	0.08
436.455	0.06
436.658	0.08
436.861	0.19
437.063	0.08
437.266	0.09
437.468	0.09
437.671	0.24
437.874	0.11
438.076	0.07
438.279	0.06
438.481	0.11
438.684	0.11
438.886	0.13
439.089	0.06
439.291	0.2
439.494	0.15
439.696	0.1
439.899	0.12
440.101	0.15
440.303	0.06
440.506	0.14
440.708	0.1
440.91	0.13
441.113	0.06
441.315	0.13
441.517	0.03
441.72	0.16
441.922	0.05
442.124	0.05
442.326	0.13
442.529	0.16
442.731	0.09
442.933	0.16
443.135	0.1
443.337	0.08
443.539	0.06
443.742	0.11
443.944	0.15
444.146	0.09
444.348	0.09
444.55	0.07
444.752	0.11
444.954	0.02
445.156	0.13
445.358	0.08
445.56	0.16
445.762	0.14
445.964	0.13
446.166	0.11
446.368	0.05
446.57	0.18
446.772	0.14
446.974	0.11
447.175	0.14
447.377	0.09
447.579	0.04
447.781	0.03
447.983	0.19
448.184	0.09
448.386	0.11
448.588	0.06
448.79	0.09
448.991	0.11
449.193	0.14
449.395	0.09
449.597	0.19
449.798	0.13
450	0.19
450.202	0.11
450.403	0.12
450.605	0.16
450.806	0.11
451.008	0.01
451.21	0.11
451.411	0.11
451.613	0.08
451.814	0.1
452.016	0.16
452.217	0.14
452.419	0.14
452.62	0.1
452.821	0.2
453.023	0.19
453.224	0.2
453.426	0.11
453.627	0.15
453.828	0.17
454.03	0.11
454.231	0.12
454.432	0.09
454.634	0.27
454.835	0.08
455.036	0.08
455.238	0.2
455.439	0.18
455.64	0.05
455.841	0.11
456.042	0.2
456.244	0.17
456.445	0.12
456.646	0.06
456.847	0.15
457.048	0.17
457.249	0.21
457.45	0.37
457.651	0.07
457.852	0.22
458.054	0.17
458.255	0.16
458.456	0.17
458.657	0.14
458.858	0.1
459.058	0.15
459.259	0.22
459.46	0.12
459.661	0.09
459.862	0.3
460.063	0.18
460.264	0.21
460.465	0.1
460.666	0.27
460.866	0.15
461.067	0.13
461.268	0.12
461.469	0.14
461.67	0.17
461.87	0.14
462.071	0.16
462.272	0.12
462.473	0.16
462.673	0.2
462.874	0.13
463.075	0.19
463.275	0.17
463.476	0.15
463.676	0.18
463.877	0.14
464.078	0.16
464.278	0.18
464.479	0.13
464.679	0.17
464.88	0.14
465.08	0.21
465.281	0.1
465.481	0.14
465.682	0.14
465.882	0.22
466.083	0.12
466.283	0.17
466.483	0.16
466.684	0.09
466.884	0.15
467.085	0.17
467.285	0.24
467.485	0.16
467.686	0.16
467.886	0.14
468.086	0.17
468.286	0.2
468.487	0.16
468.687	0.15
468.887	0.18
469.087	0.26
469.287	0.21
469.488	0.12
469.688	0.24
469.888	0.21
470.088	0.23
470.288	0.25
470.488	0.26
470.688	0.16
470.888	0.23
471.088	0.17
471.288	0.2
471.488	0.23
471.688	0.25
471.888	0.18
472.088	0.22
472.288	0.26
472.488	0.15
472.688	0.18
472.888	0.21
473.088	0.22
473.288	0.25
473.488	0.23
473.688	0.31
473.887	0.21
474.087	0.21
474.287	0.27
474.487	0.22
474.687	0.25
474.886	0.22
475.086	0.26
475.286	0.26
475.486	0.27
475.685	0.23
475.885	0.26
476.085	0.25
476.284	0.31
476.484	0.29
476.684	0.3
476.883	0.32
477.083	0.29
477.282	0.25
477.482	0.36
477.681	0.34
477.881	0.31
478.08	0.29
478.28	0.3
478.479	0.36
478.679	0.39
478.878	0.32
479.078	0.3
479.277	0.34
479.477	0.32
479.676	0.4
479.875	0.33
480.075	0.28
480.274	0.41
480.473	0.41
480.673	0.32
480.872	0.46
481.071	0.4
481.271	0.42
481.47	0.36
481.669	0.37
481.868	0.38
482.067	0.39
482.267	0.42
482.466	0.41
482.665	0.42
482.864	0.43
483.063	0.44
483.262	0.48
483.461	0.53
483.661	0.55
483.86	0.51
484.059	0.55
484.258	0.54
484.457	0.52
484.656	0.56
484.855	0.61
485.054	0.51
485.253	0.56
485.452	0.55
485.651	0.62
485.849	0.6
486.048	0.62
486.247	0.61
486.446	0.67
486.645	0.61
486.844	0.65
487.043	0.65
487.241	0.7
487.44	0.69
487.639	0.73
487.838	0.75
488.037	0.76
488.235	0.83
488.434	0.82
488.633	0.75
488.831	0.86
489.03	0.87
489.229	0.87
489.427	0.87
489.626	0.9
489.825	0.93
490.023	0.94
490.222	0.94
490.42	0.97
490.619	1.03
490.817	1
491.016	1
491.214	1.09
491.413	1.1
491.611	1.07
491.81	1.09
492.008	1.14
492.207	1.21
492.405	1.21
492.604	1.17
492.802	1.22
493	1.26
493.199	1.25
493.397	1.31
493.595	1.36
493.794	1.31
493.992	1.45
494.19	1.42
494.388	1.47
494.587	1.43
494.785	1.5
494.983	1.47
495.181	1.56
495.379	1.56
495.578	1.66
495.776	1.66
495.974	1.69
496.172	1.7
496.37	1.81
496.568	1.84
496.766	1.8
496.964	1.92
497.162	1.96
497.36	1.98
497.558	2.01
497.756	2.08
497.954	2.09
498.152	2.16
498.35	2.22
498.548	2.21
498.746	2.27
498.944	2.29
499.142	2.3
499.34	2.37
499.538	2.47
499.736	2.43
499.933	2.56
500.131	2.59
500.329	2.72
500.527	2.71
500.725	2.82
500.922	2.87
501.12	2.9
501.318	3
501.516	2.99
501.713	3.11
501.911	3.12
502.109	3.16
502.306	3.28
502.504	3.27
502.701	3.33
502.899	3.43
503.097	3.63
503.294	3.57
503.492	3.74
503.689	3.79
503.887	3.79
504.084	3.95
504.282	3.95
504.479	3.97
504.677	4.16
504.874	4.18
505.072	4.18
505.269	4.37
505.466	4.46
505.664	4.51
505.861	4.47
506.059	4.66
506.256	4.74
506.453	4.84
506.651	5
506.848	5.08
507.045	5.06
507.242	5.19
507.44	5.23
507.637	5.39
507.834	5.44
508.031	5.59
508.229	5.57
508.426	5.57
508.623	5.85
508.82	5.96
509.017	5.91
509.214	6.02
509.411	6.21
509.608	6.2
509.805	6.4
510.003	6.49
510.2	6.59
510.397	6.8
510.594	6.74
510.791	6.85
510.988	6.96
511.184	6.96
511.381	6.89
511.578	7.17
511.775	7.42
511.972	7.36
512.169	7.54
512.366	7.59
512.563	7.81
512.76	7.87
512.956	8.02
513.153	7.99
513.35	8.01
513.547	8.01
513.744	8.28
513.94	8.28
514.137	8.48
514.334	8.49
514.53	8.55
514.727	8.88
514.924	8.79
515.12	8.84
515.317	8.99
515.514	8.86
515.71	8.88
515.907	9.24
516.103	9.28
516.3	9.19
516.497	9.42
516.693	9.48
516.89	9.48
517.086	9.63
517.283	9.63
517.479	9.5
517.676	9.8
517.872	9.96
518.068	9.88
518.265	9.86
518.461	9.83
518.658	10
518.854	10.05
519.05	10.23
519.247	10.33
519.443	10.2
519.639	10.35
519.836	10.16
520.032	10.12
520.228	10.47
520.424	10.26
520.621	10.38
520.817	10.49
521.013	10.31
521.209	10.58
521.405	10.52
521.601	10.41
521.798	10.35
521.994	10.33
522.19	10.26
522.386	10.28
522.582	10.47
522.778	10.5
522.974	10.32
523.17	10.32
523.366	10.23
523.562	10.27
523.758	10.25
523.954	10.04
524.15	10.2
524.346	10.19
524.542	10.16
524.738	10.02
524.934	10.19
525.129	10.14
525.325	9.89
525.521	9.88
525.717	10.06
525.913	9.78
526.109	9.79
526.304	9.77
526.5	9.69
526.696	9.66
526.892	9.46
527.087	9.77
527.283	9.55
527.479	9.45
527.674	9.15
527.87	9.32
528.066	9.21
528.261	9.21
528.457	8.96
528.653	9.08
528.848	8.95
529.044	8.95
529.239	8.72
529.435	8.69
529.63	8.54
529.826	8.48
530.021	8.42
530.217	8.45
530.412	8.29
530.608	8.21
530.803	8.13
530.999	7.97
531.194	7.98
531.389	8
531.585	7.84
531.78	7.99
531.975	7.73
532.171	7.64
532.366	7.59
532.561	7.53
532.757	7.46
532.952	7.46
533.147	7.19
533.342	7.19
533.538	7.05
533.733	7.17
533.928	6.76
534.123	6.85
534.318	6.88
534.513	6.7
534.709	6.76
534.904	6.67
535.099	6.56
535.294	6.54
535.489	6.47
535.684	6.32
535.879	6.25
536.074	6.24
536.269	6.17
536.464	6.11
536.659	6
536.854	5.91
537.049	5.89
537.244	5.82
537.439	5.72
537.634	5.64
537.828	5.71
538.023	5.6
538.218	5.54
538.413	5.38
538.608	5.41
538.803	5.32
538.997	5.22
539.192	5.26
539.387	5.15
539.582	5.09
539.776	5.03
539.971	5.02
540.166	5.01
540.36	4.83
540.555	4.94
540.75	4.78
540.944	4.76
541.139	4.72
541.334	4.63
541.528	4.6
541.723	4.53
541.917	4.57
542.112	4.41
542.306	4.32
542.501	4.31
542.695	4.3
542.89	4.26
543.084	4.18
543.279	4.18
543.473	4.14
543.668	4.12
543.862	4.02
544.056	3.93
544.251	3.99
544.445	3.95
544.64	3.89
544.834	3.72
545.028	3.62
545.222	3.74
545.417	3.78
545.611	3.67
545.805	3.57
546	3.47
546.194	3.53
546.388	3.52
546.582	3.41
546.776	3.36
546.97	3.32
547.165	3.29
547.359	3.26
547.553	3.17
547.747	3.19
547.941	3.24
548.135	3.1
548.329	3.09
548.523	3.13
548.717	2.98
548.911	2.92
549.105	2.88
549.299	2.92
549.493	2.9
549.687	2.84
549.881	2.8
550.075	2.76
550.269	2.66
550.463	2.69
550.657	2.65
550.85	2.62
551.044	2.53
551.238	2.54
551.432	2.48
551.626	2.46
551.82	2.45
552.013	2.37
552.207	2.38
552.401	2.4
552.594	2.32
552.788	2.27
552.982	2.27
553.176	2.19
553.369	2.24
553.563	2.21
553.756	2.14
553.95	2.13
554.144	2.07
554.337	2.08
554.531	2
554.724	2.04
554.918	1.99
555.111	1.95
555.305	1.91
555.498	1.91
555.692	1.94
555.885	1.86
556.079	1.85
556.272	1.79
556.466	1.8
556.659	1.75
556.852	1.75
557.046	1.68
557.239	1.64
557.432	1.64
557.626	1.66
557.819	1.67
558.012	1.62
558.206	1.61
558.399	1.53
558.592	1.54
558.785	1.48
558.979	1.51
559.172	1.45
559.365	1.45
559.558	1.41
559.751	1.41
559.944	1.39
560.138	1.35
560.331	1.34
560.524	1.36
560.717	1.31
560.91	1.3
561.103	1.28
561.296	1.25
561.489	1.26
561.682	1.24
561.875	1.26
562.068	1.25
562.261	1.18
562.454	1.25
562.647	1.15
562.84	1.18
563.032	1.14
563.225	1.11
563.418	1.1
563.611	1.1
563.804	1.1
563.997	1.03
564.19	0.98
564.382	1.08
564.575	1.03
564.768	0.99
564.961	1.01
565.153	1
565.346	0.98
565.539	0.96
565.731	0.97
565.924	0.96
566.117	0.97
566.309	0.93
566.502	0.86
566.695	0.87
566.887	0.88
567.08	0.87
567.272	0.83
567.465	0.82
567.657	0.85
567.85	0.83
568.042	0.83
568.235	0.82
568.427	0.79
568.62	0.81
568.812	0.78
569.005	0.78
569.197	0.72
569.389	0.73
569.582	0.72
569.774	0.75
569.966	0.69
570.159	0.67
570.351	0.69
570.543	0.66
570.736	0.7
570.928	0.63
571.12	0.67
571.312	0.64
571.505	0.58
571.697	0.68
571.889	0.6
572.081	0.62
572.273	0.57
572.465	0.65
572.658	0.61
572.85	0.6
573.042	0.59
573.234	0.56
573.426	0.59
573.618	0.52
573.81	0.54
574.002	0.55
574.194	0.6
574.386	0.54
574.578	0.45
574.77	0.5
574.962	0.52
575.154	0.49
575.346	0.5
575.538	0.5
575.729	0.44
575.921	0.47
576.113	0.47
576.305	0.48
576.497	0.43
576.689	0.45
576.88	0.44
577.072	0.46
577.264	0.45
577.456	0.42
577.647	0.36
577.839	0.42
578.031	0.45
578.223	0.37
578.414	0.38
578.606	0.41
578.798	0.38
578.989	0.37
579.181	0.4
579.372	0.37
579.564	0.38
579.755	0.4
579.947	0.37
580.139	0.38
580.33	0.31
580.522	0.34
580.713	0.32
580.905	0.34
581.096	0.38
581.287	0.34
581.479	0.33
581.67	0.34
581.862	0.33
582.053	0.29
582.244	0.28
582.436	0.31
582.627	0.3
582.818	0.29
583.01	0.25
583.201	0.31
583.392	0.31
583.583	0.3
583.775	0.28
583.966	0.27
584.157	0.3
584.348	0.28
584.54	0.25
584.731	0.28
584.922	0.25
585.113	0.24
585.304	0.25
585.495	0.32
585.686	0.27
585.877	0.27
586.068	0.27
586.259	0.28
586.45	0.27
586.641	0.22
586.832	0.19
587.023	0.23
587.214	0.23
587.405	0.24
587.596	0.21
587.787	0.28
587.978	0.24
588.169	0.22
588.36	0.23
588.551	0.22
588.742	0.21
588.932	0.24
589.123	0.19
589.314	0.26
589.505	0.24
589.696	0.23
589.886	0.19
590.077	0.18
590.268	0.21
590.458	0.17
590.649	0.14
590.84	0.19
591.03	0.19
591.221	0.15
591.412	0.15
591.602	0.23
591.793	0.21
591.984	0.16
592.174	0.2
592.365	0.24
592.555	0.16
592.746	0.18
592.936	0.2
593.127	0.21
593.317	0.21
593.508	0.17
593.698	0.16
593.889	0.18
594.079	0.15
594.269	0.15
594.46	0.16
594.65	0.14
594.84	0.13
595.031	0.13
595.221	0.15
595.411	0.14
595.602	0.15
595.792	0.15
595.982	0.13
596.172	0.2
596.363	0.15
596.553	0.14
596.743	0.17
596.933	0.14
597.123	0.19
597.314	0.14
597.504	0.14
597.694	0.18
597.884	0.16
598.074	0.14
598.264	0.11
598.454	0.15
598.644	0.14
598.834	0.14
599.024	0.08
599.214	0.11
599.404	0.15
599.594	0.12
599.784	0.11
599.974	0.18
600.164	0.14
600.354	0.08
600.544	0.07
600.734	0.12
600.924	0.14
601.114	0.09
601.303	0.1
601.493	0.13
601.683	0.09
601.873	0.14
602.063	0.06
602.252	0.16
602.442	0.06
602.632	0.1
602.821	0.1
603.011	0.12
603.201	0.12
603.39	0.06
603.58	0.09
603.77	0.13
603.959	0.15
604.149	0.13
604.339	0.1
604.528	0.15
604.718	0.13
604.907	0.11
605.097	0.09
605.286	0.07
605.476	0.12
605.665	0.11
605.855	0.09
606.044	0.16
606.234	0.11
606.423	0.08
606.612	0.08
606.802	0.09
606.991	0.11
607.181	0.13
607.37	0.04
607.559	0.1
607.749	0.08
607.938	0.09
608.127	0.08
608.316	0.06
608.506	0.12
608.695	0.11
608.884	0.07
609.073	0.11
609.263	0.08
609.452	0.12
609.641	0.1
609.83	0.08
610.019	0.09
610.208	0.07
610.397	0.07
610.586	0.09
610.775	0.07
610.965	0.07
611.154	0.07
611.343	0.08
611.532	0.08
611.721	0.05
611.91	0.07
612.099	0.12
612.287	0.07
612.476	0.06
612.665	0.07
612.854	0.06
613.043	0.12
613.232	0.09
613.421	0.03
613.61	0.09
613.798	0.06
613.987	0.11
614.176	0.11
614.365	0.12
614.554	0.11
614.742	0.1
614.931	0.07
615.12	0.13
615.309	0.07
615.497	0.12
615.686	0.03
615.875	0.08
616.063	0.09
616.252	0.05
616.44	0.04
616.629	0.08
616.818	0.1
617.006	0.07
617.195	0.09
617.383	0.14
617.572	0.05
617.76	0.04
617.949	0.09
618.137	0.07
618.326	0.08
618.514	0.06
618.703	0.08
618.891	0.15
619.079	-0.01
619.268	0.11
619.456	0.06
619.644	0.12
619.833	0.09
620.021	0.05
620.209	-0.01
620.398	0.1
620.586	0.1
620.774	0.09
620.962	0.06
621.151	0.13
621.339	0.07
621.527	0.03
621.715	0.03
621.903	0.02
622.092	0.03
622.28	0.08
622.468	0.08
622.656	0.09
622.844	0.11
623.032	0.06
623.22	0.04
623.408	0.12
623.596	0.08
623.784	0.09
623.972	0.05
624.16	0.03
624.348	0.11
624.536	0.03
624.724	0.05
624.912	0.13
625.1	0.09
625.288	0.07
625.476	0.05
625.664	0.1
625.851	0.02
626.039	0.06
626.227	0.07
626.415	0.07
626.603	0.03
626.79	0.06
626.978	0.03
627.166	0.08
627.354	0.07
627.541	0.05
627.729	0.01
627.917	0.11
628.104	0.12
628.292	0.1
628.48	0.04
628.667	0.05
628.855	0.08
629.042	0.08
629.23	0.07
629.418	0.05
629.605	0.06
629.793	0.03
629.98	0.04
630.168	0.05
630.355	0.06
630.543	0.1
630.73	0.05
630.917	0.07
631.105	0.11
631.292	0.06
631.48	0.05
631.667	0.13
631.854	0.06
632.042	0.07
632.229	-0.01
632.416	0.06
632.604	0.08
632.791	0.03
632.978	0.06
633.165	0.05
633.353	0.08
633.54	0.12
633.727	-0.01
633.914	0.03
634.101	-0
634.289	0.09
634.476	0.02
634.663	0.02
634.85	0.07
635.037	-0.01
635.224	-0
635.411	0.11
635.598	0.1
635.785	0.05
635.972	0.05
636.159	0.1
636.346	0.02
636.533	0.05
636.72	0.06
636.907	0.03
637.094	0.09
637.281	0.04
637.468	0.06
637.655	0.05
637.842	0.06
638.029	0.04
638.215	0.08
638.402	0.05
638.589	0.03
638.776	0.02
638.963	0.02
639.149	0.08
639.336	0.11
639.523	0.02
639.709	0.04
639.896	0.03
640.083	0.12
640.27	0.07
640.456	0.05
640.643	0.06
640.829	0.02
641.016	0.05
641.203	0.01
641.389	0.07
641.576	0.12
641.762	0.04
641.949	0
642.135	0.05
642.322	0.02
642.508	0.05
642.695	0.06
642.881	0
643.068	0.05
643.254	0.07
643.441	0.07
643.627	0.07
643.813	0.03
644	0.07
644.186	0.02
644.372	0.01
644.559	0.09
644.745	0.04
644.931	0.03
645.118	0.05
645.304	0.07
645.49	0.03
645.676	0.05
645.862	0.06
646.049	0.09
646.235	0.05
646.421	0.13
646.607	0.1
646.793	0.03
646.979	0.02
647.165	0.07
647.352	0.08
647.538	0.09
647.724	0.06
647.91	0.06
648.096	0.1
648.282	0.1
648.468	0.08
648.654	0.05
648.84	0.04
649.026	0.02
649.212	0.06
649.397	0.04
649.583	0
649.769	0.07
649.955	0.04
650.141	0.06
650.327	0.09
650.513	0
650.698	0.09
650.884	-0.03
651.07	0.07
651.256	0.05
651.442	0.03
651.627	0.05
651.813	0.09
651.999	0.04
652.184	0.09
652.37	0.04
652.556	-0.01
652.741	0.09
652.927	-0.01
653.113	0.06
653.298	0.05
653.484	0.02
653.669	-0
653.855	0.04
654.04	0.1
654.226	0.05
654.412	0.01
654.597	-0.02
654.782	0.08
654.968	0.07
655.153	0.03
655.339	0.04
655.524	-0
655.71	0.09
655.895	0.03
656.08	0.01
656.266	0.08
656.451	0.1
656.636	0.03
656.822	0.06
657.007	0.02
657.192	0.04
657.378	0.01
657.563	0.05
657.748	0.07
657.933	0.08
658.118	0.03
658.304	0.04
658.489	0.06
658.674	0.07
658.859	0.03
659.044	0.04
659.229	0.03
659.414	0.02
659.599	0.06
659.785	-0.02
659.97	0.06
660.155	0.08
660.34	0.07
660.525	0.05
660.71	0.04
660.895	0.1
661.08	0.05
661.264	0.05
661.449	0.16
661.634	0.09
661.819	0.12
662.004	0.09
662.189	-0.01
662.374	0.03
662.559	0.01
662.743	0.02
662.928	0.06
663.113	0.02
663.298	-0.02
663.483	0.02
663.667	0.04
663.852	0.01
664.037	0.1
664.221	0.06
664.406	0.08
664.591	0.07
664.775	0.07
664.96	0.1
665.145	0.08
665.329	0.04
665.514	0.07
665.698	0.04
665.883	-0.04
666.068	0.09
666.252	0.02
666.437	-0.04
666.621	0.06
666.806	0.09
666.99	0.05
667.174	0.01
667.359	0.13
667.543	0.07
667.728	0.07
667.912	-0.01
668.096	0.06
668.281	0.02
668.465	0.06
668.649	0.05
668.834	0.04
669.018	0.04
669.202	0.08
669.387	0.05
669.571	0.13
669.755	0.02
669.939	0.03
670.124	0.06
670.308	0.11
670.492	0.08
670.676	0.08
670.86	0.05
671.044	0.02
671.228	0.11
671.413	0.05
671.597	0.05
671.781	0.06
671.965	0.02
672.149	0.05
672.333	0.05
672.517	0.03
672.701	0.07
672.885	0.07
673.069	0.01
673.253	0.11
673.437	0.05
673.621	0
673.804	0.08
673.988	0.08
674.172	0.1
674.356	0
674.54	0.05
674.724	0.14
674.908	0.05
675.091	0.11
675.275	0.09
675.459	0.11
675.643	0.1
675.826	0.08
676.01	0.12
676.194	0.03
676.377	0.12
676.561	0.06
676.745	0.11
676.928	0.09
677.112	0.12
677.296	0.04
677.479	0.04
677.663	0.09
677.846	0.09
678.03	0.03
678.213	0.07
678.397	0.09
678.58	0.04
678.764	0.07
678.947	0.03
679.131	0.07
679.314	0.14
679.498	0.05
679.681	0.1
679.865	0.12
680.048	0.06
680.231	0.1
680.415	0.07
680.598	0.09
680.781	0.06
680.965	0.09
681.148	0.08
681.331	0.05
681.514	0.12
681.698	0.06
681.881	0.1
682.064	0.09
682.247	0.07
682.43	-0.02
682.614	0.11
682.797	0.12
682.98	0.13
683.163	0.06
683.346	0.11
683.529	0.05
683.712	0.06
683.895	0.12
684.078	0
684.261	0.03
684.444	0.08
684.627	0.08
684.81	0.04
684.993	0.03
685.176	0.15
685.359	0.05
685.542	0.03
685.725	0.13
685.908	0.08
686.091	0.04
686.274	0.13
686.457	0.11
686.639	0.05
686.822	0.11
687.005	0.06
687.188	0.06
687.371	0.15
687.553	0.11
687.736	0.05
687.919	0.14
688.102	0.14
688.284	0.03
688.467	0.09
688.65	0.05
688.832	0.02
689.015	0.08
689.197	-0
689.38	0.21
689.563	0.12
689.745	0.01
689.928	0.05
690.11	0.05
690.293	0.13
690.475	-0.04
690.658	0.04
690.84	0.02
691.023	0.06
691.205	0.06
691.388	0.07
691.57	0.13
691.752	0.11
691.935	-0.02
692.117	0.03
692.3	0.09
692.482	0.03
692.664	0.11
692.847	0.06
693.029	0.12
693.211	0.11
693.393	0.04
693.576	0.11
693.758	0.08
693.94	0.07
694.122	0.11
694.304	0.05
694.487	0.05
694.669	0.15
694.851	0.05
695.033	0.08
695.215	0.04
695.397	0.05
695.579	0.08
695.761	0.04
695.943	0.01
696.125	0.08
696.308	0.08
696.49	-0.06
696.671	0.19
696.853	0.07
697.035	0.21
697.217	0.11
697.399	0.11
697.581	0.04
697.763	0.08
697.945	-0.02
698.127	0.11
698.309	0.12
698.491	0.08
698.672	0.04
698.854	0.17
699.036	0.11
699.218	0.08
699.399	0.12
699.581	0.08
699.763	0.11
699.945	0.08
700.126	-0
700.308	0.09
700.49	0.11
700.671	-0.07
700.853	0.01
701.035	0.06
701.216	0.07
701.398	0
701.579	0.1
701.761	0.09
701.943	0.02
702.124	0.08
702.306	0.07
702.487	0.18
702.669	0.08
702.85	0.04
703.031	0.03
703.213	0.14
703.394	0.06
703.576	0.07
703.757	0.18
703.938	0.12
704.12	0.21
704.301	-0.01
704.483	0.08
704.664	0.07
704.845	0.2
705.026	0.14
705.208	0.04
705.389	0.03
705.57	0.08
705.751	0.06
705.933	0.12
706.114	0.13
706.295	0.04
706.476	0.03
706.657	0.15
706.838	0.12
707.02	0.1
707.201	0.06
707.382	0.05
707.563	0.11
707.744	0.03
707.925	0.01
708.106	0.02
708.287	0.12
708.468	0.24
708.649	0.08
708.83	0.16
709.011	0.07
709.192	0.09
709.373	-0.02
709.554	0.08
709.734	0.13
709.915	0.09
710.096	0.09
710.277	-0
710.458	0.1
710.639	0.08
710.819	0.01
711	0.09
711.181	0.09
711.362	0.07
711.542	0.08
711.723	0.08
711.904	0.09
712.085	0.1
712.265	0.08
712.446	-0.02
712.627	0.04
712.807	0.07
712.988	0.08
713.168	-0.01
713.349	0.04
713.53	-0.05
713.71	0.05
713.891	0.02
714.071	0.09
714.252	0.06
714.432	0.06
714.613	-0.02
714.793	0.08
714.974	0.17
715.154	0.11
715.334	0.11
715.515	0.16
715.695	-0.03
715.876	0.06
716.056	0.09
716.236	0.03
716.417	0.07
716.597	0.04
716.777	0.21
716.957	0.05
717.138	0.06
717.318	0.11
717.498	0.03
717.678	0.08
717.859	0.11
718.039	-0.02
718.219	0.06
718.399	0.15
718.579	0.02
718.759	-0.02
718.939	0.14
719.12	0.06
719.3	0.12
719.48	-0.08
719.66	0.01
719.84	0.16
720.02	0.07
720.2	-0.01
720.38	0
720.56	0.2
720.74	0.11
720.92	0.08
721.1	0.16
721.279	0.17
721.459	0.03
721.639	0.03
721.819	0.05
721.999	0.06
722.179	0.11
722.359	0
722.538	0.1
722.718	0.03
722.898	0.05
723.078	0.07
723.257	0.06
723.437	0.1
723.617	0.13
723.797	-0.01
723.976	0.05
724.156	0.09
724.336	0.16
724.515	0.22
724.695	-0.06
724.874	0.11
725.054	0.1
725.234	0.03
725.413	0.1
725.593	0.03
725.772	0.09
725.952	0.05
726.131	0.06
726.311	0.01
726.49	0.05
726.67	0.06
726.849	-0.01
727.028	0.07
727.208	0.05
727.387	0.08
727.567	-0.02
727.746	0.02
727.925	-0.01
728.105	-0.04
728.284	-0.02
728.463	0.01
728.643	0.09
728.822	-0.06
729.001	0.11
729.18	0.07
729.359	0.11
729.539	0.07
729.718	0.06
729.897	0.13
730.076	0.07
730.255	-0.05
730.434	0.09
730.614	0.14
730.793	0.2
730.972	0.1
731.151	0.15
731.33	0.21
731.509	0.18
731.688	0.09
731.867	0.17
732.046	-0.05
732.225	0.36
732.404	0.04
732.583	-0.1
732.762	0.14
732.941	0.07
733.12	0.1
733.298	0.03
733.477	0.08
733.656	0.08
733.835	-0.09
734.014	0.17
734.193	0.07
734.371	0.16
734.55	0.19
734.729	-0.05
734.908	0.11
735.086	0.08
735.265	0.17
735.444	-0.13
735.623	0.05
735.801	0.07
735.98	0.13
736.159	0.13
736.337	0.16
736.516	0.13
736.694	0.14
736.873	-0.06
737.052	0.24
737.23	0.22
737.409	-0.16
737.587	0.25
737.766	-0.13
737.944	0.01
738.123	0.13
738.301	0.14
738.479	0.04
738.658	0.21
738.836	-0.14
739.015	0.09
739.193	0.07
739.371	0.07
739.55	-0.03
739.728	-0.02
739.906	0.09
740.085	0.26
740.263	0.08
740.441	-0.03
740.62	0.24
740.798	0.34
740.976	-0.11
741.154	0.13
741.332	0.25
741.511	0.08
741.689	0.17
741.867	0.19
742.045	0.14
742.223	0.03
742.401	0.09
742.579	0.14
742.757	0.14
742.935	0.03
743.114	0.06
743.292	0.05
743.47	-0.06
743.648	-0.02
743.826	0.17
744.004	0.19
744.181	0.16
744.359	-0.02
744.537	0.03
744.715	0.15
744.893	0.12
745.071	0.13
745.249	-0.02
745.427	0.04
745.605	0.16
745.782	0.14
745.96	0.15
746.138	0.18
746.316	0.26
746.493	0.04
746.671	0.02
746.849	-0.01
747.027	0.23
747.204	0.03
747.382	0.12
747.56	0.01
747.737	0.14
747.915	0.08
748.093	0.08
748.27	0.04
748.448	0.06
748.625	-0.04
748.803	-0.03
748.98	0.14
749.158	0.1
749.335	0.11
749.513	0
749.69	0.03
749.868	0.11
750.045	0.15
750.223	-0.04
750.4	-0.11
750.578	0.21
750.755	0.05
750.932	-0.11
751.11	0.18
751.287	-0.12
751.464	0.14
751.642	0.01
751.819	0.21
751.996	0.13
752.173	0.05
752.351	-0.05
752.528	0.1
752.705	0.08
752.882	0.01
753.06	0.04
753.237	0.13
753.414	0.33
753.591	0.27
753.768	0.06
753.945	0.06
754.122	0.01
754.299	0.07
754.476	-0.01
754.654	0.01
754.831	0.15
755.008	0.07
755.185	-0.02
755.362	-0.03
755.539	0.08
755.716	-0.09
755.892	-0.06
756.069	0.03
756.246	0.13
756.423	0
756.6	0.14
756.777	0.04
756.954	0.15
757.131	0.01
757.307	-0.06
757.484	0.03
757.661	0.06
757.838	0.01
758.015	-0.03
758.191	0.03
758.368	0.14
758.545	0.22
758.721	0.14
758.898	-0.02
759.075	0.17
759.251	0.05
759.428	0.13
759.605	-0.09
759.781	0.07
759.958	0.1
760.134	0.12
760.311	0.08
760.488	0.07
760.664	0.27
760.841	0.21
761.017	-0.01
761.194	0.2
761.37	0.18
761.547	0.1
761.723	0.09
761.899	0.21
762.076	-0.02
762.252	-0.01
762.429	-0.02
762.605	0.11
762.781	0.01
762.958	0.24
763.134	-0.04
763.31	0.06
763.486	0.12
763.663	-0.03
763.839	0.07
764.015	-0.15
764.191	-0.11
764.368	0
764.544	0.03
764.72	0.12
764.896	0.13
765.072	0.12
765.248	0.09
765.425	0.04
765.601	0.07
765.777	0.11
765.953	-0.13
766.129	0.04
766.305	-0.01
766.481	0.22
766.657	0.13
766.833	0.26
767.009	-0.05
767.185	0.09
767.361	0.01
767.537	-0.14
767.713	0.23
767.889	-0.06
768.065	0.1
768.24	0.11
768.416	0.24
768.592	0.11
768.768	0.06
768.944	0.08
769.12	-0.01
769.295	0.11
769.471	0.04
769.647	0.08
769.823	0.27
769.998	0.02
770.174	-0.04
770.35	0.26
770.525	0.36
770.701	0.09
770.877	0.08
771.052	0
771.228	0.07
771.403	0.23
771.579	0.07
771.755	0.41
771.93	0.03
772.106	-0.03
772.281	-0.15
772.457	0.01
772.632	0.12
772.808	-0.17
772.983	0.08
773.159	-0.08
773.334	0.1
773.509	0.11
773.685	0.09
773.86	0.36
774.036	0.21
774.211	0.21
774.386	-0.03
774.562	-0.01
774.737	0.16
774.912	-0.02
775.087	0.15
775.263	0.05
775.438	0.1
775.613	-0.09
775.788	0.14
775.964	0.14
776.139	0.33
776.314	-0.17
776.489	-0.02
776.664	0.12
776.839	-0.08
777.014	0.15
777.19	0.05
777.365	0.28
777.54	0.28
777.715	0.03
777.89	0.18
778.065	-0.1
778.24	0.14
778.415	0.19
778.59	-0.19
778.765	-0.05
778.94	0.14
779.115	0.02
779.289	-0.02
779.464	0.14
779.639	0.01
779.814	-0.15
779.989	-0.04
780.164	0.24
780.339	0.14
780.513	-0.01
780.688	0.02
780.863	0.05
781.038	0.04
781.212	-0.11
781.387	0.09
781.562	0.36
781.737	0.12
781.911	0.2
782.086	-0.05
782.261	-0.02
782.435	0.34
782.61	-0.11
782.784	0.01
782.959	0.28
783.134	-0.02
783.308	-0.03
783.483	0
783.657	0.41
783.832	0.26
784.006	-0.23
784.181	0.02
784.355	0.41
784.53	-0.09
784.704	-0.16
784.878	0.4
785.053	0.23
785.227	0.1
785.402	0.6
785.576	-0.04
785.75	0.1
785.925	-0.01
786.099	0.04
786.273	0.19
786.448	0.22
786.622	0.25
786.796	0.15
786.97	-0.09
787.145	0.36
787.319	-0.32
787.493	0.08
787.667	-0.22
787.841	-0.06
788.015	0.15
788.19	0.12
788.364	-0.06
788.538	0.07
788.712	0.3
788.886	0.12
789.06	0.09
789.234	0.31
789.408	-0.08
789.582	-0.04
789.756	0.03
789.93	-0.19
790.104	0.06
790.278	-0.03
790.452	-0.28
790.626	0.25
790.8	-0.01
790.973	0.25
791.147	0.28
791.321	0.33
791.495	0.32
791.669	0.18
791.843	0.14
792.016	0.21
792.19	0.32
792.364	0.02
792.538	0.69
792.711	0.38
792.885	-0.05
793.059	0.13
793.233	-0.42
793.406	0.07
793.58	0.22
793.754	0.15
793.927	0.14
794.101	0.47
794.274	-0.01
794.448	0.23
794.622	0.08
794.795	0.32
794.969	-0.07
795.142	0.41
795.316	0.05
795.489	0.1
795.663	0.36
795.836	0.08
796.009	-0.16
796.183	0.54
796.356	0.27
796.53	0.09
796.703	0.22
796.876	0.66
797.05	0.22
797.223	0.08
797.396	0.27
797.57	-0.09
797.743	0.35
797.916	0.09
798.09	0.4
798.263	0.32
798.436	0.17
798.609	-0.16
798.782	-0.12
798.956	0.34
799.129	0.12
799.302	0.04
799.475	-0.15
799.648	0.05
799.821	-0.23
799.994	0.19
800.167	-0.35
800.34	0.11
800.514	0.33
800.687	-0.01
800.86	0.07
801.033	0.11
801.206	0.23
801.379	-0.1
801.551	0.36
801.724	0.45
801.897	0.44
802.07	0.31
802.243	-0.45
802.416	-0.03
802.589	0.09
802.762	0.24
802.935	0.03
803.107	0.38
803.28	0.16
803.453	0.28
803.626	-0.41
803.798	0.26
803.971	-0.34
804.144	-0.01
804.317	0.14
804.489	0.08
804.662	-0.04
804.835	0.16
805.007	-0.33
805.18	0.52
805.353	0.36
805.525	-0.21
805.698	-0.11
805.87	0.38
806.043	0.25
806.215	-0.06
806.388	-0.12
806.56	0.04
806.733	0.54
806.905	-0.06
807.078	-0.02
807.25	-0.02
807.423	0.48
807.595	0.3
807.768	0.18
807.94	0.49
808.112	0.13
808.285	0.03
808.457	0.13
808.629	-0.2
808.802	0.32
808.974	0.29
809.146	0.07
809.318	-0.35
809.491	0.34
809.663	0.36
809.835	-0.22
810.007	0.53
810.18	0.01
810.352	0.05
810.524	0.06
810.696	0.33
810.868	0.62
811.04	-0.23
811.212	0.15
811.384	0.42
811.556	-0.12
811.728	-0.05
811.901	0.83
812.073	0.11
812.245	0.54
812.417	0.14
812.589	-0.31
812.76	0.2
812.932	0.62
813.104	0.35
813.276	-0.24
813.448	0.42
813.62	0.19
813.792	0.27
813.964	0.05
814.136	0.22
814.307	-0.11
814.479	0.05
814.651	-0.02
814.823	0.85
814.995	0.2
815.166	0.36
815.338	0.07
815.51	-0.18
815.681	0.79
815.853	0.69
816.025	-0.1
816.196	0.73
816.368	0.57
816.54	-0.08
816.711	-0.51
816.883	0.32
817.054	1.01
817.226	-0.18
817.398	0.03
817.569	0.01
817.741	0.47
817.912	0.17
818.084	-0.2
818.255	0.29
818.426	-0.06
818.598	-0.02
818.769	-0.12
818.941	0.28
819.112	0.93
819.283	0.3
819.455	-0.28
819.626	0.32
819.798	0.59
819.969	0.37
820.14	0.01
820.311	-0.01
820.483	0.25
820.654	-0.08
820.825	0.32
820.996	0.1
821.168	-0.65
821.339	0.17
821.51	-0.4
821.681	-0.17
821.852	0.07
822.023	-0.3
822.195	-0.2
822.366	0.61
822.537	0.69
822.708	0.12
822.879	0.03
823.05	0.71
823.221	0.03
823.392	0.08
823.563	0.29
823.734	0.18
823.905	-0.05
824.076	0.17
824.247	-0.22
824.418	-0.15
824.589	0.67
824.759	0.12
824.93	-0.02
825.101	-0.04
825.272	0.71
825.443	0.36
825.614	0.93
825.784	-1.08
825.955	1.22
826.126	0.67
826.297	-0.02
826.467	1.21
826.638	0.44
826.809	-0.13
826.98	0.42
827.15	0.38
827.321	0.21
827.492	0.63
827.662	0.36
827.833	1.38
828.003	0.45
828.174	-0.03
828.345	-0.58
828.515	0.97
828.686	0.42
828.856	-0.13
829.027	0.12
829.197	0.03
829.368	0.76
829.538	0.56
829.709	0.03
829.879	0.36
830.049	0.12
830.22	0.05
830.39	0.69
830.56	0.96
830.731	0.11
830.901	-0.22
831.072	0.2
831.242	-0.2
831.412	-0.54
831.582	0.73
831.753	0.12
831.923	0.79
832.093	0.4
832.263	0.06
832.434	-0.33
832.604	0.29
832.774	0.59
832.944	-0.22
833.114	-0.06
833.284	0.02
833.454	0.07
833.624	-0.19
833.795	-0.39
833.965	1.01
834.135	0.51
834.305	-1.13
834.475	-0.32
834.645	0.06
834.815	0.04
834.985	-0.3
835.155	-0.16
835.325	0.19
835.494	0.46
835.664	0.2
835.834	-0.81
836.004	0.2
836.174	0.49
836.344	0.28
836.514	-1.16
836.684	-0.01
836.853	0.08
837.023	0.35
837.193	-0.05
837.363	0.95
837.532	1.11
837.702	0.21
837.872	-0.11
838.041	0.7
838.211	1.18
838.381	-0.21
838.55	0.32
838.72	2.06
838.89	0.93
839.059	0.01
839.229	-0.32
839.398	1.63
839.568	0.17
839.738	-0.14
839.907	1.06
840.077	0.29
840.246	-0.87
840.416	-0.6
840.585	-0.79
840.755	1.82
840.924	1.56
841.093	-0.74
841.263	0.2
841.432	0.46
841.602	-0.32
841.771	-0.61
841.94	0.33
842.11	1.99
842.279	1.43
842.448	-0.31
842.617	-0.52
842.787	1.58
842.956	-1.31
843.125	-0.31
843.294	0.22
843.464	0.79
843.633	0.49
843.802	-1.11
843.971	0.36
844.14	0.62
844.309	0.79
844.479	-0.39
844.648	-0.41
844.817	-0.15
844.986	0.09
845.155	-0.38
845.324	-0.67
845.493	-0.01
845.662	0.4
845.831	0.65
846	0.68
846.169	0.64
846.338	0.51
846.507	0.5
846.676	0.93
846.844	-0.41
847.013	-0.18
847.182	0.22
847.351	-0.99
847.52	-0.07
847.689	-0.49
847.858	-0.34
848.026	-0.18
848.195	0.35
848.364	-0.37
848.533	-0.39
848.701	-0.16
848.87	0.15
849.039	0.89
849.207	1.25
849.376	0.94
849.545	1.23
849.713	-0.67
849.882	-0.1
850.051	-0.64
850.219	-0.31
850.388	0.97
850.556	0.23
850.725	-0.1
850.893	-0.01
851.062	-0.27
851.23	0.54
851.399	-0.62
851.567	0.06
851.736	-0.42
851.904	0.04
852.073	0.19
852.241	1.01
852.41	0.44
852.578	-1.1
852.746	-0.52
852.915	-0.64
853.083	-0.02
853.251	-1.11
853.42	0.24
853.588	0.05
853.756	1.77
853.924	-0.26
854.093	1.05
854.261	-0.16
854.429	-1.36
854.597	0.99
854.765	-0.84
854.934	1.32
855.102	2.13
855.27	-0.4
855.438	1.31
855.606	1.08
855.774	1.21
855.942	-0.88
856.11	-1.29
856.278	0.47
856.446	1.95
856.614	0.83
856.782	0.12
856.95	1.27
857.118	0.8
857.286	0.97
857.454	-0.53
857.622	2.32
857.79	1.38
857.958	-0.98
858.126	0.41
858.294	-2.41
858.462	0.6
858.629	1.05
858.797	-0.4
858.965	0.65
859.133	0.84
859.301	0.36
859.468	0.99
859.636	-1.23
859.804	1.12
859.971	0.22
860.139	-0.59
860.307	1.37
860.474	0.17
860.642	-0.71
860.81	-0.63
860.977	0.39
861.145	0.51
861.313	0.26
861.48	0.37
861.648	1.62
861.815	-0.1
861.983	-0.48
862.15	-0.3
862.318	2.16
862.485	1.57
862.653	0.68
862.82	0.1
862.988	2.05
863.155	0.66
863.322	-1.17
863.49	-0.44
863.657	-0.71
863.824	1.75
863.992	0.27
864.159	-0.43
864.326	0.64
864.494	0.8
864.661	2.77
864.828	-0.64
864.996	1.19
865.163	2.84
865.33	0.47
865.497	-1.17
865.664	0.23
865.832	-1.01
865.999	0.52
866.166	-0.23
866.333	-1.62
866.5	0.45
866.667	-0.36
866.834	-2.15
867.001	1.69
867.168	-1.84
867.335	-0.29
867.502	-0.4
867.669	0.82
867.836	2.97
868.003	0.54
868.17	1.79
868.337	-1.07
868.504	2.64
868.671	-2.66
868.838	0.31
869.005	1.7
869.172	0.78
869.339	-0.03
869.505	-0.5
869.672	0
869.839	2.91
870.006	-1
870.173	-1.48
870.339	-0.86
870.506	2.31
870.673	-0.22
870.84	1.82
871.006	0.88
871.173	-0.46
871.34	0.13
871.506	0.21
871.673	-0.81
871.839	-0.09
872.006	1.17
872.173	-0.62
872.339	0.65
872.506	0.68
872.672	-0.33
872.839	-2.18
873.005	1.15
873.172	4.59
873.338	1.26
873.505	0.34
873.671	3.19
873.838	1.55
874.004	-0.9
874.171	-1.55
874.337	0.64
874.503	-0.01
874.67	0.18
874.836	0.31
875.002	3.32
875.169	0.93
875.335	0.42
875.501	-0.54
875.668	-0.75
875.834	0.23
876	0.5
876.166	2.31
876.332	1.78
876.499	3.2
876.665	-0.27
876.831	0.7
876.997	3.65
877.163	0.04
877.329	0.61
877.495	0.9
877.662	-0.25
877.828	0.61
877.994	1.35
878.16	-0.97
878.326	0.48
878.492	1.19
878.658	0.34
878.824	0.26
878.99	1.36
879.156	0.97
879.322	2.34
879.487	-0.52
879.653	0.19
879.819	0.99
879.985	0.06
880.151	2.69
880.317	1.37
880.483	-0.59
880.648	1.55
880.814	-2.23
880.98	-0.07
881.146	-1.29
881.312	-0.8
881.477	0.77
881.643	-0.28
881.809	3.13
881.974	0.68
882.14	-0.97
882.306	1.36
882.471	2.43
882.637	0.08
882.803	0.4
882.968	3.63
883.134	3.37
883.299	0.66
883.465	0.06
883.63	0.94
883.796	1.96
883.961	2.32
884.127	-0.44
884.292	-5.49
884.458	-0.44
884.623	-0.44
