Data from Apollo_Calib_20240827__AbsoluteIrradiance__609__09-18-00-172.txt Node

Date: Wed Aug 28 09:18:00 BST 2024
User: biology
Spectrometer: FLMT08252
Trigger mode: 0
Integration Time (sec): 5.000000E-1
Scans to average: 5
Electric dark correction enabled: true
Nonlinearity correction enabled: false
Boxcar width: 0
XAxis mode: Wavelengths
Number of Pixels in Spectrum: 3648
>>>>>Begin Spectral Data<<<<<
179.588	-0
179.809	-0
180.03	-0
180.251	-0
180.473	-0
180.694	0
180.915	0
181.136	-0
181.357	0
181.578	0
181.799	-0
182.02	-0
182.241	-0
182.462	-0
182.683	0
182.904	-0
183.125	-0
183.346	0
183.567	0
183.788	0
184.009	0
184.23	0
184.451	0
184.672	0
184.892	0
185.113	0
185.334	0
185.555	0
185.776	0
185.996	0
186.217	0
186.438	0
186.659	0
186.879	0
187.1	0
187.321	0
187.541	0
187.762	0
187.983	0
188.203	0
188.424	0
188.644	0
188.865	0
189.086	0
189.306	0
189.527	0
189.747	0
189.968	0
190.188	0
190.409	0
190.629	0
190.849	0
191.07	0
191.29	0
191.511	0
191.731	0
191.951	0
192.172	0
192.392	0
192.612	0
192.833	0
193.053	0
193.273	0
193.493	0
193.714	0
193.934	0
194.154	0
194.374	0
194.594	0
194.815	0
195.035	0
195.255	0
195.475	0
195.695	0
195.915	0
196.135	0
196.355	0
196.575	0
196.795	0
197.015	-0
197.235	0
197.455	0
197.675	0
197.895	0
198.115	0
198.335	0
198.555	0
198.775	0
198.995	0
199.214	0
199.434	0
199.654	0
199.874	0
200.094	1.87
200.313	0.63
200.533	0.51
200.753	0.14
200.973	1.76
201.192	1.58
201.412	-0.07
201.632	0.81
201.851	1.22
202.071	0.58
202.291	0.39
202.51	0.12
202.73	1.6
202.95	0.38
203.169	0.37
203.389	0.71
203.608	1.32
203.828	0.73
204.047	0.66
204.267	1.44
204.486	0.98
204.706	0.87
204.925	0.38
205.145	0.62
205.364	1.09
205.583	1.04
205.803	0.45
206.022	0.19
206.242	0.21
206.461	0.4
206.68	0.33
206.9	0.75
207.119	1.18
207.338	1.16
207.557	0.47
207.777	0.42
207.996	0.26
208.215	1.01
208.434	0.38
208.654	0.14
208.873	0.79
209.092	0.95
209.311	0.61
209.53	0.49
209.749	0.46
209.968	0.12
210.187	0.28
210.407	0.29
210.626	0.36
210.845	0.58
211.064	0.49
211.283	0.23
211.502	0.78
211.721	0.68
211.94	0.18
212.159	0.9
212.377	0.77
212.596	0.76
212.815	0.58
213.034	0.48
213.253	0.46
213.472	0.6
213.691	0.35
213.91	0.14
214.128	0.42
214.347	0.67
214.566	0.01
214.785	0.12
215.003	0.68
215.222	0.43
215.441	0.37
215.66	0.07
215.878	0.43
216.097	0.6
216.316	0.07
216.534	0.5
216.753	0.51
216.972	0.53
217.19	0.11
217.409	-0.01
217.627	0.33
217.846	0.24
218.064	0.32
218.283	0.27
218.501	0.77
218.72	0.56
218.938	0.18
219.157	0.15
219.375	0.32
219.594	0.47
219.812	0.11
220.031	0.2
220.249	0.67
220.467	0.64
220.686	0.22
220.904	0.12
221.122	0.15
221.341	0.63
221.559	0.3
221.777	0.11
221.995	0.43
222.214	0.34
222.432	0.15
222.65	0.44
222.868	0.34
223.086	0.41
223.305	0.32
223.523	0.26
223.741	0.72
223.959	0.29
224.177	0.07
224.395	0.21
224.613	0.31
224.831	0.36
225.049	0.17
225.267	0.11
225.485	0.37
225.703	0.16
225.921	0.22
226.139	0.2
226.357	0.42
226.575	0.2
226.793	0.16
227.011	0.83
227.229	0.4
227.447	0.31
227.665	0.09
227.883	0.02
228.1	0.2
228.318	0.25
228.536	-0.06
228.754	0.05
228.972	0.26
229.189	0.36
229.407	0.17
229.625	0.16
229.843	0.45
230.06	0.36
230.278	0.16
230.496	0.23
230.713	0.34
230.931	0.36
231.149	0.12
231.366	-0.09
231.584	0.13
231.801	0.54
232.019	0.19
232.236	0.1
232.454	0.1
232.671	0.25
232.889	0.25
233.106	-0.01
233.324	0.22
233.541	0.11
233.759	0.2
233.976	0.21
234.194	0.16
234.411	0.13
234.628	0.17
234.846	0.08
235.063	0.12
235.28	0.16
235.498	0.23
235.715	0.05
235.932	0.31
236.149	0.24
236.367	0.1
236.584	0.23
236.801	0.1
237.018	0.37
237.236	0.27
237.453	0.04
237.67	0.31
237.887	0.16
238.104	0.22
238.321	0.02
238.538	0.17
238.755	0.31
238.973	0
239.19	0.1
239.407	0.22
239.624	0.27
239.841	0.1
240.058	0.05
240.275	0.17
240.492	0.2
240.709	0.21
240.925	0.1
241.142	0.22
241.359	0.05
241.576	0.08
241.793	0.24
242.01	0.2
242.227	0.24
242.444	0.14
242.66	0.26
242.877	0.18
243.094	0.09
243.311	0.16
243.527	0.15
243.744	0.27
243.961	0.27
244.178	0.07
244.394	0.23
244.611	0.33
244.828	0.31
245.044	0.09
245.261	0.15
245.477	0.14
245.694	0.08
245.911	0.1
246.127	0.24
246.344	0.23
246.56	0.25
246.777	0.1
246.993	0.14
247.21	0.22
247.426	0.28
247.643	0.14
247.859	0.15
248.076	0.14
248.292	0.3
248.508	0.09
248.725	0.22
248.941	0.15
249.157	0.29
249.374	0.15
249.59	0.06
249.806	0.13
250.023	0.24
250.239	0.02
250.455	0.05
250.671	0.14
250.888	0.18
251.104	0.24
251.32	0.1
251.536	0.17
251.752	0.09
251.969	0.17
252.185	0.15
252.401	0.42
252.617	0.2
252.833	0.1
253.049	0.09
253.265	0.16
253.481	0.15
253.697	0.1
253.913	0.03
254.129	0.18
254.345	0.11
254.561	0.1
254.777	0.13
254.993	0.18
255.209	0.16
255.425	0.12
255.641	0.1
255.857	0.27
256.073	0.19
256.288	0.1
256.504	0.13
256.72	0.13
256.936	0.29
257.152	0.08
257.367	0.1
257.583	0.2
257.799	0.26
258.015	0.09
258.23	0.06
258.446	0.3
258.662	0.06
258.877	0.09
259.093	0.11
259.309	0.19
259.524	0.13
259.74	0.09
259.955	0.04
260.171	0.15
260.387	0.12
260.602	0.25
260.818	0.27
261.033	-0.01
261.249	0.11
261.464	0.05
261.68	-0
261.895	0.24
262.11	0.21
262.326	0.12
262.541	0.03
262.757	0.17
262.972	0.17
263.187	0.14
263.403	0.13
263.618	0.19
263.833	0.1
264.049	0.07
264.264	0.13
264.479	0.13
264.694	0.23
264.91	0.03
265.125	0.12
265.34	0.19
265.555	0.28
265.77	0.13
265.986	0.06
266.201	0.17
266.416	0.26
266.631	0.14
266.846	0.11
267.061	0.19
267.276	0.15
267.491	0.05
267.706	0.13
267.921	0.15
268.136	0.12
268.351	0.17
268.566	0.07
268.781	0.14
268.996	0.21
269.211	0.07
269.426	0.1
269.641	0.06
269.856	0.22
270.071	0.06
270.285	0.06
270.5	0.18
270.715	0.21
270.93	0.12
271.145	0.12
271.359	0.14
271.574	0.07
271.789	0.08
272.004	0.05
272.218	0.1
272.433	0.12
272.648	0.04
272.862	0.19
273.077	0.11
273.292	0.08
273.506	0.04
273.721	0.06
273.936	0.14
274.15	0.19
274.365	0.08
274.579	0.1
274.794	0.08
275.008	0.17
275.223	0.06
275.437	0.09
275.652	0.17
275.866	0.18
276.081	0.11
276.295	0.12
276.509	0.12
276.724	0.1
276.938	0.07
277.153	0.11
277.367	0.17
277.581	0.06
277.796	0
278.01	0.04
278.224	0.13
278.438	0.26
278.653	0.05
278.867	0.05
279.081	0.1
279.295	0.1
279.51	0.11
279.724	0
279.938	0.15
280.152	0.11
280.366	0.06
280.58	0.12
280.794	0.2
281.008	0.12
281.222	0.11
281.437	0.2
281.651	0.13
281.865	0.16
282.079	0.1
282.293	0.02
282.507	0.03
282.721	0.15
282.935	0.04
283.148	0.05
283.362	0.05
283.576	0.04
283.79	0.08
284.004	0.05
284.218	0.17
284.432	0.07
284.646	0.09
284.859	0.03
285.073	0.1
285.287	0.08
285.501	0.08
285.714	0.07
285.928	0.13
286.142	0.1
286.356	0.06
286.569	0.05
286.783	0.18
286.997	0.11
287.21	0.09
287.424	0.09
287.637	0.06
287.851	0.1
288.065	0.15
288.278	0.06
288.492	0.08
288.705	0.02
288.919	0.16
289.132	0.03
289.346	0.17
289.559	0.02
289.773	0.03
289.986	0.02
290.2	0.06
290.413	0.13
290.626	0.02
290.84	0.09
291.053	0.08
291.267	0.12
291.48	0.07
291.693	0.11
291.906	0.06
292.12	0.06
292.333	0.03
292.546	0.08
292.76	0.13
292.973	0.15
293.186	0.11
293.399	0.09
293.612	0.14
293.826	0.08
294.039	0.09
294.252	0.09
294.465	0.09
294.678	0.11
294.891	0.08
295.104	0.06
295.317	0.08
295.53	0.1
295.743	0.09
295.956	0.07
296.169	0.18
296.382	0.13
296.595	0.12
296.808	0.05
297.021	0.16
297.234	0.1
297.447	0.06
297.66	0.12
297.873	0.15
298.086	0.12
298.299	0.05
298.511	0.03
298.724	0.04
298.937	0.02
299.15	0.07
299.363	0.07
299.575	0.14
299.788	0.14
300.001	0.07
300.213	0.07
300.426	0.04
300.639	0.05
300.852	0.04
301.064	0.14
301.277	0.16
301.489	0.1
301.702	0.17
301.915	0.11
302.127	0.08
302.34	0.09
302.552	0.12
302.765	0.03
302.977	0.1
303.19	0.1
303.402	0.07
303.615	0.08
303.827	0.06
304.04	0.03
304.252	0.12
304.464	0.06
304.677	0.17
304.889	0.1
305.102	0.07
305.314	0.07
305.526	0.14
305.739	0.09
305.951	0.04
306.163	0.05
306.375	0.17
306.588	0.06
306.8	0.07
307.012	0.01
307.224	0.11
307.436	0.13
307.649	-0
307.861	0.04
308.073	0.11
308.285	0.1
308.497	0.01
308.709	0.05
308.921	0.13
309.133	0.13
309.346	0.01
309.558	0.09
309.77	0.1
309.982	0.13
310.194	0.12
310.406	0.07
310.617	0.14
310.829	0.1
311.041	0.11
311.253	0.01
311.465	0.07
311.677	0.1
311.889	0.07
312.101	0.06
312.313	0.11
312.524	0.11
312.736	0.01
312.948	0.07
313.16	0.13
313.372	0.18
313.583	0.09
313.795	0.07
314.007	0.07
314.218	0.09
314.43	0.05
314.642	0.07
314.853	0
315.065	0.12
315.277	0.05
315.488	0.04
315.7	0.15
315.912	0.14
316.123	0.09
316.335	0.07
316.546	0.16
316.758	0.06
316.969	0.02
317.181	0.09
317.392	0.08
317.604	0.15
317.815	0.06
318.026	0.04
318.238	0.07
318.449	0.13
318.661	0.03
318.872	0.03
319.083	0.04
319.295	0.13
319.506	0.03
319.717	0.04
319.929	0.12
320.14	0.1
320.351	0.09
320.562	0.09
320.774	0.08
320.985	0.1
321.196	0.01
321.407	0
321.618	0.14
321.829	0.07
322.041	0.12
322.252	0.1
322.463	0.16
322.674	0.1
322.885	0.01
323.096	0.05
323.307	0.07
323.518	0.09
323.729	0.09
323.94	0.11
324.151	0.09
324.362	0.12
324.573	0.1
324.784	0.05
324.995	0.11
325.206	0.08
325.417	0.09
325.628	0.09
325.838	0.1
326.049	0.1
326.26	0.12
326.471	0.06
326.682	0.12
326.892	0.09
327.103	0.03
327.314	0.04
327.525	0.16
327.735	0.07
327.946	0.12
328.157	0.04
328.368	0.14
328.578	0.04
328.789	0.1
328.999	0.11
329.21	0.1
329.421	0.12
329.631	0.08
329.842	0.04
330.052	0.09
330.263	0.1
330.473	0.07
330.684	0.09
330.894	0.04
331.105	0.11
331.315	0.09
331.526	0
331.736	0.12
331.947	0.1
332.157	0.11
332.367	0.04
332.578	0.11
332.788	0.17
332.999	0.14
333.209	0.09
333.419	0.03
333.629	0.11
333.84	0.09
334.05	0.05
334.26	0.14
334.47	0.05
334.681	0.13
334.891	0.05
335.101	0.11
335.311	0.18
335.521	0.07
335.732	0.02
335.942	0.12
336.152	0.1
336.362	0.1
336.572	0.14
336.782	0.1
336.992	0.07
337.202	0.08
337.412	0.06
337.622	0.13
337.832	0.05
338.042	0.1
338.252	0.03
338.462	0.07
338.672	0.07
338.882	0.05
339.092	0.05
339.302	0.13
339.511	0.08
339.721	0.05
339.931	0.04
340.141	0.13
340.351	0.09
340.561	0.09
340.77	0.11
340.98	0.09
341.19	0.13
341.4	0.06
341.609	0.04
341.819	0.06
342.029	-0.02
342.238	0.11
342.448	0.05
342.658	0.11
342.867	0.08
343.077	0.09
343.286	0.08
343.496	0.05
343.706	0.12
343.915	0.06
344.125	0.13
344.334	0.12
344.544	0.03
344.753	0.04
344.963	0.08
345.172	0.07
345.381	0.08
345.591	0.05
345.8	0.05
346.01	0.11
346.219	0.1
346.428	-0.06
346.638	0.09
346.847	0.08
347.056	0.15
347.266	0.03
347.475	0.05
347.684	0.08
347.893	0.09
348.103	0.11
348.312	0.08
348.521	0.08
348.73	0.11
348.94	0.09
349.149	0.09
349.358	0.05
349.567	0.03
349.776	0.04
349.985	0.06
350.194	0.09
350.403	0.1
350.612	0.02
350.821	0.04
351.03	0.04
351.239	0.02
351.448	0.08
351.657	0.02
351.866	0.14
352.075	0.04
352.284	0.13
352.493	0.03
352.702	0.12
352.911	0.09
353.12	0.09
353.329	0.07
353.538	0.11
353.746	0.07
353.955	0.06
354.164	0.12
354.373	0.07
354.582	0.1
354.79	0.07
354.999	0.12
355.208	0.05
355.416	0.15
355.625	0.05
355.834	0.06
356.042	0.09
356.251	0.1
356.46	0.07
356.668	0.08
356.877	0.13
357.085	0.16
357.294	-0.03
357.503	0.1
357.711	0.03
357.92	0.2
358.128	0.06
358.337	0.05
358.545	0.07
358.754	0.05
358.962	0.11
359.17	0.05
359.379	0.07
359.587	0.1
359.796	0.07
360.004	0.1
360.212	0.1
360.421	0.12
360.629	0.04
360.837	0.06
361.046	0.14
361.254	0.21
361.462	0.09
361.67	0.05
361.879	0.08
362.087	0.12
362.295	0.12
362.503	0.07
362.711	0.03
362.92	0.04
363.128	0.04
363.336	0.03
363.544	0.01
363.752	0.07
363.96	0.05
364.168	0.07
364.376	0.09
364.584	0.08
364.792	0.12
365	0.11
365.208	0.07
365.416	0.1
365.624	0.13
365.832	0.05
366.04	0.1
366.248	0.06
366.456	0.08
366.664	0.08
366.872	0.06
367.079	0.06
367.287	0.09
367.495	0.11
367.703	0.07
367.911	0.06
368.118	0.07
368.326	0.04
368.534	0.03
368.742	0.14
368.949	0
369.157	0.06
369.365	0.12
369.572	0.05
369.78	0.03
369.988	0.08
370.195	0.11
370.403	0.07
370.61	0.05
370.818	0.09
371.026	0.14
371.233	0.05
371.441	0.09
371.648	0.07
371.856	0.07
372.063	0.08
372.271	0.07
372.478	0.05
372.685	0.01
372.893	0.11
373.1	0.06
373.308	0.04
373.515	0.11
373.722	0.1
373.93	0.05
374.137	0.11
374.344	0.12
374.552	0.11
374.759	0.09
374.966	0.13
375.173	0.07
375.381	0.08
375.588	0.07
375.795	0.01
376.002	0.01
376.209	0.06
376.417	0.07
376.624	0.06
376.831	0.11
377.038	0.04
377.245	0.02
377.452	0.1
377.659	0.08
377.866	0.05
378.073	0.07
378.28	0.09
378.487	0.15
378.694	0.07
378.901	0.05
379.108	0.07
379.315	0.1
379.522	0.15
379.729	0.1
379.936	0.07
380.143	0.09
380.35	0.05
380.557	0.03
380.763	0.05
380.97	0.09
381.177	0.08
381.384	0.07
381.591	0.06
381.797	0.08
382.004	0.11
382.211	0.05
382.418	0.06
382.624	0.07
382.831	0.09
383.038	0.04
383.244	0.1
383.451	0.06
383.658	0.1
383.864	0.05
384.071	0.01
384.277	0.14
384.484	0.03
384.69	0.12
384.897	0.05
385.103	0.07
385.31	0.05
385.516	0.05
385.723	0.02
385.929	0.07
386.136	0.04
386.342	0.07
386.549	0.04
386.755	0.12
386.961	0.12
387.168	0.06
387.374	0.06
387.58	0.15
387.787	0.07
387.993	0.08
388.199	0.05
388.406	0.07
388.612	0.06
388.818	0.04
389.024	0.06
389.231	0.04
389.437	0.13
389.643	0.11
389.849	0.05
390.055	0.05
390.261	0.03
390.467	0.04
390.674	0.03
390.88	0.05
391.086	0.11
391.292	0.06
391.498	0.09
391.704	0.06
391.91	0.06
392.116	0.06
392.322	0.01
392.528	0.12
392.734	0.09
392.94	0.06
393.146	0.05
393.352	0.08
393.557	0.06
393.763	0.09
393.969	0.08
394.175	0.07
394.381	0.11
394.587	0
394.792	0.06
394.998	0.11
395.204	0.11
395.41	0.07
395.615	0.07
395.821	0.09
396.027	0.06
396.233	0.05
396.438	0.06
396.644	0.15
396.85	0.09
397.055	0.06
397.261	0.06
397.466	0.18
397.672	0.1
397.878	0.06
398.083	0.09
398.289	0.06
398.494	0.07
398.7	0.08
398.905	0.04
399.111	0.14
399.316	0.02
399.522	0.09
399.727	0.09
399.932	0.06
400.138	0.03
400.343	0.09
400.549	0.1
400.754	0.09
400.959	0.09
401.165	0.08
401.37	0.08
401.575	0.15
401.78	0.06
401.986	0.06
402.191	0.07
402.396	0.02
402.601	0.12
402.807	0.08
403.012	0.1
403.217	0.15
403.422	0.08
403.627	0.12
403.832	0.06
404.037	0.1
404.243	0.06
404.448	0.04
404.653	0.05
404.858	0.1
405.063	0.11
405.268	0.06
405.473	0.06
405.678	0.07
405.883	0.22
406.088	0.12
406.293	0.01
406.498	0.02
406.703	0.07
406.907	0.1
407.112	-0.01
407.317	0.08
407.522	0.11
407.727	0.03
407.932	0.07
408.136	0.18
408.341	0.11
408.546	0.06
408.751	0.09
408.956	0.09
409.16	0.07
409.365	0.08
409.57	0.07
409.774	0.08
409.979	0.14
410.184	0.08
410.388	0.04
410.593	0.17
410.798	0.06
411.002	0.05
411.207	0.1
411.411	0.04
411.616	0.05
411.82	0.05
412.025	0.09
412.229	0.06
412.434	0.14
412.638	0.08
412.843	0.03
413.047	0.08
413.252	0.05
413.456	0.06
413.66	0.14
413.865	0.05
414.069	0.11
414.273	0.07
414.478	0.06
414.682	0.04
414.886	0.06
415.091	0.01
415.295	-0.03
415.499	0.14
415.703	0.04
415.908	0.09
416.112	-0.01
416.316	0.09
416.52	0.09
416.724	0.01
416.929	0.02
417.133	0.09
417.337	0.05
417.541	0.01
417.745	0.04
417.949	0.11
418.153	0.07
418.357	0.03
418.561	0.13
418.765	0.07
418.969	0.17
419.173	0.11
419.377	0.05
419.581	0.13
419.785	0.06
419.989	-0.02
420.193	0.03
420.397	0.1
420.601	0.13
420.804	0.1
421.008	0.08
421.212	0.07
421.416	0.08
421.62	0.04
421.823	0.03
422.027	0.14
422.231	0.08
422.435	0.07
422.638	0.03
422.842	0.07
423.046	0.05
423.249	0.11
423.453	0.08
423.657	0.06
423.86	0.02
424.064	0.06
424.268	0.17
424.471	0.05
424.675	0.13
424.878	0.19
425.082	0.12
425.285	0.14
425.489	0.07
425.692	0.06
425.896	-0
426.099	0.07
426.303	0.03
426.506	-0.04
426.71	0.11
426.913	0.11
427.116	0.1
427.32	0.03
427.523	0.09
427.726	0.15
427.93	-0
428.133	0.06
428.336	0.06
428.54	-0.01
428.743	0.12
428.946	0.13
429.149	0.04
429.353	0.05
429.556	0.07
429.759	0.12
429.962	0.04
430.165	0.09
430.368	0.09
430.571	0.05
430.775	0.08
430.978	0.05
431.181	0.11
431.384	0.1
431.587	0.08
431.79	0.03
431.993	-0.02
432.196	0.04
432.399	0.07
432.602	0.13
432.805	0.06
433.008	0.05
433.211	-0
433.414	0.11
433.616	0.1
433.819	0.04
434.022	-0.02
434.225	0.12
434.428	0.08
434.631	0.17
434.833	0.07
435.036	0.09
435.239	0.08
435.442	0.06
435.645	0.07
435.847	0.1
436.05	0.14
436.253	0.09
436.455	0.03
436.658	0.04
436.861	0.15
437.063	0.04
437.266	0.09
437.468	0.09
437.671	0.19
437.874	0.08
438.076	0
438.279	0.06
438.481	0.11
438.684	0.03
438.886	0.09
439.089	-0.03
439.291	0.04
439.494	0.11
439.696	0.05
439.899	0.04
440.101	0.08
440.303	0.02
440.506	0.11
440.708	0.06
440.91	0.11
441.113	0.04
441.315	0.09
441.517	0.01
441.72	0.09
441.922	0.05
442.124	0.06
442.326	0.09
442.529	0.14
442.731	0.05
442.933	0.17
443.135	0.08
443.337	0.09
443.539	0.06
443.742	0.06
443.944	0.08
444.146	0.05
444.348	0.04
444.55	0.07
444.752	0.07
444.954	0.03
445.156	0.12
445.358	0.06
445.56	0.1
445.762	0.05
445.964	0.07
446.166	0.09
446.368	0.06
446.57	0.06
446.772	0.09
446.974	0.06
447.175	0.07
447.377	0.03
447.579	0.04
447.781	0.01
447.983	0.14
448.184	0.06
448.386	0.1
448.588	0.03
448.79	0.07
448.991	0.02
449.193	0.05
449.395	0.1
449.597	0.09
449.798	0.09
450	0.11
450.202	0.07
450.403	0.08
450.605	0.09
450.806	0.08
451.008	-0.01
451.21	0.08
451.411	0.11
451.613	0.06
451.814	0.04
452.016	0.15
452.217	0.09
452.419	0.1
452.62	0.06
452.821	0.08
453.023	0.15
453.224	0.14
453.426	0.09
453.627	0.07
453.828	0.12
454.03	0.09
454.231	0.08
454.432	0.06
454.634	0.2
454.835	0.07
455.036	0.04
455.238	0.09
455.439	0.17
455.64	0.07
455.841	0.05
456.042	0.2
456.244	0.05
456.445	0.02
456.646	0.01
456.847	0.07
457.048	0.11
457.249	0.11
457.45	0.28
457.651	-0.04
457.852	0.11
458.054	0.15
458.255	0.05
458.456	0.08
458.657	0.13
458.858	0.05
459.058	0.12
459.259	0.15
459.46	0.04
459.661	0.08
459.862	0.21
460.063	0.06
460.264	0.13
460.465	0.04
460.666	0.22
460.866	0.07
461.067	0.08
461.268	0.06
461.469	0.05
461.67	0.1
461.87	0.05
462.071	0.1
462.272	0.04
462.473	0.08
462.673	0.11
462.874	0.02
463.075	0.07
463.275	0.05
463.476	0.13
463.676	0.1
463.877	0.07
464.078	0.05
464.278	0.09
464.479	0.07
464.679	0.08
464.88	0.06
465.08	0.16
465.281	0.07
465.481	0.12
465.682	0.04
465.882	0.12
466.083	0.11
466.283	0.09
466.483	0.07
466.684	0.03
466.884	0.02
467.085	0.08
467.285	0.12
467.485	0.07
467.686	0.09
467.886	0.06
468.086	0.07
468.286	0.08
468.487	0.06
468.687	0.01
468.887	0.06
469.087	0.14
469.287	0.02
469.488	0.04
469.688	0.12
469.888	0.09
470.088	0.07
470.288	0.1
470.488	0.11
470.688	0.02
470.888	0.05
471.088	0.05
471.288	0.08
471.488	0.08
471.688	0.11
471.888	0.06
472.088	0.12
472.288	0.14
472.488	0.01
472.688	0.01
472.888	0.08
473.088	0.07
473.288	0.07
473.488	0.08
473.688	0.1
473.887	0.04
474.087	0.04
474.287	0.07
474.487	0.04
474.687	0.08
474.886	0.05
475.086	0.04
475.286	0.05
475.486	0.04
475.685	0.08
475.885	0.07
476.085	0.05
476.284	0.07
476.484	0.05
476.684	0.07
476.883	0.1
477.083	0.09
477.282	0.02
477.482	0.11
477.681	0.09
477.881	0.07
478.08	0.07
478.28	0.01
478.479	0.08
478.679	0.11
478.878	0.06
479.078	0.04
479.277	0.02
479.477	0.03
479.676	0.12
479.875	0.06
480.075	-0.01
480.274	0.1
480.473	0.08
480.673	0
480.872	0.06
481.071	0.07
481.271	0.07
481.47	0.05
481.669	0.05
481.868	0.04
482.067	0.01
482.267	0.03
482.466	0.03
482.665	0.01
482.864	-0.01
483.063	0.03
483.262	0.07
483.461	0.09
483.661	0.07
483.86	0.07
484.059	0.03
484.258	0.04
484.457	0.04
484.656	0.06
484.855	0.1
485.054	-0
485.253	0.02
485.452	0.01
485.651	0.05
485.849	0.03
486.048	0
486.247	0.04
486.446	0.04
486.645	0.02
486.844	0.04
487.043	0.05
487.241	0.08
487.44	0.01
487.639	0.05
487.838	0.04
488.037	0.07
488.235	0.1
488.434	0.04
488.633	0.03
488.831	0.03
489.03	0.08
489.229	0.06
489.427	0.03
489.626	0.08
489.825	0.08
490.023	0.03
490.222	0.02
490.42	0.07
490.619	0.08
490.817	0.03
491.016	0.01
491.214	0.08
491.413	0.02
491.611	0.06
491.81	0.04
492.008	0.07
492.207	0.06
492.405	0.05
492.604	-0.02
492.802	0.04
493	0.05
493.199	0.02
493.397	0.04
493.595	0.01
493.794	0.03
493.992	0.06
494.19	0.04
494.388	0.07
494.587	0.03
494.785	0.03
494.983	0
495.181	0.06
495.379	0.04
495.578	0.03
495.776	0.06
495.974	0.05
496.172	0.03
496.37	0.03
496.568	0.01
496.766	0.01
496.964	0.07
497.162	0.04
497.36	0.01
497.558	0.04
497.756	0.04
497.954	0.03
498.152	0.01
498.35	0.02
498.548	0.02
498.746	0.03
498.944	-0.02
499.142	0.02
499.34	-0.01
499.538	0.03
499.736	0.01
499.933	0.08
500.131	0.05
500.329	0.02
500.527	0.07
500.725	0.07
500.922	0.05
501.12	0.03
501.318	0.04
501.516	0.01
501.713	0.05
501.911	0.04
502.109	-0.01
502.306	0.04
502.504	0.02
502.701	0.03
502.899	0.03
503.097	0.06
503.294	0.05
503.492	0.04
503.689	0.02
503.887	0.08
504.084	0.08
504.282	0.05
504.479	0.01
504.677	0.06
504.874	-0
505.072	0.03
505.269	0.04
505.466	0.07
505.664	0.04
505.861	0.03
506.059	0.01
506.256	0.04
506.453	0.05
506.651	0.09
506.848	0.06
507.045	0.04
507.242	0.04
507.44	0.01
507.637	0.04
507.834	0.04
508.031	0.06
508.229	0.02
508.426	0.04
508.623	0.06
508.82	0.01
509.017	0.01
509.214	0.02
509.411	0.03
509.608	0
509.805	0.04
510.003	0.01
510.2	0.02
510.397	0.08
510.594	0.05
510.791	0
510.988	0.04
511.184	0.06
511.381	0.04
511.578	0.02
511.775	0.06
511.972	0.02
512.169	0.03
512.366	0.05
512.563	0.04
512.76	0.01
512.956	0.05
513.153	0.02
513.35	0.04
513.547	0.01
513.744	0.02
513.94	0
514.137	0.06
514.334	0.03
514.53	0.04
514.727	0.02
514.924	0.09
515.12	0.04
515.317	0.01
515.514	0.02
515.71	0.03
515.907	0.03
516.103	0.04
516.3	0.05
516.497	0.05
516.693	0.04
516.89	0.01
517.086	0.02
517.283	0.04
517.479	0.04
517.676	0.02
517.872	0.03
518.068	0.02
518.265	0.02
518.461	0.02
518.658	0.02
518.854	0.03
519.05	0.03
519.247	-0
519.443	0.04
519.639	0.04
519.836	0.04
520.032	0.03
520.228	0.04
520.424	0.08
520.621	0.03
520.817	0.03
521.013	0.06
521.209	0.04
521.405	0.09
521.601	0.06
521.798	0.04
521.994	0.07
522.19	0.01
522.386	0.01
522.582	0.03
522.778	0.02
522.974	0.04
523.17	0.03
523.366	0.03
523.562	0.06
523.758	0.03
523.954	0.03
524.15	0.03
524.346	0.07
524.542	0.02
524.738	0.02
524.934	0.03
525.129	0.03
525.325	0.03
525.521	0.02
525.717	0.08
525.913	0.05
526.109	0.03
526.304	0.02
526.5	0.06
526.696	0.06
526.892	0.01
527.087	0.05
527.283	0.04
527.479	0.05
527.674	0.03
527.87	0.04
528.066	0.02
528.261	0.04
528.457	0.04
528.653	0.05
528.848	0.04
529.044	0.05
529.239	0.04
529.435	0.06
529.63	0.05
529.826	0.09
530.021	0.06
530.217	0.04
530.412	0.02
530.608	0.02
530.803	0.05
530.999	0.04
531.194	-0.01
531.389	0.04
531.585	0
531.78	0.05
531.975	0.03
532.171	0.05
532.366	0.02
532.561	0.03
532.757	0
532.952	0.03
533.147	0.05
533.342	0.02
533.538	0.02
533.733	0.08
533.928	0.05
534.123	0.04
534.318	-0.01
534.513	0.03
534.709	0.03
534.904	0.02
535.099	0.02
535.294	0.04
535.489	0.03
535.684	0.02
535.879	0.01
536.074	0.05
536.269	0.01
536.464	0.06
536.659	0.02
536.854	0.05
537.049	0.07
537.244	0.04
537.439	0.01
537.634	0.06
537.828	0.03
538.023	0.04
538.218	0.02
538.413	0.03
538.608	0.02
538.803	0.04
538.997	-0.01
539.192	0.08
539.387	0.05
539.582	0.05
539.776	0.05
539.971	0.03
540.166	0.04
540.36	0
540.555	0.03
540.75	0.04
540.944	0.04
541.139	0.01
541.334	0.01
541.528	0.07
541.723	0.07
541.917	0.02
542.112	-0.01
542.306	0.03
542.501	0.03
542.695	0.07
542.89	0.04
543.084	0.04
543.279	0.03
543.473	0.03
543.668	0.03
543.862	0.04
544.056	0.08
544.251	0.03
544.445	0.05
544.64	0.03
544.834	0.02
545.028	0.04
545.222	0.04
545.417	0.07
545.611	0.04
545.805	0.04
546	0.03
546.194	0.03
546.388	0.03
546.582	0.04
546.776	0.05
546.97	0.03
547.165	0.06
547.359	0.06
547.553	0.01
547.747	0.03
547.941	0.04
548.135	0.03
548.329	0.04
548.523	0.02
548.717	0.02
548.911	0.02
549.105	0.03
549.299	0.05
549.493	0.06
549.687	0.04
549.881	0.04
550.075	0.04
550.269	0.02
550.463	0.08
550.657	0.02
550.85	0.05
551.044	0.02
551.238	0.04
551.432	0.06
551.626	0.01
551.82	0.05
552.013	0.03
552.207	0.05
552.401	0.06
552.594	0.05
552.788	0.02
552.982	0.05
553.176	0.01
553.369	0.07
553.563	0.06
553.756	0.01
553.95	0
554.144	0.02
554.337	0.07
554.531	0.05
554.724	0.04
554.918	0.04
555.111	0.06
555.305	0.05
555.498	0.07
555.692	0.08
555.885	0.03
556.079	0.06
556.272	0.03
556.466	0.06
556.659	0.04
556.852	0.05
557.046	0.03
557.239	0.08
557.432	0.03
557.626	0.01
557.819	0.06
558.012	0.07
558.206	0.07
558.399	0.05
558.592	0.04
558.785	0.03
558.979	0.07
559.172	0.05
559.365	0.07
559.558	0.08
559.751	0.05
559.944	0.01
560.138	0.02
560.331	0.04
560.524	0.03
560.717	0.03
560.91	0.04
561.103	0.06
561.296	0.05
561.489	0.05
561.682	0.06
561.875	0.06
562.068	0.07
562.261	0.05
562.454	0.11
562.647	0.05
562.84	0.05
563.032	0.04
563.225	0.08
563.418	0.03
563.611	0.06
563.804	0.07
563.997	0.04
564.19	0.01
564.382	-0.01
564.575	0.04
564.768	0.06
564.961	0.04
565.153	0.03
565.346	0.07
565.539	0.07
565.731	0.06
565.924	0.06
566.117	0.06
566.309	0.05
566.502	0.02
566.695	0.05
566.887	0.03
567.08	0.04
567.272	0.03
567.465	0.02
567.657	0.06
567.85	0.06
568.042	0.1
568.235	0.08
568.427	0.05
568.62	0.06
568.812	0.08
569.005	0.05
569.197	0.04
569.389	0.06
569.582	0.06
569.774	0.06
569.966	0.03
570.159	0
570.351	0.07
570.543	0.04
570.736	0.06
570.928	0.04
571.12	0.06
571.312	0.05
571.505	0.03
571.697	0.09
571.889	0.02
572.081	0.04
572.273	0.03
572.465	0.08
572.658	0.06
572.85	0.06
573.042	0.06
573.234	0.05
573.426	0.09
573.618	0.03
573.81	0.09
574.002	0.09
574.194	0.1
574.386	0.02
574.578	0
574.77	0.04
574.962	0.03
575.154	0.03
575.346	0.05
575.538	0.06
575.729	0.05
575.921	0.03
576.113	0.07
576.305	0.09
576.497	0.05
576.689	0.06
576.88	0.05
577.072	0.11
577.264	0.06
577.456	0.06
577.647	0.01
577.839	0.08
578.031	0.1
578.223	0.06
578.414	0.04
578.606	0.07
578.798	0.06
578.989	0.04
579.181	0.09
579.372	0.08
579.564	0.07
579.755	0.07
579.947	0.1
580.139	0.09
580.33	0.01
580.522	0.05
580.713	0.01
580.905	0.06
581.096	0.09
581.287	0.08
581.479	0.09
581.67	0.09
581.862	0.08
582.053	0.06
582.244	0.03
582.436	0.07
582.627	0.08
582.818	0.07
583.01	0.04
583.201	0.09
583.392	0.1
583.583	0.1
583.775	0.07
583.966	0.06
584.157	0.07
584.348	0.07
584.54	0.06
584.731	0.08
584.922	0.09
585.113	0.04
585.304	0.11
585.495	0.1
585.686	0.11
585.877	0.1
586.068	0.1
586.259	0.11
586.45	0.07
586.641	0.05
586.832	0.06
587.023	0.09
587.214	0.09
587.405	0.09
587.596	0.06
587.787	0.16
587.978	0.1
588.169	0.09
588.36	0.08
588.551	0.1
588.742	0.07
588.932	0.09
589.123	0.1
589.314	0.12
589.505	0.1
589.696	0.13
589.886	0.1
590.077	0.07
590.268	0.1
590.458	0.06
590.649	0.07
590.84	0.15
591.03	0.09
591.221	0.05
591.412	0.06
591.602	0.14
591.793	0.16
591.984	0.08
592.174	0.12
592.365	0.16
592.555	0.06
592.746	0.12
592.936	0.14
593.127	0.14
593.317	0.15
593.508	0.09
593.698	0.11
593.889	0.12
594.079	0.12
594.269	0.11
594.46	0.13
594.65	0.11
594.84	0.16
595.031	0.11
595.221	0.13
595.411	0.08
595.602	0.17
595.792	0.15
595.982	0.14
596.172	0.18
596.363	0.16
596.553	0.17
596.743	0.14
596.933	0.14
597.123	0.17
597.314	0.14
597.504	0.13
597.694	0.2
597.884	0.17
598.074	0.14
598.264	0.15
598.454	0.18
598.644	0.17
598.834	0.16
599.024	0.16
599.214	0.18
599.404	0.2
599.594	0.17
599.784	0.14
599.974	0.26
600.164	0.19
600.354	0.16
600.544	0.16
600.734	0.18
600.924	0.24
601.114	0.19
601.303	0.21
601.493	0.22
601.683	0.21
601.873	0.19
602.063	0.16
602.252	0.27
602.442	0.17
602.632	0.18
602.821	0.21
603.011	0.26
603.201	0.23
603.39	0.23
603.58	0.19
603.77	0.25
603.959	0.26
604.149	0.24
604.339	0.23
604.528	0.29
604.718	0.29
604.907	0.26
605.097	0.25
605.286	0.24
605.476	0.29
605.665	0.32
605.855	0.26
606.044	0.35
606.234	0.29
606.423	0.31
606.612	0.25
606.802	0.33
606.991	0.34
607.181	0.35
607.37	0.3
607.559	0.29
607.749	0.31
607.938	0.3
608.127	0.32
608.316	0.36
608.506	0.32
608.695	0.36
608.884	0.36
609.073	0.4
609.263	0.38
609.452	0.43
609.641	0.42
609.83	0.37
610.019	0.4
610.208	0.39
610.397	0.42
610.586	0.45
610.775	0.41
610.965	0.43
611.154	0.42
611.343	0.47
611.532	0.46
611.721	0.47
611.91	0.46
612.099	0.54
612.287	0.5
612.476	0.47
612.665	0.54
612.854	0.49
613.043	0.57
613.232	0.55
613.421	0.52
613.61	0.63
613.798	0.6
613.987	0.62
614.176	0.6
614.365	0.64
614.554	0.67
614.742	0.67
614.931	0.66
615.12	0.7
615.309	0.69
615.497	0.72
615.686	0.67
615.875	0.72
616.063	0.7
616.252	0.71
616.44	0.72
616.629	0.77
616.818	0.83
617.006	0.8
617.195	0.81
617.383	0.83
617.572	0.84
617.76	0.85
617.949	0.88
618.137	0.92
618.326	0.91
618.514	0.88
618.703	0.87
618.891	1.01
619.079	0.91
619.268	1.04
619.456	0.97
619.644	1.09
619.833	1.04
620.021	1.1
620.209	1.08
620.398	1.13
620.586	1.12
620.774	1.19
620.962	1.17
621.151	1.29
621.339	1.2
621.527	1.22
621.715	1.25
621.903	1.29
622.092	1.27
622.28	1.37
622.468	1.32
622.656	1.4
622.844	1.4
623.032	1.45
623.22	1.4
623.408	1.56
623.596	1.54
623.784	1.57
623.972	1.53
624.16	1.58
624.348	1.65
624.536	1.67
624.724	1.65
624.912	1.76
625.1	1.77
625.288	1.81
625.476	1.77
625.664	1.91
625.851	1.84
626.039	1.95
626.227	1.94
626.415	1.98
626.603	1.96
626.79	2.1
626.978	2.12
627.166	2.15
627.354	2.09
627.541	2.21
627.729	2.12
627.917	2.34
628.104	2.31
628.292	2.37
628.48	2.41
628.667	2.43
628.855	2.57
629.042	2.63
629.23	2.6
629.418	2.64
629.605	2.68
629.793	2.68
629.98	2.75
630.168	2.77
630.355	2.87
630.543	2.97
630.73	2.92
630.917	3.04
631.105	3.19
631.292	3.15
631.48	3.2
631.667	3.32
631.854	3.29
632.042	3.37
632.229	3.32
632.416	3.45
632.604	3.51
632.791	3.47
632.978	3.68
633.165	3.7
633.353	3.81
633.54	3.9
633.727	3.82
633.914	3.89
634.101	3.91
634.289	4.16
634.476	4.09
634.663	4.16
634.85	4.25
635.037	4.33
635.224	4.29
635.411	4.52
635.598	4.48
635.785	4.56
635.972	4.68
636.159	4.76
636.346	4.8
636.533	4.76
636.72	4.94
636.907	5.07
637.094	5.08
637.281	5.03
637.468	5.23
637.655	5.32
637.842	5.47
638.029	5.39
638.215	5.51
638.402	5.64
638.589	5.68
638.776	5.81
638.963	5.85
639.149	6.03
639.336	6.12
639.523	6.18
639.709	6.19
639.896	6.3
640.083	6.34
640.27	6.54
640.456	6.58
640.643	6.7
640.829	6.72
641.016	6.82
641.203	6.87
641.389	7.06
641.576	7.16
641.762	7.25
641.949	7.32
642.135	7.53
642.322	7.52
642.508	7.62
642.695	7.97
642.881	7.93
643.068	8.03
643.254	8.23
643.441	8.27
643.627	8.45
643.813	8.47
644	8.81
644.186	8.73
644.372	9.06
644.559	9.07
644.745	9.22
644.931	9.41
645.118	9.48
645.304	9.61
645.49	9.84
645.676	9.96
645.862	10.15
646.049	10.38
646.235	10.45
646.421	10.74
646.607	10.89
646.793	11
646.979	10.93
647.165	11.38
647.352	11.5
647.538	11.54
647.724	11.87
647.91	11.9
648.096	12.22
648.282	12.43
648.468	12.7
648.654	12.81
648.84	12.94
649.026	13.24
649.212	13.28
649.397	13.56
649.583	13.91
649.769	14.07
649.955	14.14
650.141	14.62
650.327	14.56
650.513	14.84
650.698	15.18
650.884	15.15
651.07	15.72
651.256	15.76
651.442	16.02
651.627	15.89
651.813	16.64
651.999	16.61
652.184	16.76
652.37	17.11
652.556	17.46
652.741	17.64
652.927	17.47
653.113	18.08
653.298	18.28
653.484	18.48
653.669	18.78
653.855	19.05
654.04	19.28
654.226	19.42
654.412	19.69
654.597	19.73
654.782	20.17
654.968	20.54
655.153	20.54
655.339	20.93
655.524	21.07
655.71	21.37
655.895	21.73
656.08	21.85
656.266	22.21
656.451	21.93
656.636	22.28
656.822	22.55
657.007	22.86
657.192	22.99
657.378	23.18
657.563	23.09
657.748	23.36
657.933	23.78
658.118	23.34
658.304	24.06
658.489	24.27
658.674	24.26
658.859	24.26
659.044	24.38
659.229	24.54
659.414	24.8
659.599	24.77
659.785	24.76
659.97	24.75
660.155	24.78
660.34	25
660.525	24.87
660.71	24.85
660.895	24.91
661.08	24.73
661.264	24.47
661.449	24.4
661.634	23.96
661.819	24.06
662.004	23.71
662.189	23.83
662.374	23.51
662.559	23.08
662.743	22.75
662.928	22.6
663.113	22.18
663.298	21.94
663.483	21.61
663.667	21.08
663.852	20.93
664.037	20.53
664.221	20.12
664.406	19.76
664.591	19.25
664.775	18.79
664.96	18.54
665.145	17.72
665.329	17.56
665.514	17.01
665.698	16.41
665.883	16.02
666.068	15.67
666.252	15.19
666.437	14.78
666.621	14.23
666.806	13.84
666.99	13.31
667.174	12.99
667.359	12.62
667.543	12.22
667.728	11.94
667.912	11.37
668.096	10.98
668.281	10.58
668.465	10.41
668.649	9.97
668.834	9.54
669.018	9.43
669.202	9.05
669.387	8.68
669.571	8.59
669.755	8.07
669.939	7.86
670.124	7.58
670.308	7.44
670.492	7.12
670.676	6.88
670.86	6.64
671.044	6.32
671.228	6.3
671.413	5.98
671.597	5.76
671.781	5.62
671.965	5.58
672.149	5.36
672.333	5.19
672.517	4.91
672.701	4.81
672.885	4.68
673.069	4.37
673.253	4.45
673.437	4.21
673.621	4.09
673.804	4.02
673.988	3.86
674.172	3.68
674.356	3.5
674.54	3.45
674.724	3.45
674.908	3.35
675.091	3.21
675.275	3.09
675.459	3.09
675.643	2.92
675.826	2.77
676.01	2.74
676.194	2.64
676.377	2.54
676.561	2.56
676.745	2.43
676.928	2.36
677.112	2.33
677.296	2.11
677.479	2.14
677.663	2.09
677.846	2.07
678.03	1.94
678.213	1.85
678.397	1.83
678.58	1.8
678.764	1.79
678.947	1.63
679.131	1.59
679.314	1.64
679.498	1.56
679.681	1.55
679.865	1.56
680.048	1.47
680.231	1.33
680.415	1.33
680.598	1.28
680.781	1.23
680.965	1.23
681.148	1.23
681.331	1.08
681.514	1.18
681.698	1.12
681.881	1.12
682.064	1.04
682.247	1.02
682.43	0.93
682.614	0.97
682.797	0.99
682.98	0.95
683.163	0.85
683.346	0.9
683.529	0.84
683.712	0.78
683.895	0.88
684.078	0.71
684.261	0.73
684.444	0.78
684.627	0.76
684.81	0.72
684.993	0.72
685.176	0.68
685.359	0.61
685.542	0.61
685.725	0.69
685.908	0.66
686.091	0.6
686.274	0.66
686.457	0.64
686.639	0.59
686.822	0.57
687.005	0.56
687.188	0.53
687.371	0.63
687.553	0.57
687.736	0.57
687.919	0.59
688.102	0.62
688.284	0.48
688.467	0.5
688.65	0.49
688.832	0.42
689.015	0.44
689.197	0.44
689.38	0.52
689.563	0.53
689.745	0.42
689.928	0.38
690.11	0.4
690.293	0.43
690.475	0.31
690.658	0.37
690.84	0.33
691.023	0.38
691.205	0.35
691.388	0.36
691.57	0.41
691.752	0.4
691.935	0.28
692.117	0.31
692.3	0.35
692.482	0.29
692.664	0.27
692.847	0.32
693.029	0.32
693.211	0.33
693.393	0.28
693.576	0.26
693.758	0.28
693.94	0.27
694.122	0.24
694.304	0.28
694.487	0.29
694.669	0.37
694.851	0.21
695.033	0.31
695.215	0.29
695.397	0.24
695.579	0.28
695.761	0.24
695.943	0.18
696.125	0.35
696.308	0.29
696.49	0.18
696.671	0.33
696.853	0.23
697.035	0.37
697.217	0.23
697.399	0.3
697.581	0.2
697.763	0.19
697.945	0.16
698.127	0.24
698.309	0.31
698.491	0.24
698.672	0.23
698.854	0.25
699.036	0.31
699.218	0.24
699.399	0.28
699.581	0.31
699.763	0.17
699.945	0.18
700.126	0.15
700.308	0.19
700.49	0.2
700.671	0.1
700.853	0.11
701.035	0.2
701.216	0.2
701.398	0.13
701.579	0.22
701.761	0.2
701.943	0.17
702.124	0.15
702.306	0.14
702.487	0.31
702.669	0.16
702.85	0.14
703.031	0.08
703.213	0.25
703.394	0.21
703.576	0.2
703.757	0.24
703.938	0.24
704.12	0.33
704.301	0.18
704.483	0.13
704.664	0.16
704.845	0.29
705.026	0.21
705.208	0.14
705.389	0.2
705.57	0.16
705.751	0.19
705.933	0.19
706.114	0.21
706.295	0.19
706.476	0.14
706.657	0.32
706.838	0.19
707.02	0.23
707.201	0.1
707.382	0.16
707.563	0.21
707.744	0.14
707.925	0.04
708.106	0.16
708.287	0.19
708.468	0.21
708.649	0.16
708.83	0.18
709.011	0.12
709.192	0.23
709.373	0.07
709.554	0.16
709.734	0.22
709.915	0.22
710.096	0.18
710.277	0.04
710.458	0.17
710.639	0.16
710.819	0.05
711	0.15
711.181	0.22
711.362	0.23
711.542	0.2
711.723	0.11
711.904	0.19
712.085	0.17
712.265	0.14
712.446	0.07
712.627	0.1
712.807	0.11
712.988	0.22
713.168	0.04
713.349	0.22
713.53	0.06
713.71	0.07
713.891	0.08
714.071	0.15
714.252	0.11
714.432	0.1
714.613	0.05
714.793	0.1
714.974	0.16
715.154	0.27
715.334	0.2
715.515	0.22
715.695	0.05
715.876	0.18
716.056	0.11
716.236	0.12
716.417	0.14
716.597	0.07
716.777	0.3
716.957	0.16
717.138	0.16
717.318	0.18
717.498	0.07
717.678	0.14
717.859	0.16
718.039	0.08
718.219	0.18
718.399	0.2
718.579	0.02
718.759	0.1
718.939	0.21
719.12	0.18
719.3	0.12
719.48	-0
719.66	0.09
719.84	0.23
720.02	0.17
720.2	0.18
720.38	0.12
720.56	0.22
720.74	0.11
720.92	0.19
721.1	0.18
721.279	0.24
721.459	0.17
721.639	0.07
721.819	0.18
721.999	0.16
722.179	0.2
722.359	0.02
722.538	0.16
722.718	0.09
722.898	0.11
723.078	0.13
723.257	0.09
723.437	0.15
723.617	0.12
723.797	0.09
723.976	0.14
724.156	0.19
724.336	0.18
724.515	0.32
724.695	0.06
724.874	0.16
725.054	0.24
725.234	0.08
725.413	0.16
725.593	0.06
725.772	0.12
725.952	0.12
726.131	0.11
726.311	0.11
726.49	0.14
726.67	0.04
726.849	0.09
727.028	0.15
727.208	0.1
727.387	0.14
727.567	-0.05
727.746	0.11
727.925	-0.04
728.105	0.08
728.284	0.07
728.463	-0.15
728.643	0.19
728.822	0.03
729.001	0.02
729.18	0.12
729.359	0.15
729.539	0.2
729.718	0.11
729.897	0.17
730.076	0.11
730.255	0.05
730.434	0.17
730.614	0.2
730.793	0.28
730.972	0.09
731.151	0.1
731.33	0.18
731.509	0.28
731.688	0.12
731.867	0.11
732.046	0.01
732.225	0.38
732.404	0.1
732.583	0.09
732.762	0.1
732.941	0.26
733.12	0.11
733.298	0.16
733.477	0.18
733.656	0.06
733.835	-0.01
734.014	0.24
734.193	0.13
734.371	0.19
734.55	0.08
734.729	0.02
734.908	0.14
735.086	0.21
735.265	0.19
735.444	0.02
735.623	0.09
735.801	0.05
735.98	0.23
736.159	0.18
736.337	0.15
736.516	0.14
736.694	0.14
736.873	0.04
737.052	0.26
737.23	0.25
737.409	0.14
737.587	0.31
737.766	-0
737.944	-0
738.123	0.17
738.301	0.24
738.479	0.14
738.658	0.18
738.836	-0.07
739.015	0.13
739.193	0.23
739.371	-0
739.55	0.17
739.728	-0.12
739.906	0.24
740.085	0.27
740.263	0.08
740.441	0
740.62	0.37
740.798	0.27
740.976	0.1
741.154	0.01
741.332	0.19
741.511	-0.02
741.689	0.18
741.867	0.22
742.045	0.16
742.223	0.16
742.401	0.02
742.579	0.06
742.757	0.14
742.935	0.05
743.114	0.07
743.292	0.08
743.47	0.16
743.648	0.15
743.826	0.14
744.004	0.19
744.181	0.19
744.359	0.14
744.537	0.12
744.715	0.12
744.893	0.09
745.071	0.16
745.249	0.15
745.427	0.05
745.605	0.23
745.782	0.06
745.96	0.12
746.138	0.19
746.316	0.34
746.493	0.16
746.671	0.18
746.849	0.13
747.027	0.3
747.204	-0
747.382	0.25
747.56	0.08
747.737	0.12
747.915	0.11
748.093	0.13
748.27	0.07
748.448	0.09
748.625	-0.03
748.803	0.17
748.98	0.09
749.158	0.13
749.335	0.25
749.513	0.13
749.69	0.07
749.868	0.09
750.045	0.15
750.223	0.06
750.4	-0.05
750.578	0.31
750.755	0.13
750.932	-0.01
751.11	0.23
751.287	0.04
751.464	0.21
751.642	0.06
751.819	0.21
751.996	0.12
752.173	0.05
752.351	0.05
752.528	0.13
752.705	0.11
752.882	0.02
753.06	0.13
753.237	0.18
753.414	0.25
753.591	0.37
753.768	0.17
753.945	-0.02
754.122	0.1
754.299	0.16
754.476	0.05
754.654	0.04
754.831	0.2
755.008	0.23
755.185	0.16
755.362	0.06
755.539	0.19
755.716	0.1
755.892	0.06
756.069	0.14
756.246	0.15
756.423	0.08
756.6	0.2
756.777	0.1
756.954	0.15
757.131	0.07
757.307	0.12
757.484	-0.03
757.661	0.21
757.838	0.19
758.015	-0.04
758.191	0.19
758.368	0.23
758.545	0.19
758.721	0.24
758.898	0.04
759.075	0.14
759.251	0.23
759.428	0.12
759.605	-0.06
759.781	0.12
759.958	0.25
760.134	0.16
760.311	0.05
760.488	0.19
760.664	0.23
760.841	0.15
761.017	-0.02
761.194	0.23
761.37	0.24
761.547	0.11
761.723	0.1
761.899	0.22
762.076	0.1
762.252	-0.02
762.429	0.08
762.605	0.21
762.781	0.02
762.958	0.12
763.134	0.18
763.31	0.12
763.486	0.19
763.663	0.09
763.839	0.13
764.015	-0.03
764.191	0.07
764.368	0.12
764.544	0.01
764.72	0.11
764.896	0.29
765.072	0.16
765.248	0.17
765.425	0.02
765.601	0.19
765.777	0.12
765.953	-0.03
766.129	0.04
766.305	0.08
766.481	0.25
766.657	0.13
766.833	0.38
767.009	0.06
767.185	-0.06
767.361	0.02
767.537	-0.13
767.713	0.31
767.889	0.09
768.065	0.26
768.24	-0.01
768.416	0.2
768.592	0.16
768.768	0.16
768.944	0.12
769.12	0.03
769.295	0.07
769.471	0.05
769.647	0.12
769.823	0.29
769.998	0.11
770.174	0.21
770.35	0.35
770.525	0.32
770.701	0.15
770.877	0.08
771.052	0.02
771.228	0.24
771.403	0.19
771.579	0.26
771.755	0.34
771.93	0.12
772.106	-0.04
772.281	-0.04
772.457	0.22
772.632	0.12
772.808	0.03
772.983	0.07
773.159	0.03
773.334	0.08
773.509	0.07
773.685	0.09
773.86	0.42
774.036	0.29
774.211	0.25
774.386	0.16
774.562	0.13
774.737	0.14
774.912	-0.07
775.087	0.24
775.263	0.18
775.438	0.14
775.613	0.12
775.788	0.19
775.964	0.31
776.139	0.5
776.314	-0.03
776.489	0.23
776.664	0.18
776.839	0.05
777.014	0.3
777.19	0.4
777.365	0.29
777.54	0.59
777.715	0.11
777.89	0.2
778.065	0.01
778.24	0.13
778.415	0.32
778.59	0.15
778.765	0.17
778.94	0.09
779.115	0.03
779.289	0.03
779.464	0.11
779.639	0.07
779.814	0.02
779.989	0.06
780.164	0.36
780.339	0.08
780.513	0.11
780.688	0.02
780.863	0.11
781.038	0.37
781.212	0.12
781.387	0.23
781.562	0.47
781.737	0.04
781.911	0.33
782.086	0
782.261	0.23
782.435	0.44
782.61	-0.06
782.784	0.09
782.959	0.33
783.134	0.04
783.308	0.06
783.483	0.2
783.657	0.72
783.832	0.26
784.006	-0.02
784.181	0.02
784.355	0.29
784.53	-0.14
784.704	0.13
784.878	0.51
785.053	0.18
785.227	0.33
785.402	0.59
785.576	0.11
785.75	0.28
785.925	0.32
786.099	0.4
786.273	0.23
786.448	0.22
786.622	0.27
786.796	0.2
786.97	0.16
787.145	0.59
787.319	-0.07
787.493	0.23
787.667	-0.13
787.841	0.09
788.015	0.39
788.19	0.3
788.364	0.26
788.538	0.31
788.712	0.32
788.886	0.23
789.06	0.35
789.234	0.31
789.408	0.1
789.582	0.08
789.756	0.19
789.93	-0.07
790.104	0.1
790.278	0.22
790.452	0.01
790.626	0.22
790.8	-0.01
790.973	0.24
791.147	0.62
791.321	0.67
791.495	0.41
791.669	0.16
791.843	0.48
792.016	0.21
792.19	0.74
792.364	-0.13
792.538	0.64
792.711	0.37
792.885	0.06
793.059	0.05
793.233	-0.21
793.406	0.55
793.58	0.24
793.754	0.18
793.927	0.3
794.101	0.57
794.274	0.16
794.448	0.36
794.622	-0.03
794.795	0.4
794.969	0.13
795.142	0.56
795.316	0.13
795.489	0.15
795.663	0.49
795.836	0.28
796.009	-0.08
796.183	0.74
796.356	0.49
796.53	0.28
796.703	0.19
796.876	0.45
797.05	0.19
797.223	0.5
797.396	0.22
797.57	0.13
797.743	0.33
797.916	0.12
798.09	0.24
798.263	0.41
798.436	0.27
798.609	0.1
798.782	0.08
798.956	0.21
799.129	0.24
799.302	0.19
799.475	-0.03
799.648	-0.14
799.821	0.09
799.994	0.3
800.167	-0.16
800.34	0.3
800.514	0.35
800.687	0.3
800.86	0.13
801.033	0.31
801.206	0.37
801.379	0.08
801.551	0.36
801.724	0.59
801.897	0.74
802.07	0.12
802.243	-0.26
802.416	0.34
802.589	0.33
802.762	0.4
802.935	0.27
803.107	0.35
803.28	0.44
803.453	0.68
803.626	0.05
803.798	0.34
803.971	0.1
804.144	0.02
804.317	0.25
804.489	0.42
804.662	0.15
804.835	0.33
805.007	0.11
805.18	0.62
805.353	0.21
805.525	0.06
805.698	0.18
805.87	0.68
806.043	0.66
806.215	-0.06
806.388	0.04
806.56	0.35
806.733	0.6
806.905	0.41
807.078	-0.18
807.25	0.17
807.423	0.62
807.595	0.07
807.768	0.15
807.94	0.58
808.112	0.49
808.285	0.68
808.457	0.39
808.629	0.22
808.802	0.43
808.974	0
809.146	0
809.318	0.24
809.491	0.39
809.663	0.37
809.835	0.29
810.007	0.35
810.18	0.64
810.352	0.09
810.524	0.5
810.696	0.38
810.868	0.57
811.04	0.12
811.212	0.02
811.384	0.4
811.556	0.3
811.728	0.29
811.901	0.83
812.073	0.32
812.245	0.25
812.417	0.33
812.589	-0.44
812.76	0.69
812.932	0.38
813.104	0.64
813.276	0.34
813.448	0.36
813.62	0.51
813.792	0.53
813.964	0.03
814.136	0.63
814.307	0.26
814.479	-0.2
814.651	0.35
814.823	1.01
814.995	0.5
815.166	0.14
815.338	0.35
815.51	-0.09
815.681	1.2
815.853	0.28
816.025	0.64
816.196	0.96
816.368	0.57
816.54	0.15
816.711	-0.08
816.883	0.89
817.054	0.72
817.226	-0.26
817.398	0.64
817.569	0.19
817.741	0.41
817.912	-0.08
818.084	0.23
818.255	0.2
818.426	0.26
818.598	0.83
818.769	0.25
818.941	0.34
819.112	0.86
819.283	0.44
819.455	0.19
819.626	0.3
819.798	0.71
819.969	-0.07
820.14	0.35
820.311	0.29
820.483	0.23
820.654	0.74
820.825	0.73
820.996	0.37
821.168	-0.05
821.339	0.07
821.51	0.02
821.681	0.34
821.852	0.18
822.023	0.42
822.195	-0.36
822.366	0.9
822.537	0.24
822.708	0.45
822.879	0.14
823.05	0.84
823.221	0.67
823.392	0.44
823.563	0.6
823.734	0.3
823.905	-0.11
824.076	0.32
824.247	0.1
824.418	0.02
824.589	0.89
824.759	0.33
824.93	0.03
825.101	-0.28
825.272	1.06
825.443	0.56
825.614	1.13
825.784	0.02
825.955	1.31
826.126	1.2
826.297	0.81
826.467	0.46
826.638	1.01
826.809	-0.03
826.98	0.68
827.15	0.81
827.321	-0.12
827.492	1.26
827.662	0.32
827.833	1.44
828.003	0.99
828.174	0.18
828.345	-0.26
828.515	1.36
828.686	1.49
828.856	0.63
829.027	0.52
829.197	0.42
829.368	0.63
829.538	0.21
829.709	-0.11
829.879	0.98
830.049	0.58
830.22	-0
830.39	0.62
830.56	1.06
830.731	0.07
830.901	-0.03
831.072	1.02
831.242	0.41
831.412	0.48
831.582	0.12
831.753	0.31
831.923	0.62
832.093	0.61
832.263	1.06
832.434	-0.42
832.604	0.4
832.774	0.47
832.944	0.5
833.114	0.11
833.284	0.94
833.454	-0.82
833.624	-0.24
833.795	-0.17
833.965	0.77
834.135	0.2
834.305	0.05
834.475	-0.21
834.645	0.68
834.815	0.24
834.985	0.07
835.155	0.27
835.325	0.82
835.494	0.89
835.664	0.27
835.834	0.09
836.004	0.75
836.174	0.87
836.344	0.47
836.514	0.06
836.684	0.41
836.853	1.27
837.023	0.53
837.193	0.02
837.363	1.07
837.532	1.58
837.702	0.37
837.872	0.4
838.041	0.81
838.211	1.87
838.381	-0.33
838.55	0.77
838.72	2.42
838.89	1.47
839.059	0.18
839.229	-0.07
839.398	2.3
839.568	0.24
839.738	0.4
839.907	1.96
840.077	0.79
840.246	1.29
840.416	0.05
840.585	0
840.755	2.38
840.924	1.64
841.093	0.4
841.263	0.36
841.432	0.95
841.602	1
841.771	0.47
841.94	0.83
842.11	2.59
842.279	1.83
842.448	0.58
842.617	0.36
842.787	2.05
842.956	-0.24
843.125	1.08
843.294	0.8
843.464	1.29
843.633	0.77
843.802	-0.39
843.971	0.99
844.14	0.44
844.309	1.27
844.479	-0.35
844.648	0.01
844.817	0.18
844.986	1.15
845.155	0.39
845.324	0.04
845.493	0.69
845.662	0.09
845.831	0.63
846	1.24
846.169	0.35
846.338	1.36
846.507	0.57
846.676	0.68
846.844	0.98
847.013	1.55
847.182	1.59
847.351	0.09
847.52	-0.03
847.689	0.86
847.858	1.54
848.026	0.48
848.195	1.07
848.364	0.5
848.533	0.29
848.701	0.22
848.87	-0.06
849.039	1.43
849.207	1.57
849.376	0.83
849.545	2.01
849.713	0.07
849.882	0.65
850.051	0.9
850.219	1.1
850.388	1.68
850.556	0.62
850.725	0.3
850.893	1.18
851.062	0.83
851.23	1.62
851.399	-0.54
851.567	0.62
851.736	0.18
851.904	0.56
852.073	1.68
852.241	1.54
852.41	1.45
852.578	1.23
852.746	0.56
852.915	1.96
853.083	0.85
853.251	-0.19
853.42	1.62
853.588	1.12
853.756	1.99
853.924	0.5
854.093	0.74
854.261	1.6
854.429	0.6
854.597	1.6
854.765	-0.2
854.934	2.09
855.102	2.81
855.27	0.85
855.438	1.21
855.606	2.44
855.774	2.5
855.942	-0.58
856.11	-1.32
856.278	1.53
856.446	2.38
856.614	0.97
856.782	1.46
856.95	2.37
857.118	1.78
857.286	0.43
857.454	-0.38
857.622	2.26
857.79	2.29
857.958	-0.19
858.126	0.04
858.294	-1.65
858.462	1.8
858.629	0.43
858.797	-0.45
858.965	0.8
859.133	1.63
859.301	0.65
859.468	1.16
859.636	0.45
859.804	2.33
859.971	2.68
860.139	0.54
860.307	2
860.474	1.72
860.642	1.06
860.81	0.85
860.977	0.08
861.145	2.44
861.313	0.89
861.48	-0.13
861.648	1.48
861.815	1.24
861.983	-0.63
862.15	0.9
862.318	2.46
862.485	2.33
862.653	0.33
862.82	-0.68
862.988	2.97
863.155	1.96
863.322	0.92
863.49	0.38
863.657	-0.5
863.824	2.67
863.992	1.3
864.159	1.39
864.326	3.64
864.494	1.65
864.661	4.19
864.828	0.35
864.996	1.98
865.163	1.5
865.33	-0.35
865.497	-0.11
865.664	2.04
865.832	-0.65
865.999	0.82
866.166	-0.53
866.333	0.09
866.5	0.03
866.667	1.94
866.834	0.39
867.001	3.12
867.168	0.57
867.335	1.49
867.502	-1.08
867.669	0.94
867.836	3
868.003	2.08
868.17	2
868.337	2.4
868.504	2.37
868.671	0.08
868.838	0.56
869.005	1.6
869.172	2.12
869.339	0.49
869.505	0.93
869.672	-0.86
869.839	2.98
870.006	2.74
870.173	-0.11
870.339	2.43
870.506	3.24
870.673	0.07
870.84	2.66
871.006	0.34
871.173	-0.65
871.34	1.67
871.506	0.28
871.673	0.98
871.839	-0.39
872.006	1.36
872.173	1.19
872.339	1.36
872.506	2.87
872.672	0.62
872.839	-1.03
873.005	1.2
873.172	4.39
873.338	2.81
873.505	1.53
873.671	0.78
873.838	2.09
874.004	0.18
874.171	0.38
874.337	1.75
874.503	2.6
874.67	1.23
874.836	1.35
875.002	4.17
875.169	3.18
875.335	0.84
875.501	2.37
875.668	1.85
875.834	2.61
876	1.77
876.166	3.74
876.332	3.34
876.499	4.75
876.665	0.11
876.831	0.43
876.997	4.86
877.163	2.65
877.329	1.1
877.495	2.2
877.662	1.98
877.828	4.16
877.994	1.7
878.16	0.41
878.326	1.15
878.492	1.36
878.658	0.73
878.824	2.29
878.99	1.44
879.156	-0.83
879.322	5.74
879.487	0.98
879.653	1.82
879.819	2.41
879.985	1.79
880.151	2.3
880.317	0.38
880.483	1.43
880.648	2.34
880.814	-1.28
880.98	1.66
881.146	-2.77
881.312	1.15
881.477	1.43
881.643	2.17
881.809	2.74
881.974	2.64
882.14	-0.56
882.306	0.38
882.471	4.19
882.637	-0.61
882.803	2.09
882.968	3.09
883.134	4.57
883.299	1.9
883.465	1.37
883.63	3.35
883.796	3.23
883.961	2.94
884.127	1.88
884.292	-1.98
884.458	1.08
884.623	1.08
