Data from Apollo_Calib_20240827__AbsoluteIrradiance__602__09-11-00-989.txt Node

Date: Wed Aug 28 09:11:00 BST 2024
User: biology
Spectrometer: FLMT08252
Trigger mode: 0
Integration Time (sec): 5.000000E-1
Scans to average: 5
Electric dark correction enabled: true
Nonlinearity correction enabled: false
Boxcar width: 0
XAxis mode: Wavelengths
Number of Pixels in Spectrum: 3648
>>>>>Begin Spectral Data<<<<<
179.588	-0
179.809	-0
180.03	-0
180.251	-0
180.473	-0
180.694	0
180.915	0
181.136	-0
181.357	-0
181.578	-0
181.799	-0
182.02	-0
182.241	0
182.462	-0
182.683	0
182.904	-0
183.125	-0
183.346	0
183.567	0
183.788	0
184.009	-0
184.23	0
184.451	0
184.672	-0
184.892	-0
185.113	0
185.334	0
185.555	0
185.776	0
185.996	0
186.217	0
186.438	0
186.659	0
186.879	0
187.1	0
187.321	0
187.541	0
187.762	0
187.983	0
188.203	0
188.424	0
188.644	0
188.865	0
189.086	0
189.306	0
189.527	0
189.747	0
189.968	0
190.188	0
190.409	0
190.629	0
190.849	-0
191.07	0
191.29	0
191.511	0
191.731	0
191.951	0
192.172	0
192.392	0
192.612	0
192.833	0
193.053	0
193.273	0
193.493	0
193.714	0
193.934	0
194.154	0
194.374	0
194.594	0
194.815	0
195.035	0
195.255	0
195.475	0
195.695	0
195.915	0
196.135	0
196.355	0
196.575	0
196.795	0
197.015	0
197.235	0
197.455	0
197.675	0
197.895	0
198.115	-0
198.335	0
198.555	0
198.775	0
198.995	0
199.214	0
199.434	0
199.654	0
199.874	0
200.094	1.5
200.313	0.6
200.533	0.79
200.753	0.56
200.973	1.49
201.192	1.8
201.412	0.19
201.632	0.25
201.851	1.5
202.071	0.19
202.291	0.62
202.51	0
202.73	1.15
202.95	-0
203.169	0.32
203.389	0.3
203.608	0.8
203.828	-0.13
204.047	0.76
204.267	1.04
204.486	0.77
204.706	1
204.925	0.8
205.145	0.39
205.364	0.86
205.583	1.47
205.803	0.51
206.022	0.23
206.242	0.54
206.461	0.74
206.68	0.37
206.9	0.56
207.119	1.22
207.338	0.72
207.557	0.53
207.777	0.71
207.996	0.26
208.215	1.13
208.434	0.2
208.654	-0.02
208.873	0.66
209.092	0.89
209.311	0.3
209.53	0.53
209.749	0.38
209.968	0.05
210.187	0.51
210.407	-0.05
210.626	0.18
210.845	0.6
211.064	0.41
211.283	0.05
211.502	0.74
211.721	0.37
211.94	0.45
212.159	0.43
212.377	0.52
212.596	0.59
212.815	0.47
213.034	0.46
213.253	0.76
213.472	0.48
213.691	0.35
213.91	0.06
214.128	0.22
214.347	0.58
214.566	-0.18
214.785	-0.11
215.003	0.65
215.222	0.47
215.441	0.05
215.66	0.04
215.878	0.32
216.097	0.49
216.316	0.05
216.534	0.38
216.753	0.44
216.972	0.11
217.19	0.17
217.409	0.08
217.627	0
217.846	0.2
218.064	0.42
218.283	0.19
218.501	0.68
218.72	0.44
218.938	0.05
219.157	0.06
219.375	0.51
219.594	0.18
219.812	0.09
220.031	0.24
220.249	0.6
220.467	0.55
220.686	0.11
220.904	0.05
221.122	0.14
221.341	0.45
221.559	0.19
221.777	-0.03
221.995	0.1
222.214	0.48
222.432	0.13
222.65	0.35
222.868	0.36
223.086	0.4
223.305	0.32
223.523	0.31
223.741	0.56
223.959	0.18
224.177	0.07
224.395	0.27
224.613	0.33
224.831	0.4
225.049	0.07
225.267	0.2
225.485	0.2
225.703	0.28
225.921	0.24
226.139	0.07
226.357	0.35
226.575	0.1
226.793	0.17
227.011	0.54
227.229	0.23
227.447	0.32
227.665	0.09
227.883	0.01
228.1	0.18
228.318	0.18
228.536	0.04
228.754	0.09
228.972	0.29
229.189	0.27
229.407	0.21
229.625	0.24
229.843	0.48
230.06	0.32
230.278	0.19
230.496	0.21
230.713	0.29
230.931	0.47
231.149	0.01
231.366	-0.08
231.584	0.22
231.801	0.4
232.019	0.23
232.236	0.09
232.454	0.02
232.671	0.17
232.889	0.14
233.106	0.05
233.324	0.21
233.541	0.21
233.759	0.18
233.976	0.13
234.194	0.14
234.411	0.27
234.628	0.05
234.846	0.15
235.063	0.18
235.28	0.11
235.498	0.08
235.715	0.06
235.932	0.24
236.149	0.25
236.367	0.12
236.584	0.12
236.801	0.08
237.018	0.2
237.236	0.1
237.453	-0.03
237.67	0.34
237.887	0.2
238.104	0.21
238.321	0.11
238.538	0.1
238.755	0.22
238.973	-0.03
239.19	0.09
239.407	0.24
239.624	0.22
239.841	0.04
240.058	0.07
240.275	0.17
240.492	0.23
240.709	0.12
240.925	0.09
241.142	0.18
241.359	0.11
241.576	-0.03
241.793	0.11
242.01	0.13
242.227	0.29
242.444	0.28
242.66	0.29
242.877	0.16
243.094	0.06
243.311	0.16
243.527	0.18
243.744	0.14
243.961	0.3
244.178	0.08
244.394	0.13
244.611	0.28
244.828	0.31
245.044	0.03
245.261	0.16
245.477	0.19
245.694	0.21
245.911	0.08
246.127	0.15
246.344	0.24
246.56	0.2
246.777	0.13
246.993	0.15
247.21	0.18
247.426	0.15
247.643	0.05
247.859	0.05
248.076	0.12
248.292	0.37
248.508	0.15
248.725	0.16
248.941	0.18
249.157	0.32
249.374	0.06
249.59	0.11
249.806	0.1
250.023	0.17
250.239	0.01
250.455	0.08
250.671	0.07
250.888	0.17
251.104	0.17
251.32	0.07
251.536	0.13
251.752	0.1
251.969	0.07
252.185	0.09
252.401	0.35
252.617	0.13
252.833	0.13
253.049	0.17
253.265	0.13
253.481	0.18
253.697	0.02
253.913	0.03
254.129	0.18
254.345	0.04
254.561	0.12
254.777	0.13
254.993	0.23
255.209	0.18
255.425	0.09
255.641	0.04
255.857	0.22
256.073	0.13
256.288	0.1
256.504	0.04
256.72	0.13
256.936	0.26
257.152	0.1
257.367	0.05
257.583	0.11
257.799	0.26
258.015	0.04
258.23	0.08
258.446	0.38
258.662	0.11
258.877	0.07
259.093	0.04
259.309	0.08
259.524	0.2
259.74	0.14
259.955	0.01
260.171	0.05
260.387	0.19
260.602	0.21
260.818	0.17
261.033	0.05
261.249	0.03
261.464	0.05
261.68	0.01
261.895	0.19
262.11	0.21
262.326	0.04
262.541	-0.02
262.757	0.15
262.972	0.18
263.187	0.14
263.403	0.11
263.618	0.17
263.833	0.11
264.049	0.04
264.264	0.11
264.479	0.19
264.694	0.21
264.91	-0.03
265.125	0.11
265.34	0.18
265.555	0.24
265.77	0.17
265.986	0.07
266.201	0.14
266.416	0.15
266.631	0.07
266.846	0.12
267.061	0.15
267.276	0.13
267.491	0.01
267.706	0.11
267.921	0.17
268.136	0.19
268.351	0.09
268.566	0.01
268.781	0.15
268.996	0.13
269.211	0.09
269.426	0.03
269.641	0.11
269.856	0.17
270.071	0.01
270.285	0.06
270.5	0.14
270.715	0.2
270.93	0.05
271.145	0.08
271.359	0.17
271.574	0.08
271.789	0.1
272.004	0.01
272.218	0.1
272.433	0.15
272.648	0.08
272.862	0.15
273.077	0.06
273.292	0.1
273.506	0.01
273.721	0.12
273.936	0.23
274.15	0.12
274.365	0.09
274.579	0.16
274.794	0.15
275.008	0.09
275.223	-0.01
275.437	0.07
275.652	0.17
275.866	0.15
276.081	0.12
276.295	0.12
276.509	0.1
276.724	0.11
276.938	0.16
277.153	0.08
277.367	0.16
277.581	0.05
277.796	0.11
278.01	0.05
278.224	0.12
278.438	0.23
278.653	0
278.867	0.03
279.081	-0.04
279.295	0.07
279.51	0.13
279.724	-0.03
279.938	0.11
280.152	0.13
280.366	0.04
280.58	0.07
280.794	0.2
281.008	0.16
281.222	0.13
281.437	0.17
281.651	0.1
281.865	0.17
282.079	0.05
282.293	-0.02
282.507	0.09
282.721	0.11
282.935	0.11
283.148	0.02
283.362	0.11
283.576	0.07
283.79	0.06
284.004	0.01
284.218	0.15
284.432	0.06
284.646	0.13
284.859	0.07
285.073	0.07
285.287	0.09
285.501	0.08
285.714	0.05
285.928	0.07
286.142	0.07
286.356	0.03
286.569	0.05
286.783	0.15
286.997	0.14
287.21	0.1
287.424	0.13
287.637	0.03
287.851	0.1
288.065	0.13
288.278	0.1
288.492	0.12
288.705	0.1
288.919	0.12
289.132	0.02
289.346	0.14
289.559	0.01
289.773	0.01
289.986	0.09
290.2	0.03
290.413	0.14
290.626	-0.02
290.84	0.08
291.053	0.08
291.267	0.14
291.48	0.07
291.693	0.11
291.906	0.08
292.12	0.09
292.333	0.04
292.546	0.07
292.76	0.14
292.973	0.11
293.186	0.11
293.399	0.04
293.612	0.12
293.826	0.12
294.039	0.06
294.252	0.09
294.465	0.1
294.678	0.08
294.891	0.06
295.104	0.07
295.317	0.07
295.53	0.05
295.743	0.08
295.956	0.07
296.169	0.13
296.382	0.1
296.595	0.07
296.808	0.08
297.021	0.15
297.234	0.11
297.447	0.06
297.66	0.1
297.873	0.13
298.086	0.12
298.299	0.07
298.511	0.04
298.724	0.06
298.937	0.03
299.15	0.09
299.363	0.09
299.575	0.14
299.788	0.1
300.001	0.07
300.213	0.02
300.426	0.08
300.639	0.08
300.852	0.05
301.064	0.1
301.277	0.16
301.489	0.13
301.702	0.11
301.915	0.09
302.127	0.08
302.34	0.08
302.552	0.12
302.765	0.05
302.977	0.14
303.19	0.07
303.402	0.07
303.615	0.07
303.827	0.05
304.04	0.03
304.252	0.09
304.464	0.04
304.677	0.16
304.889	0.06
305.102	0.04
305.314	0.04
305.526	0.08
305.739	0.09
305.951	0.05
306.163	0.07
306.375	0.13
306.588	0.05
306.8	0.05
307.012	0.05
307.224	0.07
307.436	0.08
307.649	0
307.861	0.09
308.073	0.09
308.285	0.05
308.497	0.04
308.709	0.05
308.921	0.04
309.133	0.17
309.346	0.06
309.558	0.05
309.77	0.09
309.982	0.12
310.194	0.12
310.406	0.04
310.617	0.14
310.829	0.05
311.041	0.09
311.253	0
311.465	0.05
311.677	0.09
311.889	0.08
312.101	0.07
312.313	0.1
312.524	0.1
312.736	0.01
312.948	0.03
313.16	0.18
313.372	0.11
313.583	0.12
313.795	0.09
314.007	0.06
314.218	0.11
314.43	0.1
314.642	0
314.853	0.01
315.065	0.07
315.277	0.07
315.488	0.07
315.7	0.11
315.912	0.08
316.123	0.06
316.335	0.08
316.546	0.14
316.758	0.1
316.969	0.04
317.181	0.07
317.392	0.07
317.604	0.12
317.815	0.03
318.026	0.05
318.238	0.05
318.449	0.09
318.661	-0.03
318.872	0.01
319.083	0.03
319.295	0.08
319.506	0.04
319.717	0.07
319.929	0.08
320.14	0.07
320.351	0.1
320.562	0.05
320.774	0.11
320.985	0.09
321.196	0.05
321.407	0.04
321.618	0.1
321.829	0.1
322.041	0.11
322.252	0.08
322.463	0.09
322.674	0.03
322.885	0.01
323.096	0.06
323.307	0.04
323.518	0.08
323.729	0.08
323.94	0.03
324.151	0.06
324.362	0.13
324.573	0.06
324.784	0.08
324.995	0.13
325.206	0.09
325.417	0.02
325.628	0.06
325.838	0.06
326.049	0.09
326.26	0.06
326.471	0.05
326.682	0.12
326.892	0.05
327.103	0.01
327.314	0.06
327.525	0.11
327.735	0.11
327.946	0.07
328.157	0.06
328.368	0.07
328.578	0.04
328.789	0.11
328.999	0.05
329.21	0.09
329.421	0.1
329.631	0.03
329.842	0.04
330.052	0.12
330.263	0.13
330.473	0.08
330.684	0.01
330.894	0.06
331.105	0.07
331.315	0.06
331.526	0.01
331.736	0.11
331.947	0.05
332.157	0.12
332.367	0.02
332.578	0.07
332.788	0.14
332.999	0.09
333.209	0.07
333.419	0.03
333.629	0.13
333.84	0.06
334.05	0.05
334.26	0.14
334.47	0.07
334.681	0.12
334.891	0.04
335.101	0.1
335.311	0.14
335.521	0.09
335.732	0.02
335.942	0.12
336.152	0.1
336.362	0.11
336.572	0.05
336.782	0.08
336.992	0.1
337.202	0.05
337.412	0.05
337.622	0.1
337.832	0.08
338.042	0.09
338.252	0.03
338.462	0.08
338.672	0.06
338.882	0.01
339.092	0.06
339.302	0.16
339.511	0.1
339.721	0.03
339.931	0.02
340.141	0.13
340.351	0.13
340.561	0.1
340.77	0.06
340.98	0.09
341.19	0.09
341.4	0.03
341.609	0.05
341.819	0.03
342.029	0.03
342.238	0.07
342.448	0.04
342.658	0.11
342.867	0.1
343.077	0.09
343.286	0.09
343.496	0.07
343.706	0.12
343.915	0.06
344.125	0.09
344.334	0.09
344.544	0.02
344.753	0.05
344.963	0.04
345.172	0.05
345.381	0.05
345.591	0.04
345.8	0.07
346.01	0.12
346.219	0.11
346.428	-0.07
346.638	0.06
346.847	0.06
347.056	0.1
347.266	0.06
347.475	0.08
347.684	0.11
347.893	0.09
348.103	0.08
348.312	0.04
348.521	0.1
348.73	0.06
348.94	0.08
349.149	0.05
349.358	0.08
349.567	0.06
349.776	0.01
349.985	0.04
350.194	0.08
350.403	0.14
350.612	0.01
350.821	0.05
351.03	0.06
351.239	0.06
351.448	0.1
351.657	0.04
351.866	0.11
352.075	0.05
352.284	0.11
352.493	0.04
352.702	0.11
352.911	0.07
353.12	0.03
353.329	0.03
353.538	0.09
353.746	0.03
353.955	0.07
354.164	0.07
354.373	0.03
354.582	0.1
354.79	0.08
354.999	0.09
355.208	0.08
355.416	0.11
355.625	0.03
355.834	0.06
356.042	0.07
356.251	0.04
356.46	0.03
356.668	0.05
356.877	0.16
357.085	0.1
357.294	-0.04
357.503	0.11
357.711	0.05
357.92	0.15
358.128	0.09
358.337	0.04
358.545	0.09
358.754	0.06
358.962	0.11
359.17	0.05
359.379	0.06
359.587	0.09
359.796	0.09
360.004	0.12
360.212	0.08
360.421	0.09
360.629	0.05
360.837	0.04
361.046	0.06
361.254	0.15
361.462	0.08
361.67	0.02
361.879	0.07
362.087	0.11
362.295	0.11
362.503	0.02
362.711	-0.02
362.92	0.05
363.128	0.02
363.336	0.03
363.544	-0.02
363.752	0.05
363.96	0.05
364.168	0.03
364.376	0.07
364.584	0.06
364.792	0.14
365	0.12
365.208	0.05
365.416	0.07
365.624	0.12
365.832	0.03
366.04	0.12
366.248	0.09
366.456	0.06
366.664	0.11
366.872	0.06
367.079	0.08
367.287	0.08
367.495	0.07
367.703	0.07
367.911	0.06
368.118	0.05
368.326	0.04
368.534	0.04
368.742	0.12
368.949	0.04
369.157	0
369.365	0.07
369.572	0.03
369.78	0.03
369.988	0.13
370.195	0.08
370.403	0.09
370.61	0.06
370.818	0.06
371.026	0.14
371.233	0.06
371.441	0.05
371.648	0.05
371.856	0.06
372.063	0.08
372.271	0.06
372.478	0.07
372.685	0.03
372.893	0.11
373.1	0.04
373.308	0.07
373.515	0.15
373.722	0.09
373.93	0.07
374.137	0.09
374.344	0.13
374.552	0.12
374.759	0.09
374.966	0.08
375.173	0.06
375.381	0.09
375.588	0.04
375.795	0.02
376.002	0.03
376.209	0.03
376.417	0.02
376.624	0.09
376.831	0.08
377.038	0.04
377.245	0.02
377.452	0
377.659	0.06
377.866	0.01
378.073	0.05
378.28	0.07
378.487	0.07
378.694	0.09
378.901	0.04
379.108	-0.01
379.315	0.12
379.522	0.17
379.729	0.05
379.936	0.06
380.143	0.05
380.35	0.04
380.557	0.01
380.763	0.07
380.97	0.03
381.177	0.1
381.384	0.1
381.591	0.04
381.797	0.05
382.004	0.04
382.211	0.1
382.418	0.01
382.624	0.11
382.831	0.08
383.038	0.04
383.244	0.06
383.451	0.06
383.658	0.08
383.864	0.02
384.071	0.05
384.277	0.15
384.484	0.04
384.69	0.12
384.897	0.09
385.103	0.06
385.31	0.05
385.516	0.1
385.723	0.06
385.929	0.04
386.136	0.03
386.342	0.06
386.549	0.02
386.755	0.14
386.961	0.07
387.168	0.06
387.374	0.05
387.58	0.08
387.787	0.04
387.993	0.08
388.199	0.03
388.406	0.03
388.612	0.06
388.818	0.03
389.024	0.05
389.231	0.11
389.437	0.14
389.643	0.1
389.849	0.07
390.055	0.08
390.261	0.09
390.467	0.05
390.674	0.02
390.88	0.07
391.086	0.08
391.292	0.03
391.498	0.1
391.704	0.06
391.91	0.03
392.116	0.08
392.322	-0.01
392.528	0.07
392.734	0.04
392.94	0.05
393.146	0.05
393.352	0.05
393.557	0.04
393.763	0.1
393.969	0.08
394.175	0.07
394.381	0.04
394.587	0.02
394.792	0.07
394.998	0.11
395.204	0.11
395.41	0.05
395.615	0.06
395.821	0.06
396.027	0.14
396.233	0.04
396.438	0.04
396.644	0.12
396.85	0.1
397.055	0.07
397.261	0.04
397.466	0.04
397.672	0.08
397.878	0.1
398.083	0.11
398.289	0.02
398.494	0.11
398.7	0.05
398.905	-0.04
399.111	0.13
399.316	-0.01
399.522	0.02
399.727	0.06
399.932	0.02
400.138	0.05
400.343	0.11
400.549	0.06
400.754	0.08
400.959	0.08
401.165	0.07
401.37	0.1
401.575	-0.01
401.78	0.09
401.986	0.05
402.191	0.06
402.396	0.05
402.601	0.08
402.807	0.09
403.012	0.08
403.217	0.12
403.422	0.05
403.627	0.07
403.832	0.04
404.037	0.11
404.243	0.05
404.448	0.02
404.653	0.03
404.858	0.09
405.063	0.07
405.268	0.07
405.473	0.02
405.678	0.03
405.883	0.16
406.088	0.1
406.293	-0
406.498	0
406.703	0.11
406.907	0.05
407.112	0
407.317	0.07
407.522	0.1
407.727	0.01
407.932	0.04
408.136	0.15
408.341	0.06
408.546	0.07
408.751	0.12
408.956	0.02
409.16	0.07
409.365	0.06
409.57	0.02
409.774	0.04
409.979	0.1
410.184	0.04
410.388	0
410.593	0.13
410.798	0.08
411.002	0.05
411.207	0.06
411.411	0.09
411.616	0.05
411.82	0.05
412.025	0.09
412.229	0.05
412.434	0.06
412.638	0.09
412.843	0.02
413.047	0.08
413.252	0.02
413.456	0.02
413.66	0.12
413.865	0.04
414.069	0.15
414.273	0.05
414.478	0.02
414.682	0.04
414.886	0.05
415.091	0.03
415.295	-0.04
415.499	0.08
415.703	0.05
415.908	0.1
416.112	-0.03
416.316	0.11
416.52	0.09
416.724	0.01
416.929	0
417.133	0.17
417.337	0.07
417.541	0.01
417.745	0.02
417.949	0.08
418.153	0.11
418.357	-0.05
418.561	0.11
418.765	0.01
418.969	0.15
419.173	0.07
419.377	0.03
419.581	0.13
419.785	0.01
419.989	0.03
420.193	0.07
420.397	0.03
420.601	0.13
420.804	0.09
421.008	0.05
421.212	0.05
421.416	0.11
421.62	0.1
421.823	0.03
422.027	0.15
422.231	0.1
422.435	0.03
422.638	0.03
422.842	0.05
423.046	-0
423.249	0.11
423.453	0.07
423.657	0.06
423.86	0.07
424.064	0.03
424.268	0.14
424.471	0.08
424.675	0.1
424.878	0.12
425.082	0.01
425.285	0.12
425.489	0.08
425.692	0.1
425.896	0.03
426.099	0.07
426.303	-0.03
426.506	0.01
426.71	0.06
426.913	0.11
427.116	0.13
427.32	0.06
427.523	0.05
427.726	0.15
427.93	0.03
428.133	0.05
428.336	-0
428.54	0
428.743	0.12
428.946	0.06
429.149	0.03
429.353	0.07
429.556	0.09
429.759	0.05
429.962	0.03
430.165	0.07
430.368	0.05
430.571	0.09
430.775	0.09
430.978	0.05
431.181	0.09
431.384	0.07
431.587	0.05
431.79	0.1
431.993	-0.02
432.196	0.06
432.399	0.05
432.602	0.16
432.805	0.08
433.008	0.05
433.211	-0.04
433.414	0.1
433.616	0.08
433.819	0.05
434.022	-0.04
434.225	0.15
434.428	0.09
434.631	0.25
434.833	0.06
435.036	0.06
435.239	0.1
435.442	0.05
435.645	0.05
435.847	0.05
436.05	0.1
436.253	0.08
436.455	-0.01
436.658	0.09
436.861	0.15
437.063	0.02
437.266	0.05
437.468	0.05
437.671	0.18
437.874	0.09
438.076	-0.01
438.279	-0.01
438.481	0.06
438.684	0.02
438.886	0.1
439.089	-0.02
439.291	0.08
439.494	0.1
439.696	0.05
439.899	0.01
440.101	0.08
440.303	-0.05
440.506	0.12
440.708	0.04
440.91	0.09
441.113	0.05
441.315	0.11
441.517	0.01
441.72	0.07
441.922	0.07
442.124	0.04
442.326	0.04
442.529	0.15
442.731	0.03
442.933	0.13
443.135	0.06
443.337	0.06
443.539	0.06
443.742	0.02
443.944	0.12
444.146	0.05
444.348	0.06
444.55	0.02
444.752	0.04
444.954	0.04
445.156	0.12
445.358	0.1
445.56	0.17
445.762	0.08
445.964	0.05
446.166	0.06
446.368	0
446.57	0.09
446.772	0.01
446.974	0.04
447.175	0.07
447.377	0.11
447.579	0
447.781	-0.03
447.983	0.14
448.184	0.03
448.386	0.12
448.588	0.04
448.79	0.09
448.991	0.05
449.193	0.05
449.395	0.1
449.597	0.13
449.798	0.04
450	0.09
450.202	0.06
450.403	0.11
450.605	0.11
450.806	0.09
451.008	-0.01
451.21	0.06
451.411	0.07
451.613	0.07
451.814	0.03
452.016	0.07
452.217	0.04
452.419	0.14
452.62	0.07
452.821	0.09
453.023	0.14
453.224	0.13
453.426	0.11
453.627	0.1
453.828	0.14
454.03	0.03
454.231	0.03
454.432	0.05
454.634	0.11
454.835	0.06
455.036	0.03
455.238	0.16
455.439	0.13
455.64	-0.01
455.841	0.1
456.042	0.15
456.244	0.15
456.445	0.02
456.646	0.03
456.847	0.08
457.048	0.11
457.249	0.1
457.45	0.28
457.651	-0.01
457.852	0.14
458.054	0.08
458.255	0.06
458.456	0.1
458.657	0.08
458.858	0.04
459.058	0.06
459.259	0.09
459.46	0.05
459.661	0.03
459.862	0.15
460.063	0.04
460.264	0.12
460.465	0.03
460.666	0.15
460.866	0.04
461.067	0.05
461.268	0.09
461.469	0.05
461.67	0.07
461.87	0.03
462.071	0.03
462.272	0.05
462.473	0.06
462.673	0.1
462.874	0.05
463.075	0.07
463.275	0.03
463.476	0.08
463.676	0.11
463.877	0.05
464.078	0.06
464.278	0.12
464.479	0.06
464.679	0.06
464.88	0.06
465.08	0.11
465.281	0.04
465.481	0.03
465.682	0.03
465.882	0.1
466.083	0.08
466.283	0.02
466.483	0.07
466.684	-0
466.884	0.03
467.085	0.05
467.285	0.11
467.485	0.01
467.686	0.04
467.886	0.02
468.086	0.07
468.286	0.06
468.487	0.1
468.687	0.01
468.887	0.06
469.087	0.06
469.287	0.05
469.488	-0.05
469.688	0.04
469.888	0.09
470.088	0.1
470.288	0.11
470.488	0.12
470.688	0.04
470.888	0.05
471.088	0.04
471.288	0.12
471.488	0.12
471.688	0.08
471.888	0.05
472.088	0.1
472.288	0.12
472.488	0.06
472.688	0.03
472.888	0.05
473.088	0.05
473.288	0.07
473.488	0.06
473.688	0.12
473.887	0.09
474.087	0.09
474.287	0.08
474.487	0.03
474.687	0.09
474.886	0.01
475.086	0.03
475.286	0.06
475.486	0.06
475.685	0.04
475.885	0.06
476.085	0.03
476.284	0.08
476.484	0.07
476.684	0.11
476.883	0.08
477.083	0.08
477.282	0.03
477.482	0.11
477.681	0.12
477.881	0.08
478.08	0.03
478.28	0.02
478.479	0.07
478.679	0.15
478.878	0
479.078	0.01
479.277	0.05
479.477	0.03
479.676	0.08
479.875	0.05
480.075	-0
480.274	0.06
480.473	0.04
480.673	0.02
480.872	0.06
481.071	0.06
481.271	0.05
481.47	0.03
481.669	0.04
481.868	-0.01
482.067	0.02
482.267	0.02
482.466	0.01
482.665	0.01
482.864	-0
483.063	0
483.262	0.04
483.461	0.1
483.661	0.08
483.86	0.04
484.059	0.05
484.258	0.01
484.457	0.03
484.656	0.02
484.855	0.04
485.054	-0.01
485.253	0.03
485.452	-0.01
485.651	0.04
485.849	0.06
486.048	0.02
486.247	0.01
486.446	0.06
486.645	-0
486.844	0
487.043	0.05
487.241	0.03
487.44	0
487.639	0.01
487.838	0.06
488.037	0.03
488.235	0.06
488.434	0.03
488.633	0.01
488.831	0.03
489.03	0.07
489.229	0.07
489.427	0.02
489.626	0.07
489.825	0.08
490.023	0.02
490.222	0.03
490.42	0.04
490.619	0.05
490.817	0.02
491.016	0.02
491.214	0.06
491.413	0
491.611	0.02
491.81	0.03
492.008	0.05
492.207	0.05
492.405	0.04
492.604	0.03
492.802	0.05
493	0.07
493.199	0
493.397	0.04
493.595	0.03
493.794	0
493.992	0.08
494.19	0.03
494.388	0.03
494.587	0.02
494.785	0.03
494.983	0.02
495.181	0
495.379	0.05
495.578	0.02
495.776	0.05
495.974	0.05
496.172	0.03
496.37	0.01
496.568	0.01
496.766	-0.01
496.964	0.08
497.162	0.04
497.36	0.01
497.558	0.05
497.756	0.06
497.954	0.03
498.152	-0.01
498.35	0.03
498.548	0.02
498.746	0.04
498.944	-0.01
499.142	0.04
499.34	0.01
499.538	0.02
499.736	-0.02
499.933	0.08
500.131	0.04
500.329	0.04
500.527	0.07
500.725	0.07
500.922	0.05
501.12	0.04
501.318	0.04
501.516	-0.01
501.713	0.04
501.911	0.04
502.109	-0.01
502.306	0.05
502.504	0.02
502.701	0.03
502.899	0.01
503.097	0.09
503.294	0.02
503.492	0.01
503.689	0.03
503.887	0.05
504.084	0.07
504.282	0.04
504.479	0
504.677	0.06
504.874	0.01
505.072	0.05
505.269	0.03
505.466	0.05
505.664	0.05
505.861	0.01
506.059	-0.02
506.256	0.04
506.453	-0
506.651	0.07
506.848	0.02
507.045	0.04
507.242	0.03
507.44	0.02
507.637	0.04
507.834	0.02
508.031	0.03
508.229	0.01
508.426	0.02
508.623	0.05
508.82	0.02
509.017	0
509.214	0.03
509.411	0.05
509.608	0.01
509.805	0.03
510.003	0.04
510.2	0.01
510.397	0.07
510.594	0.02
510.791	0.02
510.988	0.01
511.184	0.05
511.381	0.03
511.578	0.02
511.775	0.05
511.972	0.02
512.169	0.01
512.366	0.01
512.563	0.04
512.76	0.02
512.956	0.03
513.153	0.03
513.35	0.05
513.547	0.03
513.744	0.01
513.94	0.01
514.137	0.06
514.334	0.04
514.53	0.05
514.727	0.06
514.924	0.1
515.12	0.01
515.317	0.01
515.514	0.02
515.71	0.02
515.907	0.03
516.103	0.01
516.3	0.04
516.497	0.04
516.693	0.04
516.89	0.03
517.086	-0.01
517.283	0.07
517.479	0.04
517.676	0.03
517.872	0.03
518.068	0.02
518.265	0.02
518.461	0.01
518.658	0
518.854	0.07
519.05	0.01
519.247	0.02
519.443	0.05
519.639	0.05
519.836	0.05
520.032	0.03
520.228	0.02
520.424	0.09
520.621	0.05
520.817	0.06
521.013	0.04
521.209	0.03
521.405	0.07
521.601	0.04
521.798	0.04
521.994	0.04
522.19	0.02
522.386	0
522.582	0.04
522.778	0.03
522.974	0.02
523.17	0.04
523.366	0.02
523.562	0.06
523.758	0.05
523.954	0.02
524.15	0.02
524.346	0.07
524.542	0.02
524.738	0.02
524.934	0.03
525.129	-0.06
525.325	0.07
525.521	0.03
525.717	0.05
525.913	0.04
526.109	0.05
526.304	0.03
526.5	0.03
526.696	0.07
526.892	0.02
527.087	0.04
527.283	-0.01
527.479	0.03
527.674	0.03
527.87	0.03
528.066	0
528.261	0.05
528.457	0.02
528.653	0.02
528.848	0.02
529.044	0.03
529.239	0.02
529.435	0.05
529.63	0.07
529.826	0.06
530.021	0.03
530.217	0.02
530.412	0.03
530.608	0.03
530.803	0.05
530.999	0.01
531.194	-0.01
531.389	0.04
531.585	-0.02
531.78	0.02
531.975	0.02
532.171	0.06
532.366	0.02
532.561	0.01
532.757	0.02
532.952	0.04
533.147	0.05
533.342	0.03
533.538	0.02
533.733	0.04
533.928	0.03
534.123	0
534.318	0.01
534.513	0.03
534.709	0.02
534.904	0.01
535.099	0.04
535.294	0.02
535.489	0.04
535.684	0.04
535.879	0.02
536.074	0.05
536.269	0.03
536.464	0.03
536.659	0.02
536.854	0.02
537.049	0.03
537.244	0.05
537.439	0.02
537.634	0.07
537.828	0.04
538.023	0.04
538.218	0.02
538.413	0.03
538.608	0.01
538.803	0.05
538.997	0.01
539.192	0.06
539.387	0.06
539.582	0.01
539.776	0.05
539.971	0.01
540.166	0.02
540.36	0.01
540.555	0.04
540.75	0.04
540.944	0.04
541.139	0.01
541.334	0.02
541.528	0.04
541.723	0.06
541.917	0.03
542.112	0.01
542.306	0.03
542.501	0.02
542.695	0.04
542.89	0.02
543.084	0.06
543.279	0.04
543.473	0.03
543.668	0.04
543.862	0.03
544.056	0.06
544.251	0.04
544.445	0.06
544.64	0.01
544.834	0.02
545.028	0.06
545.222	0.05
545.417	0.06
545.611	0.04
545.805	0.03
546	0.01
546.194	0.03
546.388	0.02
546.582	0.05
546.776	0.04
546.97	0.02
547.165	0.04
547.359	0.06
547.553	0.03
547.747	0.04
547.941	0.02
548.135	0.04
548.329	0.05
548.523	0.03
548.717	0.03
548.911	0.04
549.105	0.04
549.299	0.04
549.493	0.07
549.687	0.04
549.881	0.05
550.075	0.04
550.269	0.02
550.463	0.07
550.657	0.03
550.85	0.04
551.044	0.02
551.238	0.05
551.432	0.02
551.626	0.01
551.82	0.06
552.013	0.01
552.207	0.03
552.401	0.02
552.594	0.04
552.788	0.04
552.982	0.04
553.176	0.01
553.369	0.05
553.563	0.05
553.756	-0.02
553.95	0.02
554.144	0.03
554.337	0.07
554.531	0.02
554.724	0.04
554.918	0.03
555.111	0.05
555.305	0.05
555.498	0.08
555.692	0.06
555.885	0.02
556.079	0.03
556.272	0.03
556.466	0.05
556.659	0.01
556.852	0.04
557.046	0.03
557.239	0.08
557.432	0.02
557.626	0.03
557.819	0.03
558.012	0.06
558.206	0.05
558.399	0.05
558.592	0.07
558.785	0.02
558.979	0.07
559.172	0.04
559.365	0.08
559.558	0.05
559.751	0.03
559.944	0.06
560.138	0.03
560.331	0.04
560.524	0.02
560.717	0.04
560.91	0.05
561.103	0.05
561.296	0.05
561.489	0.04
561.682	0.04
561.875	0.07
562.068	0.06
562.261	0.04
562.454	0.06
562.647	0.05
562.84	0.06
563.032	0.05
563.225	0.06
563.418	0.03
563.611	0.02
563.804	0.04
563.997	0.03
564.19	0.01
564.382	-0.01
564.575	0.04
564.768	0.05
564.961	0.03
565.153	0.05
565.346	0.07
565.539	0.07
565.731	0.06
565.924	0.07
566.117	0.06
566.309	0.04
566.502	0.04
566.695	0.05
566.887	0.06
567.08	0.02
567.272	0.04
567.465	0.03
567.657	0.06
567.85	0.08
568.042	0.06
568.235	0.06
568.427	0.04
568.62	0.03
568.812	0.06
569.005	0.05
569.197	0.01
569.389	0.07
569.582	0.05
569.774	0.04
569.966	0.02
570.159	0.01
570.351	0.06
570.543	0.03
570.736	0.06
570.928	0.02
571.12	0.06
571.312	0.02
571.505	0.02
571.697	0.11
571.889	0.05
572.081	0.06
572.273	0.01
572.465	0.09
572.658	0.06
572.85	0.05
573.042	0.04
573.234	0.05
573.426	0.09
573.618	0
573.81	0.06
574.002	0.07
574.194	0.09
574.386	0.01
574.578	-0.02
574.77	0.03
574.962	0.04
575.154	0.03
575.346	0.04
575.538	0.06
575.729	0.06
575.921	0.04
576.113	0.03
576.305	0.06
576.497	0.05
576.689	0.05
576.88	0.04
577.072	0.08
577.264	0.03
577.456	0.05
577.647	0.01
577.839	0.04
578.031	0.08
578.223	0.03
578.414	0.02
578.606	0.09
578.798	0.07
578.989	0.07
579.181	0.05
579.372	0.07
579.564	0.07
579.755	0.06
579.947	0.08
580.139	0.09
580.33	0.02
580.522	0.04
580.713	-0
580.905	0.07
581.096	0.09
581.287	0.05
581.479	0.05
581.67	0.07
581.862	0.07
582.053	0.04
582.244	0.04
582.436	0.05
582.627	0.06
582.818	0.04
583.01	0.04
583.201	0.09
583.392	0.08
583.583	0.07
583.775	0.07
583.966	0.06
584.157	0.06
584.348	0.04
584.54	0.05
584.731	0.09
584.922	0.07
585.113	0.04
585.304	0.06
585.495	0.09
585.686	0.09
585.877	0.09
586.068	0.09
586.259	0.09
586.45	0.09
586.641	0.07
586.832	0.02
587.023	0.09
587.214	0.07
587.405	0.07
587.596	0.06
587.787	0.13
587.978	0.11
588.169	0.04
588.36	0.05
588.551	0.09
588.742	0.08
588.932	0.12
589.123	0.09
589.314	0.12
589.505	0.1
589.696	0.09
589.886	0.07
590.077	0.06
590.268	0.1
590.458	0.04
590.649	0.07
590.84	0.11
591.03	0.08
591.221	0.05
591.412	0.07
591.602	0.12
591.793	0.12
591.984	0.06
592.174	0.08
592.365	0.19
592.555	0.07
592.746	0.11
592.936	0.12
593.127	0.1
593.317	0.13
593.508	0.1
593.698	0.08
593.889	0.1
594.079	0.1
594.269	0.06
594.46	0.11
594.65	0.13
594.84	0.1
595.031	0.07
595.221	0.09
595.411	0.09
595.602	0.15
595.792	0.14
595.982	0.12
596.172	0.18
596.363	0.14
596.553	0.13
596.743	0.14
596.933	0.15
597.123	0.17
597.314	0.12
597.504	0.11
597.694	0.18
597.884	0.15
598.074	0.13
598.264	0.12
598.454	0.15
598.644	0.14
598.834	0.14
599.024	0.14
599.214	0.12
599.404	0.2
599.594	0.14
599.784	0.16
599.974	0.22
600.164	0.15
600.354	0.16
600.544	0.11
600.734	0.19
600.924	0.19
601.114	0.16
601.303	0.16
601.493	0.2
601.683	0.17
601.873	0.21
602.063	0.15
602.252	0.21
602.442	0.14
602.632	0.19
602.821	0.16
603.011	0.24
603.201	0.2
603.39	0.2
603.58	0.17
603.77	0.23
603.959	0.27
604.149	0.22
604.339	0.19
604.528	0.25
604.718	0.27
604.907	0.2
605.097	0.21
605.286	0.22
605.476	0.25
605.665	0.28
605.855	0.25
606.044	0.31
606.234	0.28
606.423	0.24
606.612	0.26
606.802	0.29
606.991	0.3
607.181	0.29
607.37	0.24
607.559	0.29
607.749	0.28
607.938	0.33
608.127	0.31
608.316	0.32
608.506	0.35
608.695	0.33
608.884	0.32
609.073	0.34
609.263	0.36
609.452	0.38
609.641	0.36
609.83	0.31
610.019	0.34
610.208	0.35
610.397	0.37
610.586	0.43
610.775	0.38
610.965	0.41
611.154	0.4
611.343	0.41
611.532	0.44
611.721	0.42
611.91	0.41
612.099	0.45
612.287	0.45
612.476	0.42
612.665	0.47
612.854	0.44
613.043	0.53
613.232	0.5
613.421	0.46
613.61	0.54
613.798	0.49
613.987	0.58
614.176	0.55
614.365	0.57
614.554	0.61
614.742	0.6
614.931	0.55
615.12	0.63
615.309	0.6
615.497	0.63
615.686	0.59
615.875	0.64
616.063	0.65
616.252	0.68
616.44	0.66
616.629	0.72
616.818	0.74
617.006	0.73
617.195	0.72
617.383	0.75
617.572	0.72
617.76	0.73
617.949	0.8
618.137	0.82
618.326	0.86
618.514	0.8
618.703	0.78
618.891	0.94
619.079	0.86
619.268	0.94
619.456	0.87
619.644	0.97
619.833	0.98
620.021	0.95
620.209	0.96
620.398	1.03
620.586	1.05
620.774	1.08
620.962	1.04
621.151	1.18
621.339	1.09
621.527	1.07
621.715	1.09
621.903	1.18
622.092	1.12
622.28	1.3
622.468	1.21
622.656	1.35
622.844	1.27
623.032	1.3
623.22	1.29
623.408	1.43
623.596	1.36
623.784	1.45
623.972	1.42
624.16	1.46
624.348	1.57
624.536	1.54
624.724	1.54
624.912	1.65
625.1	1.64
625.288	1.61
625.476	1.64
625.664	1.78
625.851	1.72
626.039	1.78
626.227	1.82
626.415	1.87
626.603	1.83
626.79	1.93
626.978	1.93
627.166	1.99
627.354	2.01
627.541	2
627.729	1.93
627.917	2.13
628.104	2.17
628.292	2.16
628.48	2.27
628.667	2.25
628.855	2.37
629.042	2.39
629.23	2.39
629.418	2.42
629.605	2.55
629.793	2.52
629.98	2.54
630.168	2.6
630.355	2.66
630.543	2.71
630.73	2.66
630.917	2.81
631.105	2.95
631.292	2.93
631.48	2.96
631.667	3.1
631.854	3.07
632.042	3.09
632.229	3.14
632.416	3.29
632.604	3.33
632.791	3.26
632.978	3.46
633.165	3.43
633.353	3.54
633.54	3.57
633.727	3.56
633.914	3.64
634.101	3.67
634.289	3.85
634.476	3.8
634.663	3.9
634.85	3.97
635.037	3.97
635.224	4.04
635.411	4.21
635.598	4.15
635.785	4.23
635.972	4.31
636.159	4.42
636.346	4.5
636.533	4.49
636.72	4.61
636.907	4.66
637.094	4.73
637.281	4.66
637.468	4.9
637.655	4.95
637.842	5.06
638.029	5.09
638.215	5.08
638.402	5.28
638.589	5.28
638.776	5.39
638.963	5.48
639.149	5.63
639.336	5.75
639.523	5.78
639.709	5.87
639.896	5.92
640.083	5.97
640.27	6.16
640.456	6.22
640.643	6.26
640.829	6.26
641.016	6.37
641.203	6.49
641.389	6.66
641.576	6.76
641.762	6.79
641.949	6.92
642.135	7.05
642.322	7.17
642.508	7.14
642.695	7.52
642.881	7.37
643.068	7.47
643.254	7.71
643.441	7.76
643.627	8.06
643.813	8
644	8.13
644.186	8.22
644.372	8.52
644.559	8.56
644.745	8.67
644.931	8.8
645.118	8.98
645.304	9.09
645.49	9.31
645.676	9.41
645.862	9.54
646.049	9.81
646.235	9.89
646.421	10.14
646.607	10.4
646.793	10.42
646.979	10.39
647.165	10.69
647.352	10.86
647.538	11.02
647.724	11.22
647.91	11.42
648.096	11.51
648.282	11.81
648.468	11.92
648.654	12.23
648.84	12.3
649.026	12.5
649.212	12.59
649.397	12.85
649.583	13.22
649.769	13.38
649.955	13.5
650.141	13.98
650.327	13.83
650.513	14.23
650.698	14.46
650.884	14.44
651.07	14.98
651.256	14.9
651.442	15.27
651.627	15.14
651.813	15.87
651.999	15.87
652.184	15.91
652.37	16.4
652.556	16.59
652.741	16.87
652.927	16.62
653.113	17.28
653.298	17.42
653.484	17.67
653.669	17.95
653.855	18.09
654.04	18.36
654.226	18.42
654.412	18.75
654.597	18.8
654.782	19.24
654.968	19.32
655.153	19.66
655.339	19.79
655.524	20.1
655.71	20.38
655.895	20.64
656.08	20.83
656.266	21.18
656.451	21
656.636	21.23
656.822	21.53
657.007	21.79
657.192	21.77
657.378	21.94
657.563	21.92
657.748	22.19
657.933	22.64
658.118	22.12
658.304	22.95
658.489	23.09
658.674	22.95
658.859	22.97
659.044	23
659.229	23.14
659.414	23.37
659.599	23.25
659.785	23.24
659.97	23.32
660.155	23.37
660.34	23.57
660.525	23.21
660.71	23.31
660.895	23.31
661.08	23.07
661.264	22.85
661.449	22.59
661.634	22.3
661.819	22.43
662.004	21.89
662.189	21.75
662.374	21.51
662.559	21.07
662.743	20.8
662.928	20.67
663.113	20.11
663.298	19.96
663.483	19.55
663.667	18.99
663.852	18.72
664.037	18.42
664.221	18.12
664.406	17.67
664.591	17.11
664.775	16.71
664.96	16.39
665.145	15.57
665.329	15.54
665.514	14.96
665.698	14.37
665.883	13.93
666.068	13.69
666.252	13.32
666.437	12.81
666.621	12.4
666.806	12.1
666.99	11.49
667.174	11.37
667.359	10.89
667.543	10.55
667.728	10.29
667.912	9.81
668.096	9.41
668.281	9.12
668.465	9.02
668.649	8.58
668.834	8.17
669.018	8.04
669.202	7.76
669.387	7.48
669.571	7.32
669.755	6.98
669.939	6.79
670.124	6.49
670.308	6.24
670.492	6.14
670.676	5.89
670.86	5.75
671.044	5.46
671.228	5.36
671.413	5.15
671.597	4.93
671.781	4.88
671.965	4.73
672.149	4.58
672.333	4.4
672.517	4.2
672.701	4.11
672.885	3.96
673.069	3.8
673.253	3.86
673.437	3.62
673.621	3.47
673.804	3.37
673.988	3.32
674.172	3.12
674.356	3.01
674.54	3.03
674.724	3
674.908	2.85
675.091	2.78
675.275	2.66
675.459	2.61
675.643	2.45
675.826	2.48
676.01	2.31
676.194	2.31
676.377	2.23
676.561	2.2
676.745	2.15
676.928	2.05
677.112	2.01
677.296	1.88
677.479	1.79
677.663	1.77
677.846	1.7
678.03	1.69
678.213	1.56
678.397	1.59
678.58	1.48
678.764	1.51
678.947	1.39
679.131	1.4
679.314	1.4
679.498	1.32
679.681	1.33
679.865	1.32
680.048	1.21
680.231	1.17
680.415	1.1
680.598	1.06
680.781	1.06
680.965	1.01
681.148	0.99
681.331	0.94
681.514	0.96
681.698	0.92
681.881	0.92
682.064	0.9
682.247	0.86
682.43	0.81
682.614	0.87
682.797	0.84
682.98	0.84
683.163	0.7
683.346	0.75
683.529	0.68
683.712	0.68
683.895	0.73
684.078	0.62
684.261	0.64
684.444	0.65
684.627	0.68
684.81	0.6
684.993	0.56
685.176	0.6
685.359	0.49
685.542	0.53
685.725	0.67
685.908	0.59
686.091	0.52
686.274	0.56
686.457	0.53
686.639	0.46
686.822	0.54
687.005	0.47
687.188	0.51
687.371	0.56
687.553	0.49
687.736	0.46
687.919	0.51
688.102	0.46
688.284	0.4
688.467	0.4
688.65	0.39
688.832	0.4
689.015	0.4
689.197	0.31
689.38	0.51
689.563	0.41
689.745	0.34
689.928	0.36
690.11	0.36
690.293	0.37
690.475	0.28
690.658	0.38
690.84	0.32
691.023	0.32
691.205	0.29
691.388	0.34
691.57	0.36
691.752	0.35
691.935	0.25
692.117	0.28
692.3	0.31
692.482	0.26
692.664	0.3
692.847	0.3
693.029	0.33
693.211	0.32
693.393	0.26
693.576	0.22
693.758	0.21
693.94	0.28
694.122	0.23
694.304	0.27
694.487	0.27
694.669	0.27
694.851	0.22
695.033	0.24
695.215	0.25
695.397	0.19
695.579	0.27
695.761	0.19
695.943	0.1
696.125	0.28
696.308	0.22
696.49	0.15
696.671	0.37
696.853	0.2
697.035	0.36
697.217	0.19
697.399	0.29
697.581	0.19
697.763	0.23
697.945	0.11
698.127	0.16
698.309	0.24
698.491	0.18
698.672	0.27
698.854	0.26
699.036	0.29
699.218	0.16
699.399	0.22
699.581	0.22
699.763	0.23
699.945	0.14
700.126	0.13
700.308	0.18
700.49	0.18
700.671	0.13
700.853	0.13
701.035	0.15
701.216	0.14
701.398	0.14
701.579	0.2
701.761	0.22
701.943	0.11
702.124	0.14
702.306	0.19
702.487	0.27
702.669	0.13
702.85	0.08
703.031	0.12
703.213	0.29
703.394	0.19
703.576	0.12
703.757	0.25
703.938	0.16
704.12	0.27
704.301	0.12
704.483	0.12
704.664	0.18
704.845	0.28
705.026	0.18
705.208	0.17
705.389	0.2
705.57	0.18
705.751	0.12
705.933	0.23
706.114	0.16
706.295	0.17
706.476	0.05
706.657	0.29
706.838	0.22
707.02	0.2
707.201	0.08
707.382	0.08
707.563	0.27
707.744	0.13
707.925	0.1
708.106	0.15
708.287	0.14
708.468	0.2
708.649	0.12
708.83	0.13
709.011	0.08
709.192	0.16
709.373	0.1
709.554	0.11
709.734	0.25
709.915	0.21
710.096	0.09
710.277	0.03
710.458	0.15
710.639	0.18
710.819	0.05
711	0.16
711.181	0.19
711.362	0.17
711.542	0.14
711.723	0.09
711.904	0.21
712.085	0.18
712.265	0.14
712.446	0.05
712.627	0.13
712.807	0.18
712.988	0.13
713.168	-0
713.349	0.2
713.53	0.01
713.71	0.11
713.891	0.11
714.071	0.08
714.252	0.07
714.432	0.15
714.613	0.04
714.793	0.15
714.974	0.17
715.154	0.15
715.334	0.2
715.515	0.21
715.695	0.02
715.876	0.06
716.056	0.12
716.236	0.04
716.417	0.11
716.597	0.05
716.777	0.25
716.957	0.15
717.138	0.19
717.318	0.16
717.498	0.04
717.678	0.14
717.859	0.18
718.039	0.06
718.219	0.15
718.399	0.18
718.579	0.07
718.759	0.02
718.939	0.14
719.12	0.13
719.3	0.13
719.48	0.01
719.66	0.03
719.84	0.24
720.02	0.06
720.2	0.03
720.38	0.13
720.56	0.24
720.74	0.06
720.92	0.14
721.1	0.18
721.279	0.22
721.459	0.12
721.639	0.01
721.819	0.11
721.999	0.13
722.179	0.1
722.359	0.04
722.538	0.09
722.718	0.21
722.898	0.09
723.078	0.09
723.257	0.05
723.437	0.11
723.617	0.19
723.797	0.09
723.976	0.11
724.156	0.17
724.336	0.21
724.515	0.33
724.695	0.01
724.874	0.15
725.054	0.15
725.234	0.14
725.413	0.1
725.593	0.17
725.772	0.13
725.952	0.17
726.131	0.18
726.311	0.05
726.49	0.02
726.67	-0
726.849	0.1
727.028	0.2
727.208	0.16
727.387	0.1
727.567	0.01
727.746	0.14
727.925	0.16
728.105	0.02
728.284	-0
728.463	-0.16
728.643	0.15
728.822	0.05
729.001	0.01
729.18	0.1
729.359	0.26
729.539	0.08
729.718	0.13
729.897	0.18
730.076	0.11
730.255	0.03
730.434	0.09
730.614	0.19
730.793	0.16
730.972	0.03
731.151	0.05
731.33	0.24
731.509	0.11
731.688	0.15
731.867	0.19
732.046	-0.07
732.225	0.24
732.404	0.02
732.583	-0
732.762	0.09
732.941	0.13
733.12	0.17
733.298	0.05
733.477	0.14
733.656	0.12
733.835	0.04
734.014	0.19
734.193	0.09
734.371	0.16
734.55	0.21
734.729	0.02
734.908	0.2
735.086	0.1
735.265	0.12
735.444	-0.04
735.623	0.05
735.801	0
735.98	0.06
736.159	-0.01
736.337	0.18
736.516	0.17
736.694	0.17
736.873	0.1
737.052	0.27
737.23	0.28
737.409	0.12
737.587	0.41
737.766	0.08
737.944	0.03
738.123	0.17
738.301	0.12
738.479	0.15
738.658	0.12
738.836	-0.07
739.015	0.09
739.193	0.09
739.371	0.11
739.55	0.04
739.728	-0.01
739.906	0.15
740.085	0.27
740.263	0.06
740.441	-0.03
740.62	0.33
740.798	0.16
740.976	0.07
741.154	-0.01
741.332	0.28
741.511	0.02
741.689	0.2
741.867	0.13
742.045	0.15
742.223	0.07
742.401	0.05
742.579	0.1
742.757	0.23
742.935	-0.01
743.114	0.16
743.292	0.09
743.47	0.12
743.648	0.13
743.826	0
744.004	0.2
744.181	0.21
744.359	0.05
744.537	0.14
744.715	0.16
744.893	0.13
745.071	0.05
745.249	0.04
745.427	0.13
745.605	0.24
745.782	0.11
745.96	0.26
746.138	0.16
746.316	0.28
746.493	0.11
746.671	0.18
746.849	0.16
747.027	0.12
747.204	0.01
747.382	0.14
747.56	0.08
747.737	0.09
747.915	-0.01
748.093	0.15
748.27	0.06
748.448	0.03
748.625	0.03
748.803	0.11
748.98	0.12
749.158	0.2
749.335	0.22
749.513	0.1
749.69	0.07
749.868	0.08
750.045	0.12
750.223	0.01
750.4	-0.12
750.578	0.26
750.755	0.09
750.932	-0.04
751.11	0.18
751.287	-0.02
751.464	0.19
751.642	0.04
751.819	0.14
751.996	0.22
752.173	0.05
752.351	0.06
752.528	0.15
752.705	0.16
752.882	0.05
753.06	0.16
753.237	0.19
753.414	0.29
753.591	0.16
753.768	0.12
753.945	0.14
754.122	0.02
754.299	0.17
754.476	0.05
754.654	0.11
754.831	0.22
755.008	0.15
755.185	-0
755.362	0.02
755.539	0.1
755.716	0.08
755.892	0.06
756.069	0.14
756.246	0.06
756.423	0.13
756.6	0.17
756.777	0.08
756.954	0.19
757.131	0.04
757.307	0.01
757.484	0.01
757.661	0.13
757.838	0.14
758.015	0
758.191	0.21
758.368	0.16
758.545	0.15
758.721	0.16
758.898	-0.02
759.075	0.17
759.251	0.24
759.428	0.33
759.605	-0.02
759.781	0.05
759.958	0.05
760.134	0.07
760.311	0.07
760.488	0.32
760.664	0.3
760.841	0.14
761.017	0.03
761.194	0.15
761.37	0.14
761.547	0.11
761.723	0.16
761.899	0.29
762.076	0.12
762.252	0.06
762.429	0.01
762.605	0.19
762.781	0.09
762.958	0.17
763.134	-0.03
763.31	-0.05
763.486	0.28
763.663	-0.04
763.839	0.13
764.015	0.02
764.191	-0.11
764.368	-0.02
764.544	-0.04
764.72	0.15
764.896	0.18
765.072	0.23
765.248	0.07
765.425	0.13
765.601	0.06
765.777	0.08
765.953	-0.07
766.129	0.05
766.305	-0.06
766.481	0.22
766.657	0.17
766.833	0.21
767.009	-0.03
767.185	0.03
767.361	0.1
767.537	-0.01
767.713	0.28
767.889	-0.05
768.065	0.16
768.24	-0.03
768.416	0.24
768.592	0.12
768.768	0.1
768.944	0.02
769.12	0.03
769.295	0.09
769.471	0.04
769.647	0.13
769.823	0.28
769.998	0.1
770.174	0.06
770.35	0.36
770.525	0.29
770.701	0.12
770.877	0.12
771.052	-0.02
771.228	0.14
771.403	0.09
771.579	0.21
771.755	0.43
771.93	0.05
772.106	-0.06
772.281	-0.1
772.457	0.17
772.632	0.17
772.808	-0.03
772.983	0.09
773.159	-0.12
773.334	0.27
773.509	0.16
773.685	0.06
773.86	0.43
774.036	0.29
774.211	0.13
774.386	0.12
774.562	0.17
774.737	0.24
774.912	-0.01
775.087	0.39
775.263	0.17
775.438	0.17
775.613	-0.01
775.788	0.18
775.964	0.36
776.139	0.44
776.314	-0.06
776.489	0.18
776.664	0.3
776.839	0.03
777.014	0.19
777.19	0.24
777.365	0.21
777.54	0.24
777.715	-0.01
777.89	0.04
778.065	0.07
778.24	0.15
778.415	0.25
778.59	0.01
778.765	0.02
778.94	0.09
779.115	0.09
779.289	0.16
779.464	0.16
779.639	0.15
779.814	0.13
779.989	0.05
780.164	0.41
780.339	0.23
780.513	0.06
780.688	0.05
780.863	0.12
781.038	0.25
781.212	-0.11
781.387	0.29
781.562	0.31
781.737	0
781.911	0.22
782.086	0.01
782.261	0.06
782.435	0.41
782.61	0.02
782.784	0.15
782.959	0.33
783.134	0.13
783.308	0.12
783.483	0.09
783.657	0.42
783.832	0.39
784.006	-0.21
784.181	0.01
784.355	0.25
784.53	0.18
784.704	0.02
784.878	0.29
785.053	0.12
785.227	0.16
785.402	0.53
785.576	-0
785.75	0.03
785.925	0.08
786.099	0.19
786.273	0.22
786.448	0.24
786.622	0.33
786.796	0.07
786.97	0.04
787.145	0.53
787.319	-0.14
787.493	0.18
787.667	-0.18
787.841	0.18
788.015	0.2
788.19	0.01
788.364	0.2
788.538	0.29
788.712	0.37
788.886	0.07
789.06	0.49
789.234	0.25
789.408	-0.07
789.582	0.1
789.756	0.08
789.93	-0.12
790.104	0.27
790.278	0.08
790.452	0.05
790.626	0.24
790.8	0.07
790.973	0.34
791.147	0.27
791.321	0.28
791.495	0.34
791.669	0.09
791.843	0.27
792.016	0.22
792.19	0.49
792.364	0.13
792.538	0.55
792.711	0.47
792.885	0.08
793.059	-0.07
793.233	-0.39
793.406	0.26
793.58	0.27
793.754	0.23
793.927	0.11
794.101	0.38
794.274	0.36
794.448	0.59
794.622	0.08
794.795	0.46
794.969	0.08
795.142	0.38
795.316	0.22
795.489	0.01
795.663	0.57
795.836	0.07
796.009	0.11
796.183	0.39
796.356	0.27
796.53	0.25
796.703	0.05
796.876	0.65
797.05	0.26
797.223	0.14
797.396	0.19
797.57	0.1
797.743	0.58
797.916	0.05
798.09	0.11
798.263	0.34
798.436	0.4
798.609	0.36
798.782	0.14
798.956	0.11
799.129	0.3
799.302	0.06
799.475	-0.19
799.648	0.06
799.821	-0.08
799.994	0.26
800.167	-0.32
800.34	0.22
800.514	0.23
800.687	0.14
800.86	0.02
801.033	0.23
801.206	0.21
801.379	-0.07
801.551	0.51
801.724	0.22
801.897	0.36
802.07	0.32
802.243	-0.35
802.416	-0.04
802.589	-0.07
802.762	-0.01
802.935	0.12
803.107	0.31
803.28	0.32
803.453	0.58
803.626	-0.04
803.798	0.1
803.971	0.13
804.144	0.42
804.317	0.27
804.489	0.31
804.662	0.18
804.835	0.44
805.007	-0.02
805.18	0.72
805.353	0.17
805.525	0.14
805.698	0.31
805.87	0.58
806.043	0.26
806.215	0.19
806.388	0.1
806.56	0.43
806.733	0.7
806.905	0.38
807.078	-0.17
807.25	0.15
807.423	0.25
807.595	0.5
807.768	0.32
807.94	0.55
808.112	0.35
808.285	0.2
808.457	0.11
808.629	0.16
808.802	0.42
808.974	0.12
809.146	0.18
809.318	0.01
809.491	0.41
809.663	0.47
809.835	0.02
810.007	0.52
810.18	0.11
810.352	-0.38
810.524	0.26
810.696	0.09
810.868	0.55
811.04	0.48
811.212	0.44
811.384	0.46
811.556	-0.03
811.728	0.08
811.901	1.05
812.073	-0.13
812.245	0.54
812.417	0.08
812.589	-0.31
812.76	0.16
812.932	0.28
813.104	0.5
813.276	0.24
813.448	0.53
813.62	0.18
813.792	0.06
813.964	-0.05
814.136	0.6
814.307	0.11
814.479	0.28
814.651	-0.03
814.823	0.64
814.995	0.43
815.166	0.55
815.338	-0.2
815.51	-0.22
815.681	0.82
815.853	0.65
816.025	-0.22
816.196	0.54
816.368	0.47
816.54	0.38
816.711	-0.12
816.883	0.44
817.054	1.14
817.226	-0.44
817.398	0.39
817.569	0.25
817.741	0.48
817.912	0.37
818.084	-0.08
818.255	0.35
818.426	0.28
818.598	-0.3
818.769	-0.36
818.941	0.34
819.112	0.96
819.283	0.47
819.455	-0.08
819.626	0.4
819.798	0.61
819.969	0.47
820.14	0.02
820.311	0.01
820.483	0.54
820.654	0.81
820.825	0.58
820.996	0.31
821.168	0.07
821.339	0.47
821.51	-0.14
821.681	0.12
821.852	0.05
822.023	0.15
822.195	-0.04
822.366	0.44
822.537	0.08
822.708	0.24
822.879	0.52
823.05	1.12
823.221	0.33
823.392	0.59
823.563	0.02
823.734	0.28
823.905	0.05
824.076	0.57
824.247	0.04
824.418	-0.04
824.589	1.22
824.759	0.34
824.93	0.38
825.101	-0.11
825.272	1.08
825.443	0.78
825.614	1.17
825.784	-0.33
825.955	1.34
826.126	1.08
826.297	0.52
826.467	0.59
826.638	1.14
826.809	-0.07
826.98	0.31
827.15	0.92
827.321	0.51
827.492	1.21
827.662	-0.01
827.833	1.67
828.003	0.86
828.174	-0.08
828.345	-0.44
828.515	0.79
828.686	0.65
828.856	-0.02
829.027	0.33
829.197	0.9
829.368	0.71
829.538	0.02
829.709	-0.13
829.879	0.13
830.049	0.53
830.22	0.17
830.39	-0.32
830.56	0.75
830.731	0.67
830.901	-0.32
831.072	0.4
831.242	0.72
831.412	0.71
831.582	0.68
831.753	-0.52
831.923	0.72
832.093	0.57
832.263	0.17
832.434	-0.08
832.604	0.6
832.774	0.87
832.944	0.34
833.114	-0.22
833.284	0.9
833.454	-0.7
833.624	0.14
833.795	0.12
833.965	1.24
834.135	0.96
834.305	-0.48
834.475	-0.04
834.645	0.3
834.815	-0.13
834.985	-0.41
835.155	0.38
835.325	0.66
835.494	0.91
835.664	0.82
835.834	-0.01
836.004	0.38
836.174	0.92
836.344	0.57
836.514	-0.49
836.684	0.38
836.853	0.37
837.023	1.02
837.193	0.05
837.363	0.93
837.532	0.91
837.702	-0.2
837.872	-0.2
838.041	0.89
838.211	1.66
838.381	-0.2
838.55	0.53
838.72	2.1
838.89	1.9
839.059	0.93
839.229	-0.29
839.398	1.71
839.568	0.72
839.738	0.59
839.907	1.4
840.077	0.73
840.246	-0.11
840.416	-0.29
840.585	-0.31
840.755	1.88
840.924	1.53
841.093	-0.01
841.263	0.36
841.432	0.44
841.602	-0.19
841.771	0.17
841.94	0.42
842.11	2.24
842.279	1.85
842.448	0.1
842.617	-0.33
842.787	2.03
842.956	-0.29
843.125	0.35
843.294	0.44
843.464	0.83
843.633	-0.54
843.802	-0.12
843.971	0.08
844.14	1.75
844.309	1.25
844.479	-0.07
844.648	-0.18
844.817	0.39
844.986	0.86
845.155	0.7
845.324	0.73
845.493	0.99
845.662	-0.63
845.831	1.31
846	0.4
846.169	0.63
846.338	1.71
846.507	1.81
846.676	0.78
846.844	0.27
847.013	1.8
847.182	0.55
847.351	0.4
847.52	0.49
847.689	1.03
847.858	0.49
848.026	-0.1
848.195	0.44
848.364	0.58
848.533	0.96
848.701	0.06
848.87	-1.24
849.039	1.44
849.207	1.46
849.376	1.18
849.545	1.53
849.713	0.28
849.882	0.91
850.051	0.18
850.219	1.26
850.388	1.31
850.556	-0.08
850.725	-0.5
850.893	0.88
851.062	0.37
851.23	0.38
851.399	-0.73
851.567	-0.03
851.736	0.6
851.904	-0.38
852.073	0.42
852.241	0.81
852.41	0.84
852.578	0.31
852.746	-0.22
852.915	1.22
853.083	1.01
853.251	-0.2
853.42	1.3
853.588	0.96
853.756	1.49
853.924	0.82
854.093	0.3
854.261	0.37
854.429	0.37
854.597	0.44
854.765	0.17
854.934	1.1
855.102	2.64
855.27	0.31
855.438	1.08
855.606	1.91
855.774	1.4
855.942	-0.35
856.11	0.26
856.278	0.56
856.446	2.72
856.614	0.26
856.782	0.54
856.95	2.49
857.118	0.83
857.286	1.53
857.454	0.61
857.622	0.53
857.79	0.5
857.958	-0.87
858.126	0.3
858.294	-1.05
858.462	1.02
858.629	0.52
858.797	-0.22
858.965	1.05
859.133	0.82
859.301	1.05
859.468	2.2
859.636	-0.64
859.804	1.45
859.971	1.36
860.139	0.57
860.307	2.27
860.474	0.31
860.642	0.93
860.81	0.83
860.977	-0.3
861.145	2.34
861.313	1.31
861.48	-0
861.648	2.22
861.815	0.52
861.983	-0.76
862.15	0.61
862.318	1.68
862.485	1.05
862.653	-0.01
862.82	0.65
862.988	2.55
863.155	1.65
863.322	-0.12
863.49	-0.23
863.657	0.86
863.824	2.39
863.992	1.79
864.159	0.26
864.326	1.89
864.494	-0.59
864.661	3.86
864.828	-0.08
864.996	2.97
865.163	1.72
865.33	-1.23
865.497	-0.57
865.664	-0.6
865.832	-0.45
865.999	-0.2
866.166	-0.99
866.333	0.94
866.5	0.06
866.667	1.19
866.834	0.87
867.001	1.22
867.168	-1.65
867.335	1.51
867.502	-0.43
867.669	1.02
867.836	2.96
868.003	1.05
868.17	1.86
868.337	1.79
868.504	2.39
868.671	-0.74
868.838	-1.15
869.005	1.93
869.172	0.84
869.339	1.38
869.505	1.61
869.672	-0.7
869.839	3.35
870.006	0.47
870.173	-0.85
870.339	0.76
870.506	2.76
870.673	-1.42
870.84	2.84
871.006	2.22
871.173	0.24
871.34	1.21
871.506	-0.48
871.673	1.2
871.839	-0.39
872.006	1.34
872.173	0.89
872.339	0.4
872.506	1.31
872.672	-0.76
872.839	-0.45
873.005	0.68
873.172	3.58
873.338	3.27
873.505	1.93
873.671	0.57
873.838	2.51
874.004	-0.83
874.171	-0.05
874.337	1.95
874.503	3.44
874.67	1.26
874.836	0.29
875.002	4.04
875.169	1.63
875.335	1.48
875.501	1.19
875.668	2.68
875.834	0.96
876	0.96
876.166	0.88
876.332	1.76
876.499	4.2
876.665	-1.05
876.831	2.61
876.997	4.63
877.163	2.64
877.329	-0.09
877.495	1.28
877.662	1.5
877.828	2.18
877.994	1.14
878.16	-1.61
878.326	-0.3
878.492	1.06
878.658	0.89
878.824	1.95
878.99	2.12
879.156	0.48
879.322	2.43
879.487	-0.62
879.653	1.61
879.819	2.93
879.985	1.3
880.151	1.92
880.317	1.63
880.483	0.13
880.648	2.43
880.814	-1.57
880.98	1.65
881.146	-1.97
881.312	0.34
881.477	1.99
881.643	1.92
881.809	3.56
881.974	2.2
882.14	-1
882.306	0.24
882.471	4.43
882.637	-0.13
882.803	1.42
882.968	4.43
883.134	4.17
883.299	0.6
883.465	1.66
883.63	1.66
883.796	3.26
883.961	2.48
884.127	1.95
884.292	-3.62
884.458	-1.72
884.623	-1.71
