Data from Apollo_Calib_20240827__AbsoluteIrradiance__608__09-17-02-576.txt Node

Date: Wed Aug 28 09:17:02 BST 2024
User: biology
Spectrometer: FLMT08252
Trigger mode: 0
Integration Time (sec): 5.000000E-1
Scans to average: 5
Electric dark correction enabled: true
Nonlinearity correction enabled: false
Boxcar width: 0
XAxis mode: Wavelengths
Number of Pixels in Spectrum: 3648
>>>>>Begin Spectral Data<<<<<
179.588	-0
179.809	-0
180.03	-0
180.251	-0
180.473	-0
180.694	0
180.915	0
181.136	-0
181.357	-0
181.578	0
181.799	-0
182.02	-0
182.241	-0
182.462	-0
182.683	0
182.904	0
183.125	-0
183.346	0
183.567	0
183.788	0
184.009	-0
184.23	0
184.451	0
184.672	0
184.892	0
185.113	0
185.334	0
185.555	0
185.776	0
185.996	0
186.217	0
186.438	0
186.659	0
186.879	0
187.1	0
187.321	0
187.541	0
187.762	0
187.983	0
188.203	0
188.424	0
188.644	0
188.865	0
189.086	0
189.306	0
189.527	0
189.747	0
189.968	0
190.188	0
190.409	0
190.629	0
190.849	0
191.07	-0
191.29	0
191.511	0
191.731	-0
191.951	0
192.172	0
192.392	0
192.612	0
192.833	0
193.053	0
193.273	0
193.493	0
193.714	0
193.934	0
194.154	0
194.374	0
194.594	0
194.815	0
195.035	0
195.255	0
195.475	0
195.695	0
195.915	0
196.135	0
196.355	0
196.575	0
196.795	0
197.015	0
197.235	0
197.455	0
197.675	0
197.895	0
198.115	0
198.335	0
198.555	0
198.775	0
198.995	0
199.214	0
199.434	0
199.654	0
199.874	0
200.094	2.26
200.313	0.29
200.533	0.65
200.753	0.1
200.973	1.27
201.192	0.96
201.412	0.05
201.632	0.4
201.851	1.78
202.071	0.09
202.291	0.29
202.51	0.4
202.73	1.5
202.95	0.37
203.169	0.27
203.389	0.68
203.608	1.01
203.828	-0.04
204.047	0.77
204.267	0.84
204.486	0.67
204.706	0.85
204.925	0.57
205.145	0.48
205.364	0.68
205.583	1.45
205.803	0.46
206.022	0.25
206.242	0.81
206.461	0.71
206.68	0.16
206.9	0.94
207.119	1.19
207.338	1.21
207.557	0.04
207.777	0.39
207.996	0.39
208.215	1.03
208.434	0.04
208.654	-0.08
208.873	0.73
209.092	0.96
209.311	0.32
209.53	0.48
209.749	0.29
209.968	0.22
210.187	0.28
210.407	0.07
210.626	0.25
210.845	0.49
211.064	0.29
211.283	0.27
211.502	0.78
211.721	0.53
211.94	0.34
212.159	0.49
212.377	0.62
212.596	0.6
212.815	0.38
213.034	0.32
213.253	0.65
213.472	0.65
213.691	0.28
213.91	0.22
214.128	0.16
214.347	0.67
214.566	-0.02
214.785	-0.1
215.003	0.44
215.222	0.41
215.441	0.18
215.66	0.01
215.878	0.43
216.097	0.48
216.316	0.1
216.534	0.27
216.753	0.29
216.972	0.16
217.19	0.35
217.409	0.09
217.627	0.02
217.846	0.37
218.064	0.39
218.283	0.1
218.501	0.55
218.72	0.35
218.938	0.24
219.157	0.07
219.375	0.51
219.594	0.28
219.812	0.06
220.031	0.19
220.249	0.6
220.467	0.62
220.686	0.23
220.904	0.18
221.122	0.04
221.341	0.69
221.559	0.2
221.777	0.13
221.995	0.3
222.214	0.48
222.432	0.23
222.65	0.48
222.868	0.4
223.086	0.44
223.305	0.38
223.523	0.17
223.741	0.41
223.959	0.27
224.177	-0.03
224.395	0.1
224.613	0.28
224.831	0.38
225.049	0.14
225.267	0.22
225.485	0.22
225.703	0.29
225.921	0.11
226.139	0.17
226.357	0.38
226.575	0.36
226.793	0.14
227.011	0.73
227.229	0.34
227.447	0.25
227.665	0.21
227.883	0.02
228.1	0.2
228.318	0.39
228.536	-0.06
228.754	0.06
228.972	0.33
229.189	0.32
229.407	0.21
229.625	0.12
229.843	0.3
230.06	0.34
230.278	0.19
230.496	0.31
230.713	0.18
230.931	0.31
231.149	0.15
231.366	0.05
231.584	0.2
231.801	0.5
232.019	0.09
232.236	0.11
232.454	0.12
232.671	0.24
232.889	0.15
233.106	0.07
233.324	0.23
233.541	0.2
233.759	0.15
233.976	0.25
234.194	0.07
234.411	0.23
234.628	0.06
234.846	0.14
235.063	0.17
235.28	0.14
235.498	0.11
235.715	0.08
235.932	0.31
236.149	0.12
236.367	0.04
236.584	0.15
236.801	0.11
237.018	0.23
237.236	0.2
237.453	-0.03
237.67	0.29
237.887	0.25
238.104	0.26
238.321	0.11
238.538	0.13
238.755	0.27
238.973	0.05
239.19	0.17
239.407	0.19
239.624	0.2
239.841	0
240.058	0.08
240.275	0.21
240.492	0.14
240.709	0.16
240.925	0.07
241.142	0.08
241.359	-0.01
241.576	0.2
241.793	0.14
242.01	0.16
242.227	0.21
242.444	0.24
242.66	0.23
242.877	0.2
243.094	0.12
243.311	0.23
243.527	0.12
243.744	0.05
243.961	0.27
244.178	0.12
244.394	0.17
244.611	0.22
244.828	0.27
245.044	0.01
245.261	0.15
245.477	0.13
245.694	0.14
245.911	0.07
246.127	0.16
246.344	0.38
246.56	0.16
246.777	0.18
246.993	0.18
247.21	0.19
247.426	0.19
247.643	0.12
247.859	0.03
248.076	0.13
248.292	0.42
248.508	0.07
248.725	0.17
248.941	0.21
249.157	0.25
249.374	0.1
249.59	0.07
249.806	0.12
250.023	0.23
250.239	0.09
250.455	0.1
250.671	0.21
250.888	0.17
251.104	0.2
251.32	-0.01
251.536	0.11
251.752	0.06
251.969	0.1
252.185	0.08
252.401	0.24
252.617	0.15
252.833	0.12
253.049	0.2
253.265	0.15
253.481	0.13
253.697	0.15
253.913	0.13
254.129	0.14
254.345	0.15
254.561	0.08
254.777	0.1
254.993	0.17
255.209	0.1
255.425	0.04
255.641	0.08
255.857	0.22
256.073	0.11
256.288	-0.01
256.504	0.09
256.72	0.15
256.936	0.25
257.152	0.11
257.367	0.03
257.583	0.14
257.799	0.2
258.015	0.06
258.23	0.11
258.446	0.27
258.662	0.13
258.877	0.13
259.093	0.03
259.309	0.12
259.524	0.15
259.74	0.1
259.955	-0.02
260.171	0.11
260.387	0.07
260.602	0.21
260.818	0.2
261.033	0.11
261.249	0.13
261.464	0.18
261.68	0.02
261.895	0.13
262.11	0.16
262.326	0.15
262.541	-0.01
262.757	0.17
262.972	0.11
263.187	0.06
263.403	0.14
263.618	0.17
263.833	0.14
264.049	0.1
264.264	0.1
264.479	0.18
264.694	0.22
264.91	0.02
265.125	0.1
265.34	0.16
265.555	0.26
265.77	0.11
265.986	0.04
266.201	0.14
266.416	0.19
266.631	0.1
266.846	0.12
267.061	0.12
267.276	0.12
267.491	-0.04
267.706	0.18
267.921	0.08
268.136	0.12
268.351	0.13
268.566	0.04
268.781	0.23
268.996	0.09
269.211	0.13
269.426	0.02
269.641	0.1
269.856	0.17
270.071	0.05
270.285	-0.01
270.5	0.2
270.715	0.17
270.93	0.07
271.145	0.11
271.359	0.14
271.574	0.08
271.789	0.07
272.004	0.06
272.218	0.07
272.433	0.17
272.648	0.07
272.862	0.17
273.077	0.12
273.292	0.11
273.506	0.07
273.721	0.12
273.936	0.17
274.15	0.12
274.365	0.12
274.579	0.12
274.794	0.16
275.008	0.12
275.223	-0.03
275.437	0.12
275.652	0.16
275.866	0.15
276.081	0.12
276.295	0.16
276.509	0.11
276.724	0.11
276.938	0.09
277.153	0.14
277.367	0.14
277.581	0.1
277.796	0.06
278.01	0.05
278.224	0.21
278.438	0.21
278.653	0.06
278.867	0.08
279.081	-0.09
279.295	0.04
279.51	0.11
279.724	0.03
279.938	0.16
280.152	0.12
280.366	0.09
280.58	0.12
280.794	0.21
281.008	0.1
281.222	0.12
281.437	0.23
281.651	0.1
281.865	0.16
282.079	0.1
282.293	0
282.507	0.04
282.721	0.1
282.935	0.13
283.148	0.04
283.362	0.08
283.576	-0.01
283.79	0.11
284.004	0.05
284.218	0.15
284.432	0.04
284.646	0.09
284.859	0.08
285.073	0.07
285.287	0.11
285.501	0.11
285.714	0.05
285.928	0.1
286.142	0.07
286.356	0.04
286.569	0.08
286.783	0.15
286.997	0.12
287.21	0.06
287.424	0.05
287.637	0.08
287.851	0.05
288.065	0.12
288.278	0.08
288.492	0.1
288.705	0.06
288.919	0.15
289.132	0
289.346	0.18
289.559	0
289.773	0.02
289.986	0.09
290.2	0.1
290.413	0.12
290.626	0.01
290.84	0.08
291.053	0.1
291.267	0.15
291.48	0.04
291.693	0.08
291.906	0.03
292.12	0.09
292.333	0.06
292.546	0.06
292.76	0.13
292.973	0.12
293.186	0.1
293.399	0.09
293.612	0.15
293.826	0.09
294.039	0.1
294.252	0.08
294.465	0.13
294.678	0.13
294.891	0.11
295.104	0
295.317	0.07
295.53	0.08
295.743	0.1
295.956	0.05
296.169	0.13
296.382	0.12
296.595	0.11
296.808	0.02
297.021	0.16
297.234	0.1
297.447	0.1
297.66	0.07
297.873	0.18
298.086	0.12
298.299	0.06
298.511	0.02
298.724	0.03
298.937	0.03
299.15	0.07
299.363	0.06
299.575	0.05
299.788	0.09
300.001	0.07
300.213	0.01
300.426	0.02
300.639	0.06
300.852	0.04
301.064	0.14
301.277	0.12
301.489	0.12
301.702	0.13
301.915	0.09
302.127	0.07
302.34	0.09
302.552	0.1
302.765	0.05
302.977	0.11
303.19	0.05
303.402	0.05
303.615	0.06
303.827	0.05
304.04	0.09
304.252	0.09
304.464	0.06
304.677	0.18
304.889	0.07
305.102	0.05
305.314	0.08
305.526	0.16
305.739	0.15
305.951	0.07
306.163	0.05
306.375	0.11
306.588	0.06
306.8	0.05
307.012	0.01
307.224	0.1
307.436	0.13
307.649	0.02
307.861	0.06
308.073	0.09
308.285	0.05
308.497	0.06
308.709	0.04
308.921	0.08
309.133	0.14
309.346	0.05
309.558	0.03
309.77	0.14
309.982	0.16
310.194	0.12
310.406	0.06
310.617	0.16
310.829	0.04
311.041	0.12
311.253	0.03
311.465	0.06
311.677	0.04
311.889	0.06
312.101	0.06
312.313	0.1
312.524	0.1
312.736	0.01
312.948	0.05
313.16	0.17
313.372	0.13
313.583	0.08
313.795	0.04
314.007	0.01
314.218	0.12
314.43	0.07
314.642	0.02
314.853	-0
315.065	0.15
315.277	0.07
315.488	0.07
315.7	0.11
315.912	0.08
316.123	0.1
316.335	0.08
316.546	0.14
316.758	0.05
316.969	0.03
317.181	0.05
317.392	0.06
317.604	0.14
317.815	0.04
318.026	0.05
318.238	0.04
318.449	0.14
318.661	0.02
318.872	0
319.083	0.03
319.295	0.08
319.506	0.05
319.717	0.08
319.929	0.08
320.14	0.08
320.351	0.08
320.562	0.02
320.774	0.07
320.985	0.1
321.196	0.01
321.407	0.01
321.618	0.1
321.829	0.12
322.041	0.1
322.252	0.07
322.463	0.09
322.674	0.09
322.885	0.05
323.096	0.09
323.307	0.07
323.518	0.08
323.729	0.06
323.94	0.05
324.151	0.06
324.362	0.1
324.573	0.08
324.784	0.04
324.995	0.12
325.206	0.1
325.417	0.05
325.628	0.05
325.838	0.08
326.049	0.12
326.26	0.12
326.471	0.08
326.682	0.05
326.892	0.07
327.103	0.03
327.314	0.01
327.525	0.12
327.735	0.1
327.946	0.15
328.157	0.06
328.368	0.1
328.578	0.07
328.789	0.08
328.999	0.07
329.21	0.06
329.421	0.11
329.631	0.03
329.842	0.02
330.052	0.1
330.263	0.12
330.473	0.14
330.684	0.07
330.894	0.06
331.105	0.12
331.315	0.09
331.526	0.01
331.736	0.17
331.947	0.1
332.157	0.1
332.367	0.07
332.578	0.1
332.788	0.1
332.999	0.13
333.209	0.1
333.419	0.02
333.629	0.06
333.84	0.1
334.05	0.07
334.26	0.11
334.47	0.07
334.681	0.09
334.891	0.05
335.101	0.14
335.311	0.12
335.521	0.09
335.732	0.02
335.942	0.1
336.152	0.11
336.362	0.08
336.572	0.05
336.782	0.07
336.992	0.05
337.202	0.07
337.412	0.05
337.622	0.09
337.832	0.08
338.042	0.11
338.252	0.03
338.462	0.07
338.672	0.08
338.882	0.07
339.092	0.05
339.302	0.12
339.511	0.07
339.721	0.05
339.931	0.02
340.141	0.11
340.351	0.15
340.561	0.05
340.77	0.07
340.98	0.08
341.19	0.11
341.4	0.05
341.609	0.05
341.819	0.06
342.029	0.04
342.238	0.12
342.448	0.05
342.658	0.14
342.867	0.1
343.077	0.13
343.286	0.09
343.496	0.1
343.706	0.16
343.915	0.02
344.125	0.1
344.334	0.07
344.544	-0.01
344.753	0.01
344.963	0.07
345.172	0.05
345.381	0.07
345.591	0.04
345.8	0.08
346.01	0.12
346.219	0.11
346.428	-0.07
346.638	0.06
346.847	0.05
347.056	0.14
347.266	0.07
347.475	0.04
347.684	0.07
347.893	0.08
348.103	0.08
348.312	0.07
348.521	0.06
348.73	0.11
348.94	0.07
349.149	0.04
349.358	0.05
349.567	0.06
349.776	0.01
349.985	0.03
350.194	0.09
350.403	0.12
350.612	0.05
350.821	0.03
351.03	0.05
351.239	0.03
351.448	0.03
351.657	0.03
351.866	0.13
352.075	0.06
352.284	0.12
352.493	0.01
352.702	0.13
352.911	0.06
353.12	0.06
353.329	0.04
353.538	0.11
353.746	0.06
353.955	0.05
354.164	0.07
354.373	0.07
354.582	0.11
354.79	0.09
354.999	0.05
355.208	0.07
355.416	0.1
355.625	0.06
355.834	0.09
356.042	0.05
356.251	0.05
356.46	0.04
356.668	0.1
356.877	0.17
357.085	0.11
357.294	-0.01
357.503	0.1
357.711	0.04
357.92	0.17
358.128	0.07
358.337	0.02
358.545	0.05
358.754	0.06
358.962	0.1
359.17	0.03
359.379	0.05
359.587	0.07
359.796	0.06
360.004	0.12
360.212	0.11
360.421	0.12
360.629	0.04
360.837	0.08
361.046	0.11
361.254	0.16
361.462	0.07
361.67	0.08
361.879	0.07
362.087	0.12
362.295	0.05
362.503	0.06
362.711	0.01
362.92	0.02
363.128	0.04
363.336	0.05
363.544	0.02
363.752	0.04
363.96	0.06
364.168	0.07
364.376	0.05
364.584	0.06
364.792	0.06
365	0.09
365.208	0.05
365.416	0.06
365.624	0.06
365.832	0.05
366.04	0.12
366.248	0.06
366.456	0.05
366.664	0.07
366.872	0.09
367.079	0.05
367.287	0.09
367.495	0.08
367.703	0.08
367.911	0.02
368.118	0.06
368.326	0.06
368.534	0.04
368.742	0.11
368.949	0.01
369.157	0.04
369.365	0.12
369.572	0.08
369.78	0.04
369.988	0.12
370.195	0.07
370.403	0.11
370.61	0.05
370.818	0.07
371.026	0.12
371.233	0.02
371.441	0.08
371.648	0.03
371.856	0.11
372.063	0.08
372.271	0.02
372.478	0.03
372.685	0.05
372.893	0.11
373.1	0.08
373.308	0.03
373.515	0.13
373.722	0.03
373.93	0.05
374.137	0.08
374.344	0.12
374.552	0.11
374.759	0.09
374.966	0.08
375.173	0.08
375.381	0.11
375.588	0.04
375.795	-0.01
376.002	0.04
376.209	0.07
376.417	0.09
376.624	0.08
376.831	0.08
377.038	0.06
377.245	0.01
377.452	0.09
377.659	0.08
377.866	0.05
378.073	0.04
378.28	0.09
378.487	0.11
378.694	0.11
378.901	0.05
379.108	0.07
379.315	0.11
379.522	0.13
379.729	0.09
379.936	0.06
380.143	0.06
380.35	0.09
380.557	0.05
380.763	0.1
380.97	0.1
381.177	0.08
381.384	0.07
381.591	0.03
381.797	0.06
382.004	0.07
382.211	0.1
382.418	0.01
382.624	0.09
382.831	0.08
383.038	0.07
383.244	0.08
383.451	0.03
383.658	0.11
383.864	0.08
384.071	0.02
384.277	0.13
384.484	0.04
384.69	0.07
384.897	0.05
385.103	0.05
385.31	0.05
385.516	0.04
385.723	0.05
385.929	0.05
386.136	0.07
386.342	0.1
386.549	0.01
386.755	0.09
386.961	0.11
387.168	0.06
387.374	0.08
387.58	0.11
387.787	0.07
387.993	0.09
388.199	0.04
388.406	0.06
388.612	0.06
388.818	0.07
389.024	0.08
389.231	0.09
389.437	0.15
389.643	0.1
389.849	0.07
390.055	0.07
390.261	0.07
390.467	0.06
390.674	0.01
390.88	0.08
391.086	0.05
391.292	0.02
391.498	0.08
391.704	0.1
391.91	0.03
392.116	0.06
392.322	-0
392.528	0.08
392.734	0.02
392.94	0.05
393.146	0.01
393.352	0.09
393.557	0.02
393.763	0.09
393.969	0.06
394.175	0.06
394.381	0.09
394.587	0.08
394.792	0.07
394.998	0.07
395.204	0.12
395.41	0.04
395.615	0.08
395.821	0.09
396.027	0.1
396.233	-0.01
396.438	0.04
396.644	0.16
396.85	0.05
397.055	0.03
397.261	0.07
397.466	0.05
397.672	0.04
397.878	0.07
398.083	0.1
398.289	0.05
398.494	0.1
398.7	0.11
398.905	-0
399.111	0.1
399.316	0.01
399.522	0.03
399.727	0.09
399.932	0.04
400.138	0.09
400.343	0.09
400.549	0.07
400.754	0.11
400.959	0.08
401.165	0.07
401.37	0.09
401.575	0.14
401.78	0.09
401.986	0.04
402.191	0.03
402.396	0
402.601	0.06
402.807	0.08
403.012	0.05
403.217	0.12
403.422	0.09
403.627	0.06
403.832	0.04
404.037	0.11
404.243	0.09
404.448	0
404.653	0.05
404.858	0.09
405.063	0.13
405.268	0.05
405.473	0
405.678	0.03
405.883	0.19
406.088	0.1
406.293	0.01
406.498	0.05
406.703	0.08
406.907	0.07
407.112	0.04
407.317	0.08
407.522	0.14
407.727	0.03
407.932	0.07
408.136	0.16
408.341	0.05
408.546	0.07
408.751	0.07
408.956	0.05
409.16	0.08
409.365	0.07
409.57	0.02
409.774	0.06
409.979	0.12
410.184	0.06
410.388	0.01
410.593	0.14
410.798	0.06
411.002	0.07
411.207	0.08
411.411	0.05
411.616	0.07
411.82	0.05
412.025	0.07
412.229	0.02
412.434	0.12
412.638	0.08
412.843	0.05
413.047	0.05
413.252	0.04
413.456	0.01
413.66	0.09
413.865	0.06
414.069	0.17
414.273	0.07
414.478	-0.01
414.682	0.08
414.886	0.08
415.091	0.02
415.295	0.02
415.499	0.05
415.703	0.04
415.908	0.1
416.112	-0
416.316	0.09
416.52	0.04
416.724	0
416.929	0.01
417.133	0.17
417.337	0.03
417.541	0.01
417.745	0.05
417.949	0.05
418.153	0.11
418.357	-0
418.561	0.17
418.765	0.1
418.969	0.14
419.173	0.06
419.377	0.01
419.581	0.15
419.785	0.04
419.989	-0
420.193	0.03
420.397	0.08
420.601	0.15
420.804	0.12
421.008	0.06
421.212	0.09
421.416	0.09
421.62	0.07
421.823	0.04
422.027	0.15
422.231	0.1
422.435	0.04
422.638	0.11
422.842	0.05
423.046	0.06
423.249	0.08
423.453	0.09
423.657	0.05
423.86	0.05
424.064	0.03
424.268	0.13
424.471	0.09
424.675	0.12
424.878	0.12
425.082	0.06
425.285	0.15
425.489	0.11
425.692	0.08
425.896	0.02
426.099	0.07
426.303	0.05
426.506	-0
426.71	0.1
426.913	0.08
427.116	0.17
427.32	0.09
427.523	0.1
427.726	0.14
427.93	0.01
428.133	0.06
428.336	-0.02
428.54	0.03
428.743	0.1
428.946	0.11
429.149	0.07
429.353	0.09
429.556	0.04
429.759	0.08
429.962	0.01
430.165	0.07
430.368	0.04
430.571	0.01
430.775	0.1
430.978	0.06
431.181	0.06
431.384	0.1
431.587	0.03
431.79	0.05
431.993	0.01
432.196	0.07
432.399	0.06
432.602	0.13
432.805	0.08
433.008	0.04
433.211	0.03
433.414	0.11
433.616	0.1
433.819	0.08
434.022	-0.01
434.225	0.14
434.428	0.05
434.631	0.15
434.833	0.08
435.036	0.08
435.239	0.14
435.442	0.1
435.645	0.04
435.847	0.09
436.05	0.14
436.253	0.06
436.455	0.03
436.658	0.09
436.861	0.17
437.063	0.03
437.266	0.03
437.468	0.12
437.671	0.18
437.874	0.09
438.076	0
438.279	-0.02
438.481	0.07
438.684	-0.03
438.886	0.13
439.089	-0.01
439.291	0.05
439.494	0.12
439.696	0.02
439.899	0.01
440.101	0.1
440.303	0.01
440.506	0.07
440.708	0.07
440.91	0.07
441.113	-0
441.315	0.09
441.517	0.08
441.72	0.12
441.922	0.06
442.124	0.02
442.326	0.07
442.529	0.1
442.731	0.08
442.933	0.15
443.135	0.06
443.337	0.06
443.539	0.1
443.742	0.09
443.944	0.04
444.146	0.02
444.348	0.03
444.55	0.05
444.752	0.06
444.954	0.01
445.156	0.04
445.358	0.03
445.56	0.18
445.762	0.02
445.964	0.05
446.166	0.04
446.368	0.03
446.57	0.12
446.772	0.02
446.974	0.07
447.175	0.05
447.377	0.03
447.579	0.07
447.781	-0.05
447.983	0.16
448.184	0.04
448.386	0.09
448.588	-0
448.79	0.05
448.991	-0.01
449.193	0.11
449.395	0.09
449.597	0.07
449.798	0.1
450	0.08
450.202	0.07
450.403	0.08
450.605	0.12
450.806	0.04
451.008	-0.05
451.21	0.06
451.411	0.06
451.613	0.04
451.814	0.04
452.016	0.06
452.217	0.08
452.419	0.09
452.62	0.02
452.821	0.13
453.023	0.14
453.224	0.13
453.426	0.06
453.627	0.08
453.828	0.13
454.03	0.07
454.231	0.07
454.432	0.05
454.634	0.18
454.835	0.04
455.036	0.04
455.238	0.11
455.439	0.16
455.64	0.05
455.841	-0
456.042	0.16
456.244	0.09
456.445	0.08
456.646	-0.02
456.847	0.02
457.048	0.11
457.249	0.12
457.45	0.32
457.651	0.03
457.852	0.12
458.054	0.1
458.255	0.02
458.456	0.03
458.657	0.05
458.858	0.04
459.058	0.09
459.259	0.12
459.46	0.06
459.661	0.05
459.862	0.23
460.063	0.06
460.264	0.13
460.465	0.02
460.666	0.15
460.866	0.04
461.067	0.1
461.268	0.06
461.469	0.06
461.67	0.08
461.87	0.07
462.071	0.03
462.272	0.01
462.473	0.02
462.673	0.06
462.874	0.03
463.075	0.1
463.275	-0.01
463.476	0.12
463.676	0.12
463.877	0.06
464.078	0.02
464.278	0.1
464.479	0.03
464.679	0.07
464.88	0.07
465.08	0.16
465.281	0.06
465.481	0.05
465.682	0.05
465.882	0.09
466.083	0.09
466.283	0.08
466.483	0.05
466.684	0.03
466.884	0.02
467.085	0.04
467.285	0.15
467.485	0.07
467.686	0.03
467.886	0.08
468.086	0.06
468.286	0.07
468.487	0.07
468.687	0.04
468.887	0.08
469.087	0.1
469.287	0.08
469.488	-0.02
469.688	0.06
469.888	0.09
470.088	0.1
470.288	0.15
470.488	0.1
470.688	0.04
470.888	0.04
471.088	0.04
471.288	0.09
471.488	0.1
471.688	0.08
471.888	0.01
472.088	0.12
472.288	0.1
472.488	0.03
472.688	0.01
472.888	0.04
473.088	0.08
473.288	0.09
473.488	0.07
473.688	0.13
473.887	0.04
474.087	0.05
474.287	0.08
474.487	0.02
474.687	0.08
474.886	0.06
475.086	0.09
475.286	0.06
475.486	0.03
475.685	0.05
475.885	0.03
476.085	0.04
476.284	0.1
476.484	0.04
476.684	0.06
476.883	0.11
477.083	0.09
477.282	0.06
477.482	0.12
477.681	0.12
477.881	0.07
478.08	0.04
478.28	0
478.479	0.1
478.679	0.12
478.878	0.07
479.078	0.04
479.277	0.03
479.477	0.05
479.676	0.07
479.875	0.04
480.075	-0.03
480.274	0.08
480.473	0.09
480.673	-0.01
480.872	0.06
481.071	0.03
481.271	0.06
481.47	0.03
481.669	0.04
481.868	0.04
482.067	0
482.267	0.01
482.466	-0.01
482.665	0.01
482.864	0.02
483.063	-0
483.262	0.06
483.461	0.09
483.661	0.05
483.86	0.03
484.059	0.03
484.258	0.04
484.457	0
484.656	0.03
484.855	0.08
485.054	-0.01
485.253	0.01
485.452	0
485.651	0.05
485.849	0.02
486.048	-0
486.247	0.01
486.446	0.06
486.645	0.01
486.844	0
487.043	0.02
487.241	0.05
487.44	0.02
487.639	0.01
487.838	0.05
488.037	0.03
488.235	0.09
488.434	0.05
488.633	0.02
488.831	0.05
489.03	0.08
489.229	0.06
489.427	0.02
489.626	0.08
489.825	0.06
490.023	0.03
490.222	0.04
490.42	0.06
490.619	0.07
490.817	0.04
491.016	-0
491.214	0.07
491.413	0.02
491.611	0.03
491.81	0.01
492.008	0.04
492.207	0.05
492.405	0.04
492.604	-0.02
492.802	0.03
493	0.05
493.199	0.01
493.397	0.04
493.595	0.02
493.794	0.01
493.992	0.04
494.19	0.02
494.388	0.06
494.587	0.01
494.785	0.03
494.983	-0.01
495.181	0.04
495.379	0.05
495.578	0.02
495.776	0.04
495.974	0.03
496.172	0.03
496.37	0.02
496.568	0.01
496.766	0.01
496.964	0.06
497.162	0.05
497.36	-0.01
497.558	0.07
497.756	0.05
497.954	0.04
498.152	0.02
498.35	0.03
498.548	0.02
498.746	0.01
498.944	-0.01
499.142	0.02
499.34	0
499.538	0.01
499.736	0.02
499.933	0.05
500.131	0.05
500.329	0.04
500.527	0.06
500.725	0.05
500.922	0.06
501.12	0.05
501.318	0.05
501.516	0.01
501.713	0.06
501.911	0.03
502.109	0.01
502.306	0.06
502.504	0.02
502.701	0.01
502.899	0.02
503.097	0.06
503.294	0.02
503.492	0.08
503.689	0.05
503.887	0.05
504.084	0.08
504.282	0.04
504.479	-0.02
504.677	0.04
504.874	0
505.072	0.02
505.269	0.04
505.466	0.04
505.664	0.04
505.861	-0.01
506.059	0
506.256	0.06
506.453	0.02
506.651	0.07
506.848	0.04
507.045	0.03
507.242	0.03
507.44	0.02
507.637	0.02
507.834	0.03
508.031	0.07
508.229	0.02
508.426	0.04
508.623	0.05
508.82	0.02
509.017	0.01
509.214	0.03
509.411	0.02
509.608	-0.01
509.805	0.04
510.003	0.03
510.2	0.01
510.397	0.06
510.594	0.02
510.791	0.01
510.988	0.03
511.184	0.05
511.381	0.04
511.578	0.02
511.775	0.06
511.972	0.01
512.169	0.01
512.366	0.02
512.563	0.05
512.76	0
512.956	0.06
513.153	0.03
513.35	0.03
513.547	0.01
513.744	0.01
513.94	-0.01
514.137	0.03
514.334	0.02
514.53	0.02
514.727	0.04
514.924	0.09
515.12	0.01
515.317	-0.01
515.514	0.02
515.71	-0
515.907	0
516.103	0.03
516.3	0.06
516.497	0.04
516.693	0.06
516.89	0.03
517.086	0
517.283	0.04
517.479	0.04
517.676	0.03
517.872	0.03
518.068	0
518.265	0.02
518.461	0.02
518.658	0.01
518.854	0.03
519.05	0.01
519.247	0.02
519.443	0.04
519.639	0.05
519.836	0.02
520.032	0.03
520.228	0.02
520.424	0.08
520.621	0.02
520.817	0.02
521.013	0.05
521.209	0.04
521.405	0.07
521.601	0.06
521.798	0.05
521.994	0.1
522.19	0.01
522.386	0.01
522.582	0.02
522.778	0.03
522.974	0.02
523.17	0.03
523.366	0.02
523.562	0.06
523.758	0.01
523.954	0.02
524.15	0.03
524.346	0.05
524.542	0.04
524.738	0.02
524.934	0.02
525.129	0.03
525.325	0.03
525.521	0.01
525.717	0.05
525.913	0.02
526.109	0.03
526.304	0.04
526.5	0.05
526.696	0.06
526.892	0.02
527.087	0.04
527.283	-0.01
527.479	0.04
527.674	0.02
527.87	0.02
528.066	0.04
528.261	0.04
528.457	0.03
528.653	0.05
528.848	0.02
529.044	0.04
529.239	0.04
529.435	0.05
529.63	0.04
529.826	0.07
530.021	0.03
530.217	0.04
530.412	0.02
530.608	0.02
530.803	0.04
530.999	0.03
531.194	0.01
531.389	0.05
531.585	-0
531.78	0.02
531.975	0.01
532.171	0.04
532.366	0.03
532.561	0.01
532.757	0.02
532.952	0.03
533.147	0.04
533.342	0.01
533.538	0.01
533.733	0.05
533.928	0.04
534.123	0.02
534.318	-0
534.513	0.03
534.709	0.03
534.904	0.02
535.099	0.01
535.294	0.03
535.489	0.05
535.684	0.02
535.879	-0.01
536.074	0.05
536.269	0.03
536.464	0.05
536.659	0.02
536.854	0.03
537.049	0.05
537.244	0.04
537.439	0.04
537.634	0.06
537.828	0.04
538.023	0.01
538.218	0.01
538.413	0.03
538.608	0.03
538.803	0.07
538.997	-0.01
539.192	0.06
539.387	0.05
539.582	0.06
539.776	0.05
539.971	0.02
540.166	0.01
540.36	0.01
540.555	0.03
540.75	0.03
540.944	0.04
541.139	0.01
541.334	0.01
541.528	0.05
541.723	0.05
541.917	0.03
542.112	0.02
542.306	0.04
542.501	0.02
542.695	0.05
542.89	0.02
543.084	0.04
543.279	0.03
543.473	0.02
543.668	0.04
543.862	0.04
544.056	0.04
544.251	0.03
544.445	0.03
544.64	0.04
544.834	-0.01
545.028	0.02
545.222	0.05
545.417	0.06
545.611	0.06
545.805	0.05
546	0.02
546.194	0.03
546.388	0.03
546.582	0.06
546.776	0.04
546.97	0.03
547.165	0.05
547.359	0.08
547.553	0.02
547.747	0.04
547.941	0.04
548.135	0.03
548.329	0.06
548.523	0.03
548.717	0.05
548.911	0
549.105	0.04
549.299	0.03
549.493	0.05
549.687	0.05
549.881	0.07
550.075	0.05
550.269	0.02
550.463	0.05
550.657	0.03
550.85	0.03
551.044	0.01
551.238	0.03
551.432	0.03
551.626	-0.01
551.82	0.05
552.013	0.02
552.207	0.05
552.401	0.06
552.594	0.06
552.788	0.02
552.982	0.05
553.176	0.03
553.369	0.05
553.563	0.04
553.756	-0.01
553.95	0.02
554.144	0.04
554.337	0.06
554.531	0.05
554.724	0.04
554.918	0.04
555.111	0.07
555.305	0.04
555.498	0.09
555.692	0.06
555.885	0.03
556.079	0.07
556.272	0.02
556.466	0.07
556.659	0.05
556.852	0.04
557.046	0.03
557.239	0.07
557.432	0.02
557.626	0.04
557.819	0.06
558.012	0.05
558.206	0.05
558.399	0.04
558.592	0.06
558.785	0.03
558.979	0.07
559.172	0.04
559.365	0.05
559.558	0.06
559.751	0.05
559.944	0.03
560.138	0.02
560.331	0.03
560.524	0.03
560.717	0.03
560.91	0.05
561.103	0.07
561.296	0.04
561.489	0.06
561.682	0.06
561.875	0.07
562.068	0.08
562.261	0.05
562.454	0.11
562.647	0.05
562.84	0.06
563.032	0.04
563.225	0.07
563.418	0.04
563.611	0.03
563.804	0.06
563.997	0.03
564.19	0.04
564.382	-0
564.575	0.04
564.768	0.04
564.961	0.05
565.153	0.05
565.346	0.07
565.539	0.05
565.731	0.06
565.924	0.05
566.117	0.08
566.309	0.04
566.502	0.04
566.695	0.05
566.887	0.06
567.08	0.02
567.272	0.06
567.465	0.04
567.657	0.04
567.85	0.06
568.042	0.07
568.235	0.07
568.427	0.07
568.62	0.06
568.812	0.08
569.005	0.06
569.197	0
569.389	0.05
569.582	0.08
569.774	0.06
569.966	0.03
570.159	0
570.351	0.08
570.543	0.05
570.736	0.05
570.928	0.03
571.12	0.08
571.312	0.05
571.505	0.02
571.697	0.09
571.889	0.04
572.081	0.04
572.273	0.03
572.465	0.1
572.658	0.05
572.85	0.06
573.042	0.06
573.234	0.04
573.426	0.09
573.618	0.03
573.81	0.06
574.002	0.07
574.194	0.09
574.386	0.02
574.578	-0.03
574.77	0.05
574.962	0.03
575.154	0.02
575.346	0.06
575.538	0.07
575.729	0.06
575.921	0.03
576.113	0.05
576.305	0.09
576.497	0.06
576.689	0.03
576.88	0.04
577.072	0.08
577.264	0.06
577.456	0.08
577.647	0.01
577.839	0.06
578.031	0.09
578.223	0.03
578.414	0.04
578.606	0.09
578.798	0.05
578.989	0.05
579.181	0.08
579.372	0.06
579.564	0.06
579.755	0.09
579.947	0.09
580.139	0.08
580.33	0.03
580.522	0.05
580.713	0
580.905	0.05
581.096	0.08
581.287	0.07
581.479	0.07
581.67	0.08
581.862	0.08
582.053	0.06
582.244	0.04
582.436	0.08
582.627	0.07
582.818	0.07
583.01	0.03
583.201	0.11
583.392	0.1
583.583	0.08
583.775	0.06
583.966	0.06
584.157	0.05
584.348	0.04
584.54	0.04
584.731	0.08
584.922	0.07
585.113	0.03
585.304	0.1
585.495	0.12
585.686	0.08
585.877	0.08
586.068	0.08
586.259	0.11
586.45	0.1
586.641	0.07
586.832	0.05
587.023	0.08
587.214	0.1
587.405	0.1
587.596	0.06
587.787	0.12
587.978	0.11
588.169	0.07
588.36	0.07
588.551	0.08
588.742	0.09
588.932	0.09
589.123	0.1
589.314	0.12
589.505	0.11
589.696	0.12
589.886	0.06
590.077	0.07
590.268	0.1
590.458	0.06
590.649	0.06
590.84	0.13
591.03	0.1
591.221	0.08
591.412	0.08
591.602	0.13
591.793	0.15
591.984	0.08
592.174	0.07
592.365	0.19
592.555	0.08
592.746	0.12
592.936	0.14
593.127	0.13
593.317	0.14
593.508	0.09
593.698	0.08
593.889	0.13
594.079	0.12
594.269	0.07
594.46	0.09
594.65	0.11
594.84	0.12
595.031	0.09
595.221	0.11
595.411	0.1
595.602	0.15
595.792	0.14
595.982	0.12
596.172	0.2
596.363	0.14
596.553	0.16
596.743	0.17
596.933	0.14
597.123	0.18
597.314	0.12
597.504	0.11
597.694	0.19
597.884	0.16
598.074	0.15
598.264	0.16
598.454	0.16
598.644	0.16
598.834	0.16
599.024	0.12
599.214	0.16
599.404	0.19
599.594	0.14
599.784	0.17
599.974	0.22
600.164	0.2
600.354	0.14
600.544	0.15
600.734	0.22
600.924	0.23
601.114	0.18
601.303	0.17
601.493	0.23
601.683	0.16
601.873	0.2
602.063	0.14
602.252	0.24
602.442	0.16
602.632	0.18
602.821	0.22
603.011	0.25
603.201	0.21
603.39	0.23
603.58	0.2
603.77	0.26
603.959	0.27
604.149	0.25
604.339	0.2
604.528	0.29
604.718	0.31
604.907	0.23
605.097	0.26
605.286	0.24
605.476	0.28
605.665	0.32
605.855	0.24
606.044	0.32
606.234	0.35
606.423	0.29
606.612	0.28
606.802	0.29
606.991	0.34
607.181	0.32
607.37	0.28
607.559	0.29
607.749	0.27
607.938	0.35
608.127	0.32
608.316	0.35
608.506	0.34
608.695	0.37
608.884	0.33
609.073	0.34
609.263	0.39
609.452	0.43
609.641	0.4
609.83	0.37
610.019	0.41
610.208	0.39
610.397	0.42
610.586	0.47
610.775	0.43
610.965	0.41
611.154	0.4
611.343	0.45
611.532	0.48
611.721	0.45
611.91	0.46
612.099	0.5
612.287	0.49
612.476	0.47
612.665	0.53
612.854	0.54
613.043	0.57
613.232	0.54
613.421	0.52
613.61	0.6
613.798	0.57
613.987	0.64
614.176	0.64
614.365	0.63
614.554	0.61
614.742	0.67
614.931	0.63
615.12	0.71
615.309	0.65
615.497	0.7
615.686	0.67
615.875	0.7
616.063	0.7
616.252	0.72
616.44	0.72
616.629	0.74
616.818	0.81
617.006	0.82
617.195	0.8
617.383	0.84
617.572	0.8
617.76	0.84
617.949	0.84
618.137	0.89
618.326	0.93
618.514	0.88
618.703	0.9
618.891	1.01
619.079	0.92
619.268	1.03
619.456	0.98
619.644	1.08
619.833	1.04
620.021	1.05
620.209	1.02
620.398	1.09
620.586	1.11
620.774	1.14
620.962	1.17
621.151	1.24
621.339	1.18
621.527	1.17
621.715	1.21
621.903	1.24
622.092	1.25
622.28	1.34
622.468	1.31
622.656	1.37
622.844	1.43
623.032	1.45
623.22	1.4
623.408	1.54
623.596	1.5
623.784	1.57
623.972	1.52
624.16	1.57
624.348	1.68
624.536	1.68
624.724	1.68
624.912	1.78
625.1	1.85
625.288	1.75
625.476	1.75
625.664	1.87
625.851	1.88
626.039	1.91
626.227	1.94
626.415	1.99
626.603	1.96
626.79	2.09
626.978	2.14
627.166	2.17
627.354	2.11
627.541	2.19
627.729	2.1
627.917	2.33
628.104	2.36
628.292	2.34
628.48	2.43
628.667	2.44
628.855	2.48
629.042	2.62
629.23	2.56
629.418	2.59
629.605	2.68
629.793	2.66
629.98	2.77
630.168	2.81
630.355	2.88
630.543	2.99
630.73	2.92
630.917	3.04
631.105	3.15
631.292	3.17
631.48	3.22
631.667	3.35
631.854	3.32
632.042	3.36
632.229	3.31
632.416	3.49
632.604	3.54
632.791	3.52
632.978	3.62
633.165	3.72
633.353	3.8
633.54	3.94
633.727	3.85
633.914	3.94
634.101	3.89
634.289	4.22
634.476	4.05
634.663	4.14
634.85	4.25
635.037	4.31
635.224	4.32
635.411	4.5
635.598	4.48
635.785	4.56
635.972	4.64
636.159	4.72
636.346	4.8
636.533	4.84
636.72	4.97
636.907	5
637.094	5.04
637.281	5.14
637.468	5.32
637.655	5.37
637.842	5.44
638.029	5.45
638.215	5.49
638.402	5.69
638.589	5.71
638.776	5.78
638.963	5.86
639.149	6.02
639.336	6.13
639.523	6.18
639.709	6.23
639.896	6.3
640.083	6.38
640.27	6.6
640.456	6.59
640.643	6.65
640.829	6.68
641.016	6.83
641.203	6.93
641.389	7.09
641.576	7.18
641.762	7.25
641.949	7.33
642.135	7.4
642.322	7.52
642.508	7.69
642.695	7.97
642.881	7.94
643.068	7.97
643.254	8.16
643.441	8.34
643.627	8.5
643.813	8.45
644	8.72
644.186	8.77
644.372	9.05
644.559	9.08
644.745	9.17
644.931	9.32
645.118	9.6
645.304	9.64
645.49	9.85
645.676	10.05
645.862	10.04
646.049	10.37
646.235	10.52
646.421	10.78
646.607	10.98
646.793	10.99
646.979	11.05
647.165	11.41
647.352	11.55
647.538	11.69
647.724	11.86
647.91	12.05
648.096	12.2
648.282	12.52
648.468	12.57
648.654	12.93
648.84	12.99
649.026	13.33
649.212	13.28
649.397	13.6
649.583	13.94
649.769	14.09
649.955	14.17
650.141	14.61
650.327	14.56
650.513	14.91
650.698	15.06
650.884	15.23
651.07	15.62
651.256	15.67
651.442	16.11
651.627	15.97
651.813	16.65
651.999	16.54
652.184	16.74
652.37	17.25
652.556	17.4
652.741	17.62
652.927	17.51
653.113	18.04
653.298	18.47
653.484	18.67
653.669	18.72
653.855	19.03
654.04	19.45
654.226	19.46
654.412	19.71
654.597	19.69
654.782	20.22
654.968	20.4
655.153	20.69
655.339	20.94
655.524	21.12
655.71	21.34
655.895	21.7
656.08	21.9
656.266	22.24
656.451	22.17
656.636	22.29
656.822	22.56
657.007	22.89
657.192	22.98
657.378	23.14
657.563	23.09
657.748	23.55
657.933	23.9
658.118	23.32
658.304	24.2
658.489	24.24
658.674	24.14
658.859	24.19
659.044	24.44
659.229	24.68
659.414	24.8
659.599	24.81
659.785	24.81
659.97	24.87
660.155	24.81
660.34	25.04
660.525	24.85
660.71	24.81
660.895	24.85
661.08	24.74
661.264	24.54
661.449	24.44
661.634	23.99
661.819	24.25
662.004	23.56
662.189	23.74
662.374	23.59
662.559	23.1
662.743	22.78
662.928	22.71
663.113	22.12
663.298	22.01
663.483	21.58
663.667	21.05
663.852	20.89
664.037	20.57
664.221	20.26
664.406	19.7
664.591	19.24
664.775	18.8
664.96	18.45
665.145	17.61
665.329	17.45
665.514	16.98
665.698	16.33
665.883	15.91
666.068	15.67
666.252	15.17
666.437	14.78
666.621	14.27
666.806	13.85
666.99	13.42
667.174	12.95
667.359	12.48
667.543	12.08
667.728	11.75
667.912	11.33
668.096	11
668.281	10.46
668.465	10.37
668.649	9.97
668.834	9.44
669.018	9.33
669.202	9.12
669.387	8.76
669.571	8.41
669.755	8.1
669.939	7.78
670.124	7.56
670.308	7.33
670.492	7.18
670.676	6.83
670.86	6.57
671.044	6.36
671.228	6.17
671.413	5.92
671.597	5.8
671.781	5.57
671.965	5.45
672.149	5.25
672.333	5.08
672.517	4.92
672.701	4.86
672.885	4.6
673.069	4.39
673.253	4.4
673.437	4.17
673.621	4.09
673.804	3.97
673.988	3.87
674.172	3.61
674.356	3.51
674.54	3.53
674.724	3.49
674.908	3.32
675.091	3.22
675.275	3.04
675.459	3.04
675.643	2.88
675.826	2.82
676.01	2.71
676.194	2.63
676.377	2.57
676.561	2.5
676.745	2.47
676.928	2.4
677.112	2.37
677.296	2.17
677.479	2.09
677.663	2.03
677.846	1.91
678.03	1.96
678.213	1.8
678.397	1.85
678.58	1.77
678.764	1.66
678.947	1.61
679.131	1.59
679.314	1.64
679.498	1.5
679.681	1.55
679.865	1.55
680.048	1.42
680.231	1.37
680.415	1.28
680.598	1.25
680.781	1.29
680.965	1.22
681.148	1.23
681.331	1.11
681.514	1.15
681.698	1.06
681.881	1.11
682.064	1.01
682.247	1.06
682.43	0.9
682.614	1
682.797	0.98
682.98	0.91
683.163	0.82
683.346	0.92
683.529	0.86
683.712	0.76
683.895	0.83
684.078	0.72
684.261	0.72
684.444	0.75
684.627	0.7
684.81	0.7
684.993	0.72
685.176	0.66
685.359	0.63
685.542	0.67
685.725	0.7
685.908	0.61
686.091	0.57
686.274	0.61
686.457	0.56
686.639	0.53
686.822	0.62
687.005	0.56
687.188	0.61
687.371	0.63
687.553	0.59
687.736	0.53
687.919	0.58
688.102	0.53
688.284	0.46
688.467	0.47
688.65	0.47
688.832	0.39
689.015	0.48
689.197	0.36
689.38	0.55
689.563	0.48
689.745	0.39
689.928	0.41
690.11	0.4
690.293	0.37
690.475	0.32
690.658	0.4
690.84	0.31
691.023	0.36
691.205	0.36
691.388	0.32
691.57	0.4
691.752	0.34
691.935	0.26
692.117	0.34
692.3	0.32
692.482	0.29
692.664	0.3
692.847	0.33
693.029	0.38
693.211	0.37
693.393	0.3
693.576	0.22
693.758	0.28
693.94	0.26
694.122	0.26
694.304	0.27
694.487	0.24
694.669	0.3
694.851	0.18
695.033	0.3
695.215	0.25
695.397	0.18
695.579	0.25
695.761	0.19
695.943	0.28
696.125	0.24
696.308	0.27
696.49	0.16
696.671	0.3
696.853	0.22
697.035	0.39
697.217	0.22
697.399	0.26
697.581	0.17
697.763	0.24
697.945	0.21
698.127	0.22
698.309	0.32
698.491	0.25
698.672	0.29
698.854	0.27
699.036	0.32
699.218	0.17
699.399	0.25
699.581	0.22
699.763	0.18
699.945	0.11
700.126	0.16
700.308	0.23
700.49	0.18
700.671	0.09
700.853	0.14
701.035	0.15
701.216	0.17
701.398	0.16
701.579	0.18
701.761	0.24
701.943	0.17
702.124	0.1
702.306	0.13
702.487	0.29
702.669	0.15
702.85	0.15
703.031	0.12
703.213	0.26
703.394	0.19
703.576	0.14
703.757	0.29
703.938	0.23
704.12	0.27
704.301	0.13
704.483	0.14
704.664	0.15
704.845	0.29
705.026	0.22
705.208	0.14
705.389	0.19
705.57	0.17
705.751	0.13
705.933	0.16
706.114	0.23
706.295	0.16
706.476	0.09
706.657	0.23
706.838	0.24
707.02	0.22
707.201	0.14
707.382	0.12
707.563	0.13
707.744	0.14
707.925	0.07
708.106	0.1
708.287	0.17
708.468	0.27
708.649	0.13
708.83	0.23
709.011	0.09
709.192	0.16
709.373	0.09
709.554	0.17
709.734	0.21
709.915	0.21
710.096	0.09
710.277	0.06
710.458	0.16
710.639	0.21
710.819	0.03
711	0.15
711.181	0.21
711.362	0.18
711.542	0.14
711.723	0.13
711.904	0.2
712.085	0.2
712.265	0.17
712.446	0.11
712.627	0.13
712.807	0.24
712.988	0.17
713.168	0.04
713.349	0.13
713.53	-0.01
713.71	0.12
713.891	0.11
714.071	0.12
714.252	0.11
714.432	0.1
714.613	0.08
714.793	0.14
714.974	0.24
715.154	0.2
715.334	0.2
715.515	0.21
715.695	0.05
715.876	0.12
716.056	0.17
716.236	0.06
716.417	0.19
716.597	0.04
716.777	0.27
716.957	0.05
717.138	0.11
717.318	0.08
717.498	0.06
717.678	0.1
717.859	0.13
718.039	0.1
718.219	0.18
718.399	0.18
718.579	0.12
718.759	0.1
718.939	0.2
719.12	0.1
719.3	0.17
719.48	-0.08
719.66	0.03
719.84	0.25
720.02	0.16
720.2	0.11
720.38	0.12
720.56	0.28
720.74	0.1
720.92	0.15
721.1	0.26
721.279	0.21
721.459	0.2
721.639	0.03
721.819	0.14
721.999	0.1
722.179	0.14
722.359	0.08
722.538	0.14
722.718	0.09
722.898	0.12
723.078	0.12
723.257	0.07
723.437	0.1
723.617	0.18
723.797	0.03
723.976	0.12
724.156	0.14
724.336	0.14
724.515	0.25
724.695	0
724.874	0.15
725.054	0.23
725.234	0.05
725.413	0.08
725.593	0.11
725.772	0.11
725.952	0.12
726.131	0.14
726.311	0.18
726.49	0.18
726.67	0.1
726.849	0.11
727.028	0.13
727.208	0.09
727.387	0.13
727.567	0.05
727.746	0.09
727.925	0.1
728.105	0.05
728.284	0.09
728.463	-0.16
728.643	0.17
728.822	0
729.001	0.17
729.18	0.1
729.359	0.24
729.539	0.11
729.718	0.17
729.897	0.12
730.076	0.1
730.255	-0.06
730.434	0.08
730.614	0.11
730.793	0.21
730.972	0.05
731.151	0.16
731.33	0.18
731.509	0.2
731.688	0.15
731.867	0.07
732.046	-0.09
732.225	0.33
732.404	0.04
732.583	0.04
732.762	0.13
732.941	0.24
733.12	0.15
733.298	0.07
733.477	0.25
733.656	0.09
733.835	0.04
734.014	0.14
734.193	0.11
734.371	0.16
734.55	0.19
734.729	-0.02
734.908	0.22
735.086	0.08
735.265	0.23
735.444	-0.04
735.623	0.01
735.801	0.06
735.98	0.17
736.159	0.17
736.337	0.14
736.516	0.16
736.694	0.12
736.873	0.2
737.052	0.31
737.23	0.33
737.409	0.13
737.587	0.28
737.766	-0.02
737.944	0.08
738.123	0.19
738.301	0.16
738.479	0.02
738.658	0.1
738.836	-0.02
739.015	0.2
739.193	0.06
739.371	0.08
739.55	0.15
739.728	-0.05
739.906	0.13
740.085	0.24
740.263	0.04
740.441	0.01
740.62	0.24
740.798	0.24
740.976	0.05
741.154	0.09
741.332	0.27
741.511	0.08
741.689	0.25
741.867	0.16
742.045	0.14
742.223	0.16
742.401	-0.02
742.579	0.11
742.757	0.24
742.935	0.09
743.114	0.11
743.292	0.09
743.47	0.18
743.648	0.19
743.826	0.03
744.004	0.16
744.181	0.16
744.359	0.09
744.537	0.12
744.715	0.19
744.893	0.24
745.071	0.11
745.249	0.05
745.427	0.02
745.605	0.14
745.782	0.09
745.96	0.19
746.138	0.13
746.316	0.21
746.493	0.18
746.671	0.1
746.849	-0
747.027	0.18
747.204	-0.04
747.382	0.15
747.56	-0.08
747.737	0.01
747.915	0.01
748.093	0.08
748.27	0.06
748.448	0
748.625	-0.02
748.803	-0.02
748.98	0.12
749.158	0.13
749.335	0.14
749.513	0.06
749.69	0.03
749.868	0.08
750.045	0.1
750.223	0.03
750.4	-0.06
750.578	0.37
750.755	0.09
750.932	-0.01
751.11	0.28
751.287	-0.01
751.464	0.25
751.642	0.04
751.819	0.06
751.996	0.25
752.173	0.01
752.351	0.01
752.528	0.1
752.705	0.13
752.882	-0.02
753.06	0.12
753.237	0.06
753.414	0.33
753.591	0.24
753.768	0.12
753.945	0.07
754.122	-0.01
754.299	0.2
754.476	-0.02
754.654	0.19
754.831	0.1
755.008	0.16
755.185	0.03
755.362	-0.07
755.539	0.1
755.716	-0.01
755.892	0.05
756.069	-0.03
756.246	0.11
756.423	0.05
756.6	0.29
756.777	0.11
756.954	0.24
757.131	0.04
757.307	-0.06
757.484	0.11
757.661	0.11
757.838	0.15
758.015	-0.03
758.191	0.2
758.368	0.17
758.545	0.28
758.721	0.26
758.898	-0
759.075	0.26
759.251	0.17
759.428	0.21
759.605	-0.04
759.781	0.05
759.958	0.26
760.134	0.14
760.311	-0.02
760.488	0.23
760.664	0.22
760.841	0.06
761.017	0.08
761.194	0.23
761.37	0.13
761.547	0.13
761.723	-0.04
761.899	0.24
762.076	0.15
762.252	0.13
762.429	0.06
762.605	0.17
762.781	0.21
762.958	0.14
763.134	0.04
763.31	0.06
763.486	0.25
763.663	-0.12
763.839	0.15
764.015	-0.08
764.191	-0.07
764.368	0.17
764.544	0.07
764.72	0.07
764.896	0.22
765.072	0.09
765.248	-0.05
765.425	0.09
765.601	0.15
765.777	0.09
765.953	-0.2
766.129	0.09
766.305	-0.03
766.481	0.14
766.657	0.07
766.833	0.17
767.009	-0.13
767.185	0.13
767.361	0.12
767.537	-0.03
767.713	0.21
767.889	0.09
768.065	0.04
768.24	-0.01
768.416	0.08
768.592	0.04
768.768	0.1
768.944	0.12
769.12	0.01
769.295	0.13
769.471	0.02
769.647	0.18
769.823	0.34
769.998	0.1
770.174	-0.03
770.35	0.42
770.525	0.43
770.701	0.13
770.877	0.23
771.052	-0.02
771.228	0.13
771.403	0.15
771.579	0.23
771.755	0.38
771.93	0.1
772.106	-0.13
772.281	-0.08
772.457	0.17
772.632	0.27
772.808	-0.03
772.983	0.18
773.159	-0.01
773.334	0.22
773.509	0.06
773.685	-0.03
773.86	0.4
774.036	0.34
774.211	-0
774.386	0.08
774.562	0.1
774.737	0.01
774.912	-0.02
775.087	0.19
775.263	0.09
775.438	0.12
775.613	0.12
775.788	0.07
775.964	0.17
776.139	0.38
776.314	0.01
776.489	0.09
776.664	0.25
776.839	-0.03
777.014	0.15
777.19	0.26
777.365	0.41
777.54	0.23
777.715	0.01
777.89	0.22
778.065	-0.13
778.24	0.08
778.415	0.16
778.59	-0.03
778.765	0.04
778.94	0.14
779.115	-0.03
779.289	0.07
779.464	0.23
779.639	0.04
779.814	-0.1
779.989	-0
780.164	0.39
780.339	0.24
780.513	0.04
780.688	-0.08
780.863	0.29
781.038	0.24
781.212	0.02
781.387	0.17
781.562	0.53
781.737	-0.09
781.911	0.17
782.086	-0.01
782.261	0.19
782.435	0.34
782.61	-0.07
782.784	0.07
782.959	0.34
783.134	0.09
783.308	-0.15
783.483	0.18
783.657	0.29
783.832	0.33
784.006	-0.24
784.181	0.24
784.355	0.36
784.53	-0.05
784.704	0.06
784.878	0.47
785.053	0.22
785.227	0.38
785.402	0.32
785.576	0.07
785.75	-0.02
785.925	0.05
786.099	0.17
786.273	0.29
786.448	0.37
786.622	0.48
786.796	0.25
786.97	0.04
787.145	0.48
787.319	-0.41
787.493	0.09
787.667	-0.19
787.841	0.23
788.015	0.38
788.19	0.02
788.364	0.24
788.538	0.32
788.712	0.27
788.886	0.18
789.06	0.21
789.234	0.33
789.408	0.02
789.582	0.02
789.756	0.19
789.93	0.08
790.104	-0.05
790.278	0.13
790.452	-0.01
790.626	0.32
790.8	0.16
790.973	0.25
791.147	0.4
791.321	0.34
791.495	0.32
791.669	0.22
791.843	0.26
792.016	0.18
792.19	0.59
792.364	-0.02
792.538	0.55
792.711	0.51
792.885	-0.01
793.059	0
793.233	-0.41
793.406	0.46
793.58	0.17
793.754	0.4
793.927	0
794.101	0.52
794.274	0.17
794.448	0.53
794.622	-0.08
794.795	0.58
794.969	-0.12
795.142	0.62
795.316	0.11
795.489	0.15
795.663	0.57
795.836	0.24
796.009	0.21
796.183	0.41
796.356	0.33
796.53	0.3
796.703	0.19
796.876	0.54
797.05	0.14
797.223	0.21
797.396	0.32
797.57	0.07
797.743	0.56
797.916	0.26
798.09	0.28
798.263	0.35
798.436	0.25
798.609	0.02
798.782	0.47
798.956	0.36
799.129	0.24
799.302	0.11
799.475	-0.06
799.648	0.05
799.821	0.04
799.994	0.28
800.167	-0
800.34	0.28
800.514	0.23
800.687	-0.02
800.86	0.04
801.033	0.42
801.206	-0.04
801.379	0.23
801.551	0.41
801.724	0.59
801.897	0.58
802.07	0.2
802.243	-0.18
802.416	0.31
802.589	0.06
802.762	0.33
802.935	0.14
803.107	0.29
803.28	0.93
803.453	0.53
803.626	0.2
803.798	0.13
803.971	0.33
804.144	0.48
804.317	0.17
804.489	0.32
804.662	0.15
804.835	0.24
805.007	-0.07
805.18	0.55
805.353	0.33
805.525	0.04
805.698	0.01
805.87	0.26
806.043	0.33
806.215	-0.07
806.388	0.32
806.56	0.3
806.733	0.36
806.905	0.4
807.078	0.09
807.25	-0.05
807.423	0.31
807.595	0.08
807.768	0.29
807.94	0.63
808.112	0.24
808.285	0.13
808.457	-0.08
808.629	0.31
808.802	0.18
808.974	0.26
809.146	0.17
809.318	-0
809.491	0.44
809.663	0.63
809.835	-0.11
810.007	0.39
810.18	0.23
810.352	-0.08
810.524	0.11
810.696	0.7
810.868	0.74
811.04	0.21
811.212	0.08
811.384	0.54
811.556	0.31
811.728	0.37
811.901	1.18
812.073	0.13
812.245	0.55
812.417	0.3
812.589	-0.12
812.76	0.1
812.932	0.09
813.104	0.53
813.276	0.11
813.448	-0.11
813.62	0.25
813.792	0.67
813.964	0.42
814.136	0.21
814.307	-0.26
814.479	0.17
814.651	-0.04
814.823	0.89
814.995	0.38
815.166	0.54
815.338	-0.17
815.51	-0.13
815.681	1
815.853	0.42
816.025	0.43
816.196	0.81
816.368	0.48
816.54	-0.52
816.711	0.13
816.883	-0.32
817.054	1.32
817.226	-0.15
817.398	0.76
817.569	0.35
817.741	0.21
817.912	0.48
818.084	0.28
818.255	0.76
818.426	0.24
818.598	0.25
818.769	0.09
818.941	0.68
819.112	0.58
819.283	0.47
819.455	-0
819.626	-0.01
819.798	0.58
819.969	-0.01
820.14	0.21
820.311	-0.24
820.483	0.65
820.654	0.53
820.825	-0.1
820.996	0.09
821.168	-0.19
821.339	0.66
821.51	-0.13
821.681	0.06
821.852	0.44
822.023	0.07
822.195	-0.55
822.366	0.81
822.537	0.26
822.708	0.31
822.879	0.17
823.05	1.23
823.221	0.28
823.392	0.55
823.563	0.37
823.734	0.1
823.905	0.96
824.076	0.43
824.247	-0.39
824.418	0.2
824.589	1.11
824.759	0.29
824.93	0.16
825.101	-0.17
825.272	1.12
825.443	0.61
825.614	1.63
825.784	-0.2
825.955	0.74
826.126	0.81
826.297	0.32
826.467	1.31
826.638	1.51
826.809	-0.65
826.98	0.58
827.15	0.61
827.321	0.56
827.492	1.13
827.662	0.49
827.833	1.17
828.003	0.09
828.174	0.06
828.345	-0.06
828.515	0.97
828.686	0.5
828.856	0.68
829.027	0.15
829.197	0.65
829.368	1.04
829.538	0.36
829.709	0.24
829.879	0.55
830.049	0.17
830.22	0.46
830.39	0.17
830.56	0.33
830.731	0.03
830.901	-0.12
831.072	0.41
831.242	0.74
831.412	0.17
831.582	0.65
831.753	-0.34
831.923	0.72
832.093	0.21
832.263	0.15
832.434	-0.21
832.604	0.41
832.774	0.41
832.944	0.28
833.114	0.12
833.284	0.66
833.454	-0.76
833.624	0.46
833.795	0.03
833.965	1.28
834.135	0.95
834.305	-0.96
834.475	0.14
834.645	-0.56
834.815	0.3
834.985	-0.21
835.155	-0.07
835.325	0.67
835.494	1.1
835.664	-0.03
835.834	-0.42
836.004	0.53
836.174	0.72
836.344	0.9
836.514	-0.18
836.684	-0.16
836.853	0.42
837.023	1.18
837.193	0.05
837.363	1.23
837.532	1.17
837.702	0.52
837.872	0.07
838.041	0.62
838.211	2.17
838.381	0.34
838.55	0.58
838.72	2.42
838.89	1.44
839.059	0.73
839.229	0.42
839.398	2.23
839.568	0.67
839.738	0.98
839.907	1.52
840.077	0.55
840.246	-0.04
840.416	-0.32
840.585	-0.46
840.755	1.59
840.924	1.19
841.093	0.33
841.263	0.27
841.432	0.77
841.602	-0.3
841.771	-0.16
841.94	0.41
842.11	2.06
842.279	1.97
842.448	-0.39
842.617	-0.06
842.787	2.38
842.956	-0.43
843.125	0.6
843.294	1.33
843.464	2.07
843.633	0.52
843.802	-0.32
843.971	0.72
844.14	0.39
844.309	1.67
844.479	-0.07
844.648	0.23
844.817	-0.21
844.986	-0.17
845.155	-0.41
845.324	0.76
845.493	1.1
845.662	0.2
845.831	1.02
846	0.72
846.169	0.26
846.338	1.43
846.507	0.7
846.676	1.06
846.844	0.02
847.013	1.32
847.182	0.7
847.351	0.27
847.52	0.68
847.689	1.78
847.858	0.74
848.026	-0.52
848.195	0.5
848.364	0.86
848.533	-0.04
848.701	-0.37
848.87	-0.67
849.039	1.68
849.207	1.41
849.376	2.31
849.545	2.51
849.713	0.32
849.882	0.29
850.051	0.4
850.219	0.88
850.388	0.99
850.556	0.29
850.725	0.21
850.893	0.94
851.062	0.93
851.23	1.64
851.399	-0.55
851.567	-1.09
851.736	-0.35
851.904	-0.11
852.073	0.05
852.241	0.55
852.41	1.24
852.578	1.03
852.746	0.28
852.915	1.04
853.083	0.84
853.251	0.01
853.42	0.37
853.588	0.13
853.756	2.55
853.924	0.22
854.093	0.22
854.261	0.87
854.429	-0.47
854.597	0.92
854.765	-0.14
854.934	2.01
855.102	1.38
855.27	-0.5
855.438	0.92
855.606	2.14
855.774	1.53
855.942	-0.79
856.11	-1.17
856.278	0.41
856.446	0.57
856.614	0.81
856.782	1
856.95	1.59
857.118	1.34
857.286	1.08
857.454	0.15
857.622	1.56
857.79	0.96
857.958	-0.62
858.126	1.05
858.294	-0.12
858.462	1.09
858.629	-0.23
858.797	-0.95
858.965	1.06
859.133	0.61
859.301	0.32
859.468	0.87
859.636	-0.1
859.804	2.7
859.971	2.25
860.139	-0.39
860.307	1.83
860.474	0.27
860.642	0.5
860.81	0.02
860.977	0.69
861.145	1.44
861.313	-0.08
861.48	0.52
861.648	1.29
861.815	-0.16
861.983	-0.41
862.15	1.57
862.318	1.66
862.485	2.35
862.653	0.93
862.82	0.2
862.988	2.26
863.155	1.64
863.322	-0.12
863.49	-0.15
863.657	0.65
863.824	2.49
863.992	1.43
864.159	1.64
864.326	1.44
864.494	-0.13
864.661	4.38
864.828	-0.14
864.996	2.03
865.163	2.49
865.33	-0.23
865.497	-1.26
865.664	0.96
865.832	-1.72
865.999	0.8
866.166	-0.65
866.333	-0.52
866.5	0.49
866.667	1.71
866.834	0.94
867.001	2.25
867.168	-0.98
867.335	0.8
867.502	-1.2
867.669	1.9
867.836	2.96
868.003	1.75
868.17	2.02
868.337	1.69
868.504	3.81
868.671	-0.23
868.838	-0.66
869.005	0.94
869.172	1.68
869.339	0.99
869.505	0.63
869.672	1.07
869.839	3.21
870.006	1.59
870.173	-0.58
870.339	1.09
870.506	4.88
870.673	-0.84
870.84	0.74
871.006	2.63
871.173	1.58
871.34	1.64
871.506	-0.02
871.673	0.81
871.839	-0.34
872.006	0.39
872.173	1.38
872.339	0.1
872.506	1.08
872.672	-0.35
872.839	0.13
873.005	2.61
873.172	3.4
873.338	1.92
873.505	2.21
873.671	0.3
873.838	2.07
874.004	-0.14
874.171	1.42
874.337	2.04
874.503	2.39
874.67	1.44
874.836	0.02
875.002	2.44
875.169	0.73
875.335	1.25
875.501	0.02
875.668	1.62
875.834	0.9
876	2.1
876.166	1.57
876.332	1.9
876.499	3.19
876.665	0.71
876.831	1.71
876.997	4.72
877.163	3.27
877.329	0.2
877.495	1.32
877.662	3.5
877.828	1.98
877.994	-0.15
878.16	-1.85
878.326	1.07
878.492	-0.13
878.658	-0.65
878.824	1.5
878.99	3.68
879.156	0.24
879.322	4.12
879.487	-0.64
879.653	0.86
879.819	2.1
879.985	0.7
880.151	1.75
880.317	2.24
880.483	0.95
880.648	2.39
880.814	-0.08
880.98	0.97
881.146	-3.36
881.312	-0.04
881.477	-0.75
881.643	0.77
881.809	3.09
881.974	1.78
882.14	-0.23
882.306	0.3
882.471	2.11
882.637	1.73
882.803	2.15
882.968	2.97
883.134	4.65
883.299	-0.6
883.465	1.32
883.63	4.46
883.796	1.43
883.961	1.54
884.127	3.57
884.292	-3.32
884.458	-1.72
884.623	-1.72
