Data from Apollo_Calib_20240827__AbsoluteIrradiance__421__06-10-00-604.txt Node

Date: Wed Aug 28 06:10:00 BST 2024
User: biology
Spectrometer: FLMT08252
Trigger mode: 0
Integration Time (sec): 5.000000E-1
Scans to average: 5
Electric dark correction enabled: true
Nonlinearity correction enabled: false
Boxcar width: 0
XAxis mode: Wavelengths
Number of Pixels in Spectrum: 3648
>>>>>Begin Spectral Data<<<<<
179.588	-0
179.809	-0
180.03	-0
180.251	-0
180.473	-0
180.694	0
180.915	0
181.136	-0
181.357	0
181.578	-0
181.799	0
182.02	-0
182.241	0
182.462	-0
182.683	-0
182.904	-0
183.125	-0
183.346	0
183.567	0
183.788	0
184.009	0
184.23	0
184.451	0
184.672	-0
184.892	0
185.113	0
185.334	0
185.555	0
185.776	0
185.996	0
186.217	0
186.438	0
186.659	0
186.879	0
187.1	0
187.321	0
187.541	0
187.762	0
187.983	0
188.203	0
188.424	0
188.644	0
188.865	0
189.086	0
189.306	0
189.527	0
189.747	0
189.968	-0
190.188	0
190.409	0
190.629	0
190.849	0
191.07	0
191.29	0
191.511	0
191.731	0
191.951	0
192.172	0
192.392	0
192.612	0
192.833	0
193.053	0
193.273	0
193.493	0
193.714	0
193.934	0
194.154	0
194.374	0
194.594	0
194.815	0
195.035	0
195.255	0
195.475	0
195.695	0
195.915	0
196.135	0
196.355	0
196.575	0
196.795	0
197.015	0
197.235	0
197.455	0
197.675	0
197.895	-0
198.115	0
198.335	0
198.555	0
198.775	0
198.995	0
199.214	0
199.434	0
199.654	0
199.874	0
200.094	1.74
200.313	0.26
200.533	0.33
200.753	0.06
200.973	1.34
201.192	1.78
201.412	-0.2
201.632	0.11
201.851	1.44
202.071	0.35
202.291	0.4
202.51	-0.02
202.73	1.3
202.95	1.08
203.169	0.73
203.389	0.57
203.608	0.29
203.828	0.51
204.047	0.39
204.267	1.16
204.486	0.44
204.706	0.73
204.925	0.58
205.145	0.27
205.364	0.63
205.583	1.07
205.803	0.09
206.022	-0.02
206.242	0.47
206.461	0.68
206.68	0.21
206.9	0.75
207.119	0.81
207.338	0.87
207.557	0.32
207.777	0.54
207.996	0.46
208.215	1.04
208.434	0.13
208.654	0.04
208.873	0.54
209.092	0.77
209.311	0.12
209.53	0.16
209.749	0.26
209.968	0.23
210.187	0.36
210.407	-0.04
210.626	0.02
210.845	0.75
211.064	0.68
211.283	0.23
211.502	0.69
211.721	0.25
211.94	0.36
212.159	0.55
212.377	0.55
212.596	0.45
212.815	0.42
213.034	0.52
213.253	0.52
213.472	0.41
213.691	0.07
213.91	0.11
214.128	0.29
214.347	0.82
214.566	-0.11
214.785	0.11
215.003	0.39
215.222	0.23
215.441	0.25
215.66	0.21
215.878	0.42
216.097	0.5
216.316	0.09
216.534	0.18
216.753	0.35
216.972	0.23
217.19	0.29
217.409	0.1
217.627	-0.03
217.846	0.29
218.064	0.29
218.283	-0.02
218.501	0.75
218.72	0.45
218.938	0.02
219.157	0.2
219.375	0.49
219.594	0.31
219.812	0.18
220.031	0.13
220.249	0.61
220.467	0.48
220.686	0.08
220.904	-0.07
221.122	-0.02
221.341	0.44
221.559	0.24
221.777	0.09
221.995	0.24
222.214	0.26
222.432	0.16
222.65	0.39
222.868	0.33
223.086	0.35
223.305	0.4
223.523	0.06
223.741	0.54
223.959	-0.01
224.177	0.03
224.395	0.05
224.613	0.22
224.831	0.36
225.049	0.1
225.267	0.16
225.485	0.18
225.703	0.19
225.921	0.17
226.139	0.16
226.357	0.3
226.575	0.36
226.793	0.07
227.011	0.68
227.229	0.27
227.447	0.4
227.665	0.13
227.883	-0.04
228.1	0.24
228.318	0.21
228.536	-0.15
228.754	0.03
228.972	0.11
229.189	0.27
229.407	0.11
229.625	0.1
229.843	0.4
230.06	0.35
230.278	0.09
230.496	0.19
230.713	0.11
230.931	0.31
231.149	0.09
231.366	-0.08
231.584	0.26
231.801	0.47
232.019	0.1
232.236	-0.02
232.454	0.15
232.671	0.33
232.889	0.21
233.106	0.11
233.324	0.11
233.541	0.05
233.759	0.17
233.976	0.11
234.194	0.23
234.411	0.21
234.628	-0.07
234.846	0.18
235.063	0.17
235.28	0.18
235.498	0.1
235.715	0.09
235.932	0.31
236.149	0.11
236.367	0.12
236.584	0.22
236.801	0.16
237.018	0.18
237.236	0.2
237.453	0
237.67	0.2
237.887	0.13
238.104	0.11
238.321	-0.1
238.538	0.1
238.755	0.24
238.973	0.02
239.19	0.13
239.407	0.21
239.624	0.12
239.841	-0.03
240.058	0
240.275	0.12
240.492	0.15
240.709	0.19
240.925	0.05
241.142	0.14
241.359	0.13
241.576	0.04
241.793	0.08
242.01	0.14
242.227	0.18
242.444	0.17
242.66	0.2
242.877	0.26
243.094	-0
243.311	0.2
243.527	0.11
243.744	0.21
243.961	0.23
244.178	0.04
244.394	0.16
244.611	0.34
244.828	0.4
245.044	0.12
245.261	0.16
245.477	0.23
245.694	0.16
245.911	0.1
246.127	0.14
246.344	0.21
246.56	0.19
246.777	0.06
246.993	0.11
247.21	0.26
247.426	0.18
247.643	0.09
247.859	-0.02
248.076	0.12
248.292	0.33
248.508	0.09
248.725	0.11
248.941	0.16
249.157	0.25
249.374	0.06
249.59	0.09
249.806	0.17
250.023	0.24
250.239	0.03
250.455	0.11
250.671	0.15
250.888	0.23
251.104	0.18
251.32	0.1
251.536	0.17
251.752	0.13
251.969	0.15
252.185	0.16
252.401	0.39
252.617	0.17
252.833	0.07
253.049	0.14
253.265	0.16
253.481	0.07
253.697	0.11
253.913	0.07
254.129	0.19
254.345	0.07
254.561	0.1
254.777	0.09
254.993	0.21
255.209	0.1
255.425	0.11
255.641	0.02
255.857	0.25
256.073	0.12
256.288	0.05
256.504	0.03
256.72	0.15
256.936	0.23
257.152	0.11
257.367	0.05
257.583	0.13
257.799	0.14
258.015	0.02
258.23	0.09
258.446	0.28
258.662	0.18
258.877	0.03
259.093	0.07
259.309	0.08
259.524	0.13
259.74	0.06
259.955	0.04
260.171	0.17
260.387	0.22
260.602	0.16
260.818	0.15
261.033	0.13
261.249	0.12
261.464	0.1
261.68	-0.03
261.895	0.12
262.11	0.2
262.326	0.11
262.541	0.09
262.757	0.21
262.972	0.12
263.187	0.1
263.403	0.08
263.618	0.19
263.833	0.14
264.049	0.07
264.264	0.1
264.479	0.16
264.694	0.18
264.91	0.01
265.125	0.1
265.34	0.1
265.555	0.28
265.77	0.17
265.986	0.07
266.201	0.13
266.416	0.19
266.631	0.06
266.846	0.06
267.061	0.22
267.276	0.16
267.491	-0.05
267.706	0.16
267.921	0.1
268.136	0.14
268.351	0.11
268.566	0.08
268.781	0.23
268.996	0.17
269.211	0.09
269.426	-0.01
269.641	0.05
269.856	0.19
270.071	0.09
270.285	-0.01
270.5	0.13
270.715	0.19
270.93	0.1
271.145	0.1
271.359	0.19
271.574	0.01
271.789	0.14
272.004	0.05
272.218	0.02
272.433	0.16
272.648	0
272.862	0.11
273.077	0.09
273.292	0.1
273.506	0.03
273.721	0.09
273.936	0.07
274.15	0.19
274.365	0.11
274.579	0.14
274.794	0.14
275.008	0.14
275.223	0.07
275.437	0.11
275.652	0.14
275.866	0.15
276.081	0.08
276.295	0.1
276.509	0.08
276.724	0.11
276.938	0.13
277.153	0.05
277.367	0.12
277.581	0.05
277.796	0.05
278.01	0.05
278.224	0.2
278.438	0.23
278.653	0.07
278.867	0.07
279.081	0.1
279.295	0.07
279.51	0.07
279.724	0.04
279.938	0.16
280.152	0.13
280.366	0.04
280.58	0.08
280.794	0.14
281.008	0.1
281.222	0.12
281.437	0.18
281.651	0.1
281.865	0.19
282.079	0.02
282.293	-0.01
282.507	0.09
282.721	0.06
282.935	0.13
283.148	-0.01
283.362	0.01
283.576	-0.01
283.79	0.09
284.004	0.08
284.218	0.14
284.432	0.07
284.646	0.1
284.859	-0
285.073	0.05
285.287	0.08
285.501	0.12
285.714	0.07
285.928	0.11
286.142	0.1
286.356	0.07
286.569	0.08
286.783	0.13
286.997	0.12
287.21	0.1
287.424	0.06
287.637	0.03
287.851	0.06
288.065	0.12
288.278	0.07
288.492	0.11
288.705	0.06
288.919	0.15
289.132	0.05
289.346	0.15
289.559	0.06
289.773	0.02
289.986	0.05
290.2	0.12
290.413	0.14
290.626	-0.03
290.84	0.09
291.053	0.08
291.267	0.15
291.48	0.08
291.693	0.09
291.906	0.04
292.12	0.06
292.333	0.02
292.546	0.04
292.76	0.11
292.973	0.09
293.186	0.09
293.399	0.1
293.612	0.15
293.826	0.07
294.039	0.07
294.252	0.1
294.465	0.13
294.678	0.1
294.891	0.11
295.104	0.03
295.317	0.05
295.53	0.09
295.743	0.07
295.956	0.07
296.169	0.14
296.382	0.17
296.595	0.06
296.808	0.02
297.021	0.14
297.234	0.16
297.447	0.09
297.66	0.13
297.873	0.13
298.086	0.16
298.299	0.04
298.511	0.01
298.724	0.06
298.937	0.04
299.15	0.08
299.363	0.06
299.575	0.08
299.788	0.13
300.001	0.07
300.213	0.06
300.426	0.08
300.639	0.04
300.852	0.04
301.064	0.11
301.277	0.12
301.489	0.11
301.702	0.13
301.915	0.07
302.127	0.07
302.34	0.12
302.552	0.13
302.765	0.08
302.977	0.11
303.19	0.04
303.402	0.09
303.615	0.07
303.827	0.03
304.04	0.07
304.252	0.1
304.464	0.04
304.677	0.22
304.889	0.11
305.102	0.04
305.314	0.06
305.526	0.1
305.739	0.1
305.951	0.05
306.163	0.05
306.375	0.16
306.588	0.06
306.8	0.01
307.012	0.03
307.224	0.06
307.436	0.13
307.649	0.02
307.861	0.12
308.073	0.11
308.285	0.05
308.497	0.05
308.709	0.06
308.921	0.08
309.133	0.11
309.346	0.07
309.558	0.06
309.77	0.12
309.982	0.18
310.194	0.13
310.406	0.09
310.617	0.17
310.829	0.09
311.041	0.12
311.253	0.02
311.465	0.09
311.677	0.05
311.889	0.11
312.101	0.04
312.313	0.16
312.524	0.09
312.736	0.04
312.948	0.1
313.16	0.16
313.372	0.14
313.583	0.09
313.795	0.07
314.007	0.04
314.218	0.14
314.43	0.05
314.642	0.04
314.853	0.04
315.065	0.13
315.277	0.11
315.488	0.08
315.7	0.05
315.912	0.08
316.123	0.04
316.335	0.06
316.546	0.16
316.758	0.03
316.969	0.04
317.181	0.07
317.392	0.09
317.604	0.14
317.815	0.03
318.026	0.06
318.238	0.05
318.449	0.1
318.661	0.04
318.872	-0.01
319.083	0.06
319.295	0.11
319.506	0.04
319.717	0.08
319.929	0.08
320.14	0.09
320.351	0.08
320.562	0.02
320.774	0.03
320.985	0.08
321.196	0.04
321.407	-0.01
321.618	0.13
321.829	0.07
322.041	0.12
322.252	0.07
322.463	0.1
322.674	0.1
322.885	0.08
323.096	0.08
323.307	0.05
323.518	0.09
323.729	0.07
323.94	0.08
324.151	0.01
324.362	0.09
324.573	0.09
324.784	0.03
324.995	0.15
325.206	0.07
325.417	0.01
325.628	0.06
325.838	0.09
326.049	0.07
326.26	0.1
326.471	0.08
326.682	0.13
326.892	0.08
327.103	0.06
327.314	0.05
327.525	0.12
327.735	0.07
327.946	0.07
328.157	0.04
328.368	0.1
328.578	0.09
328.789	0.09
328.999	0.08
329.21	0.06
329.421	0.12
329.631	0.06
329.842	0.06
330.052	0.07
330.263	0.09
330.473	0.09
330.684	0.09
330.894	0.04
331.105	0.06
331.315	0.08
331.526	0.02
331.736	0.11
331.947	0.09
332.157	0.11
332.367	0.05
332.578	0.1
332.788	0.14
332.999	0.11
333.209	0.07
333.419	0.02
333.629	0.08
333.84	0.12
334.05	0.08
334.26	0.16
334.47	0.06
334.681	0.13
334.891	0.03
335.101	0.12
335.311	0.16
335.521	0.07
335.732	0.01
335.942	0.15
336.152	0.11
336.362	0.06
336.572	0.07
336.782	0.09
336.992	0.04
337.202	0.04
337.412	0.05
337.622	0.1
337.832	0.09
338.042	0.05
338.252	0.1
338.462	0.06
338.672	0.1
338.882	0.02
339.092	0.1
339.302	0.16
339.511	0.09
339.721	0.06
339.931	-0.01
340.141	0.12
340.351	0.13
340.561	0.14
340.77	0.05
340.98	0.1
341.19	0.08
341.4	0.07
341.609	0.02
341.819	0.08
342.029	0.05
342.238	0.05
342.448	0.06
342.658	0.11
342.867	0.09
343.077	0.04
343.286	0.08
343.496	0.1
343.706	0.1
343.915	0.04
344.125	0.11
344.334	0.09
344.544	0.01
344.753	0.07
344.963	0.03
345.172	0.09
345.381	0.08
345.591	0.05
345.8	0.05
346.01	0.14
346.219	0.11
346.428	-0.13
346.638	0.09
346.847	0.08
347.056	0.12
347.266	0.04
347.475	0.04
347.684	0.09
347.893	0.09
348.103	0.13
348.312	0.05
348.521	0.01
348.73	0.09
348.94	0.08
349.149	0.05
349.358	0.07
349.567	0.07
349.776	0.01
349.985	0.07
350.194	0.11
350.403	0.12
350.612	0.02
350.821	0.06
351.03	0.07
351.239	0.04
351.448	0.05
351.657	0.06
351.866	0.13
352.075	0.05
352.284	0.11
352.493	0.03
352.702	0.13
352.911	0.09
353.12	0.06
353.329	0.06
353.538	0.08
353.746	0.1
353.955	0.07
354.164	0.06
354.373	0.07
354.582	0.09
354.79	0.14
354.999	0.09
355.208	0.06
355.416	0.16
355.625	0.01
355.834	0.05
356.042	0.07
356.251	0.06
356.46	0.01
356.668	0.1
356.877	0.15
357.085	0.15
357.294	0.02
357.503	0.09
357.711	0.07
357.92	0.18
358.128	0.08
358.337	0.05
358.545	0.08
358.754	0.06
358.962	0.09
359.17	0.05
359.379	0.12
359.587	0.12
359.796	0.06
360.004	0.13
360.212	0.09
360.421	0.1
360.629	0.03
360.837	0.07
361.046	0.11
361.254	0.16
361.462	0.08
361.67	0.02
361.879	0.07
362.087	0.14
362.295	0.08
362.503	0.09
362.711	0.02
362.92	0.02
363.128	0.08
363.336	0.06
363.544	0.04
363.752	0.1
363.96	0.04
364.168	0.04
364.376	0.08
364.584	0.08
364.792	0.09
365	0.1
365.208	0.07
365.416	0.09
365.624	0.11
365.832	0.05
366.04	0.13
366.248	0.1
366.456	0.1
366.664	0.11
366.872	0.07
367.079	0.07
367.287	0.07
367.495	0.11
367.703	0.04
367.911	0.04
368.118	0.07
368.326	0.05
368.534	0.04
368.742	0.12
368.949	0.04
369.157	0
369.365	0.08
369.572	0.07
369.78	0.05
369.988	0.13
370.195	0.09
370.403	0.1
370.61	0.02
370.818	0.1
371.026	0.09
371.233	0.05
371.441	0.07
371.648	0.04
371.856	0.06
372.063	0.11
372.271	0.08
372.478	0.08
372.685	0.07
372.893	0.12
373.1	0.08
373.308	0.06
373.515	0.14
373.722	0.13
373.93	0.1
374.137	0.1
374.344	0.15
374.552	0.14
374.759	0.16
374.966	0.07
375.173	0.07
375.381	0.11
375.588	0.08
375.795	-0.01
376.002	0.06
376.209	0.07
376.417	0.04
376.624	0.09
376.831	0.05
377.038	0.05
377.245	0.02
377.452	0.07
377.659	0.1
377.866	0.05
378.073	0.07
378.28	0.1
378.487	0.09
378.694	0.09
378.901	0.08
379.108	0.06
379.315	0.1
379.522	0.13
379.729	0.08
379.936	0.11
380.143	0.08
380.35	0.06
380.557	0.08
380.763	0.1
380.97	0.07
381.177	0.1
381.384	0.1
381.591	0.08
381.797	0.07
382.004	0.08
382.211	0.12
382.418	0.09
382.624	0.14
382.831	0.09
383.038	0.06
383.244	0.09
383.451	0.08
383.658	0.13
383.864	0.06
384.071	0.04
384.277	0.14
384.484	0.03
384.69	0.12
384.897	0.09
385.103	0.1
385.31	0.06
385.516	0.09
385.723	-0
385.929	0.07
386.136	0.07
386.342	0.12
386.549	0.08
386.755	0.16
386.961	0.08
387.168	0.07
387.374	0.1
387.58	0.1
387.787	0.08
387.993	0.1
388.199	0.07
388.406	0.08
388.612	0.11
388.818	0.05
389.024	0.06
389.231	0.07
389.437	0.15
389.643	0.15
389.849	0.08
390.055	0.07
390.261	0.13
390.467	0.09
390.674	0.05
390.88	0.08
391.086	0.1
391.292	0.02
391.498	0.14
391.704	0.09
391.91	0.08
392.116	0.11
392.322	-0.02
392.528	0.07
392.734	0.07
392.94	0.07
393.146	0.07
393.352	0.08
393.557	0.03
393.763	0.1
393.969	0.09
394.175	0.09
394.381	0.12
394.587	0.1
394.792	0.04
394.998	0.11
395.204	0.14
395.41	0.05
395.615	0.11
395.821	0.12
396.027	0.09
396.233	0.08
396.438	0.09
396.644	0.14
396.85	0.14
397.055	0.1
397.261	0.08
397.466	0.18
397.672	0.05
397.878	0.13
398.083	0.09
398.289	0.08
398.494	0.14
398.7	0.12
398.905	0
399.111	0.18
399.316	0.01
399.522	0.13
399.727	0.09
399.932	0.12
400.138	0.06
400.343	0.16
400.549	0.12
400.754	0.13
400.959	0.16
401.165	0.1
401.37	0.09
401.575	0.15
401.78	0.14
401.986	0.04
402.191	0.06
402.396	0.1
402.601	0.14
402.807	0.09
403.012	0.11
403.217	0.09
403.422	0.08
403.627	0.05
403.832	0.05
404.037	0.13
404.243	0.13
404.448	0.12
404.653	0.05
404.858	0.15
405.063	0.1
405.268	0.09
405.473	0.07
405.678	0.07
405.883	0.19
406.088	0.13
406.293	0.06
406.498	0.11
406.703	0.15
406.907	0.07
407.112	0.07
407.317	0.11
407.522	0.09
407.727	0.06
407.932	0.08
408.136	0.16
408.341	0.1
408.546	0.08
408.751	0.12
408.956	0.1
409.16	0.13
409.365	0.05
409.57	0.08
409.774	0.09
409.979	0.11
410.184	0.13
410.388	0.07
410.593	0.12
410.798	0.1
411.002	0.06
411.207	0.11
411.411	0.1
411.616	0.07
411.82	0.1
412.025	0.19
412.229	0.05
412.434	0.16
412.638	0.11
412.843	0.05
413.047	0.17
413.252	0.05
413.456	0.08
413.66	0.13
413.865	0.07
414.069	0.19
414.273	0.11
414.478	0.11
414.682	0.11
414.886	0.1
415.091	0.04
415.295	0.03
415.499	0.09
415.703	0.1
415.908	0.15
416.112	0
416.316	0.14
416.52	0.1
416.724	0.06
416.929	0.09
417.133	0.22
417.337	0.1
417.541	0.11
417.745	0.09
417.949	0.15
418.153	0.12
418.357	0.04
418.561	0.15
418.765	0.16
418.969	0.2
419.173	0.17
419.377	0.11
419.581	0.2
419.785	0.11
419.989	0.08
420.193	0.11
420.397	0.1
420.601	0.18
420.804	0.13
421.008	0.11
421.212	0.13
421.416	0.14
421.62	0.1
421.823	0.09
422.027	0.2
422.231	0.13
422.435	0.13
422.638	0.15
422.842	0.09
423.046	0.06
423.249	0.17
423.453	0.17
423.657	0.16
423.86	0.1
424.064	0.13
424.268	0.21
424.471	0.12
424.675	0.23
424.878	0.25
425.082	0.12
425.285	0.18
425.489	0.15
425.692	0.09
425.896	0.12
426.099	0.16
426.303	0.09
426.506	0.07
426.71	0.14
426.913	0.18
427.116	0.17
427.32	0.17
427.523	0.12
427.726	0.21
427.93	0.05
428.133	0.12
428.336	0.08
428.54	0.05
428.743	0.2
428.946	0.2
429.149	0.14
429.353	0.13
429.556	0.14
429.759	0.1
429.962	0.13
430.165	0.13
430.368	0.12
430.571	0.05
430.775	0.14
430.978	0.09
431.181	0.18
431.384	0.12
431.587	0.12
431.79	0.13
431.993	0.05
432.196	0.14
432.399	0.09
432.602	0.17
432.805	0.13
433.008	0.15
433.211	0.02
433.414	0.14
433.616	0.16
433.819	0.11
434.022	0.07
434.225	0.2
434.428	0.12
434.631	0.19
434.833	0.16
435.036	0.13
435.239	0.17
435.442	0.18
435.645	0.11
435.847	0.15
436.05	0.18
436.253	0.16
436.455	0.1
436.658	0.13
436.861	0.23
437.063	0.12
437.266	0.12
437.468	0.11
437.671	0.22
437.874	0.14
438.076	0.1
438.279	0.08
438.481	0.14
438.684	0.07
438.886	0.2
439.089	0.09
439.291	0.14
439.494	0.19
439.696	0.08
439.899	0.13
440.101	0.14
440.303	0.05
440.506	0.16
440.708	0.15
440.91	0.18
441.113	0.05
441.315	0.15
441.517	0.13
441.72	0.21
441.922	0.08
442.124	0.05
442.326	0.13
442.529	0.21
442.731	0.16
442.933	0.24
443.135	0.15
443.337	0.12
443.539	0.13
443.742	0.15
443.944	0.19
444.146	0.16
444.348	0.13
444.55	0.09
444.752	0.11
444.954	0.1
445.156	0.15
445.358	0.14
445.56	0.2
445.762	0.1
445.964	0.1
446.166	0.12
446.368	0.11
446.57	0.19
446.772	0.13
446.974	0.11
447.175	0.14
447.377	0.12
447.579	0.15
447.781	0.1
447.983	0.18
448.184	0.2
448.386	0.19
448.588	0.06
448.79	0.13
448.991	0.16
449.193	0.14
449.395	0.13
449.597	0.2
449.798	0.14
450	0.14
450.202	0.16
450.403	0.15
450.605	0.17
450.806	0.2
451.008	0.07
451.21	0.16
451.411	0.13
451.613	0.12
451.814	0.2
452.016	0.19
452.217	0.15
452.419	0.2
452.62	0.16
452.821	0.22
453.023	0.23
453.224	0.22
453.426	0.16
453.627	0.17
453.828	0.17
454.03	0.16
454.231	0.19
454.432	0.17
454.634	0.28
454.835	0.12
455.036	0.11
455.238	0.22
455.439	0.25
455.64	0.08
455.841	0.17
456.042	0.23
456.244	0.19
456.445	0.11
456.646	0.18
456.847	0.13
457.048	0.15
457.249	0.26
457.45	0.34
457.651	0.16
457.852	0.19
458.054	0.21
458.255	0.17
458.456	0.21
458.657	0.21
458.858	0.18
459.058	0.19
459.259	0.2
459.46	0.15
459.661	0.18
459.862	0.31
460.063	0.14
460.264	0.25
460.465	0.13
460.666	0.28
460.866	0.17
461.067	0.21
461.268	0.18
461.469	0.17
461.67	0.21
461.87	0.15
462.071	0.19
462.272	0.14
462.473	0.15
462.673	0.27
462.874	0.17
463.075	0.21
463.275	0.14
463.476	0.21
463.676	0.26
463.877	0.29
464.078	0.22
464.278	0.22
464.479	0.24
464.679	0.21
464.88	0.25
465.08	0.33
465.281	0.2
465.481	0.17
465.682	0.22
465.882	0.29
466.083	0.2
466.283	0.19
466.483	0.2
466.684	0.19
466.884	0.18
467.085	0.21
467.285	0.28
467.485	0.19
467.686	0.22
467.886	0.21
468.086	0.23
468.286	0.19
468.487	0.27
468.687	0.17
468.887	0.2
469.087	0.27
469.287	0.19
469.488	0.18
469.688	0.27
469.888	0.27
470.088	0.29
470.288	0.31
470.488	0.31
470.688	0.21
470.888	0.22
471.088	0.24
471.288	0.29
471.488	0.26
471.688	0.27
471.888	0.26
472.088	0.33
472.288	0.29
472.488	0.24
472.688	0.27
472.888	0.33
473.088	0.31
473.288	0.26
473.488	0.33
473.688	0.42
473.887	0.3
474.087	0.27
474.287	0.33
474.487	0.32
474.687	0.37
474.886	0.29
475.086	0.33
475.286	0.35
475.486	0.3
475.685	0.31
475.885	0.36
476.085	0.34
476.284	0.42
476.484	0.41
476.684	0.42
476.883	0.4
477.083	0.41
477.282	0.37
477.482	0.46
477.681	0.43
477.881	0.39
478.08	0.4
478.28	0.38
478.479	0.44
478.679	0.47
478.878	0.44
479.078	0.42
479.277	0.47
479.477	0.47
479.676	0.51
479.875	0.47
480.075	0.44
480.274	0.51
480.473	0.54
480.673	0.49
480.872	0.54
481.071	0.53
481.271	0.54
481.47	0.53
481.669	0.55
481.868	0.54
482.067	0.57
482.267	0.55
482.466	0.55
482.665	0.54
482.864	0.58
483.063	0.61
483.262	0.67
483.461	0.7
483.661	0.72
483.86	0.69
484.059	0.73
484.258	0.71
484.457	0.7
484.656	0.73
484.855	0.8
485.054	0.72
485.253	0.76
485.452	0.74
485.651	0.85
485.849	0.81
486.048	0.83
486.247	0.85
486.446	0.89
486.645	0.87
486.844	0.89
487.043	0.89
487.241	0.95
487.44	0.9
487.639	0.98
487.838	1.01
488.037	1
488.235	1.06
488.434	1.08
488.633	0.99
488.831	1.13
489.03	1.13
489.229	1.19
489.427	1.19
489.626	1.21
489.825	1.26
490.023	1.27
490.222	1.22
490.42	1.3
490.619	1.35
490.817	1.38
491.016	1.33
491.214	1.42
491.413	1.45
491.611	1.45
491.81	1.48
492.008	1.49
492.207	1.58
492.405	1.6
492.604	1.52
492.802	1.63
493	1.68
493.199	1.7
493.397	1.74
493.595	1.8
493.794	1.75
493.992	1.9
494.19	1.91
494.388	1.94
494.587	1.94
494.785	1.93
494.983	1.89
495.181	2.06
495.379	2.09
495.578	2.13
495.776	2.21
495.974	2.17
496.172	2.23
496.37	2.32
496.568	2.37
496.766	2.41
496.964	2.47
497.162	2.55
497.36	2.57
497.558	2.63
497.756	2.7
497.954	2.71
498.152	2.77
498.35	2.92
498.548	2.85
498.746	2.92
498.944	2.92
499.142	3
499.34	3.09
499.538	3.25
499.736	3.18
499.933	3.29
500.131	3.36
500.329	3.54
500.527	3.55
500.725	3.62
500.922	3.71
501.12	3.69
501.318	3.83
501.516	3.88
501.713	3.98
501.911	4.01
502.109	4.06
502.306	4.18
502.504	4.13
502.701	4.31
502.899	4.37
503.097	4.64
503.294	4.46
503.492	4.75
503.689	4.78
503.887	4.78
504.084	4.99
504.282	4.95
504.479	5.01
504.677	5.26
504.874	5.28
505.072	5.25
505.269	5.56
505.466	5.61
505.664	5.68
505.861	5.7
506.059	5.84
506.256	5.95
506.453	6.1
506.651	6.23
506.848	6.33
507.045	6.4
507.242	6.47
507.44	6.62
507.637	6.73
507.834	6.8
508.031	6.94
508.229	6.96
508.426	6.96
508.623	7.28
508.82	7.43
509.017	7.35
509.214	7.43
509.411	7.74
509.608	7.69
509.805	7.9
510.003	7.96
510.2	8.09
510.397	8.32
510.594	8.23
510.791	8.46
510.988	8.51
511.184	8.61
511.381	8.42
511.578	8.82
511.775	9.06
511.972	8.99
512.169	9.12
512.366	9.3
512.563	9.49
512.76	9.58
512.956	9.68
513.153	9.73
513.35	9.66
513.547	9.71
513.744	9.93
513.94	10.12
514.137	10.24
514.334	10.24
514.53	10.4
514.727	10.73
514.924	10.51
515.12	10.63
515.317	10.75
515.514	10.68
515.71	10.74
515.907	11.07
516.103	11.08
516.3	10.98
516.497	11.33
516.693	11.23
516.89	11.32
517.086	11.4
517.283	11.53
517.479	11.33
517.676	11.57
517.872	11.67
518.068	11.73
518.265	11.67
518.461	11.62
518.658	11.91
518.854	11.88
519.05	12
519.247	12.03
519.443	11.91
519.639	12.16
519.836	11.94
520.032	11.83
520.228	12.15
520.424	11.99
520.621	12.02
520.817	12.09
521.013	11.98
521.209	12.36
521.405	12.23
521.601	12.11
521.798	12.05
521.994	12.02
522.19	11.92
522.386	11.94
522.582	12.02
522.778	12.22
522.974	11.94
523.17	11.87
523.366	11.8
523.562	11.87
523.758	11.75
523.954	11.48
524.15	11.77
524.346	11.7
524.542	11.75
524.738	11.53
524.934	11.63
525.129	11.54
525.325	11.24
525.521	11.28
525.717	11.56
525.913	11.23
526.109	11.17
526.304	11.22
526.5	11.1
526.696	11.01
526.892	10.82
527.087	11.06
527.283	10.81
527.479	10.66
527.674	10.33
527.87	10.59
528.066	10.42
528.261	10.39
528.457	10.11
528.653	10.3
528.848	10.17
529.044	10.19
529.239	9.88
529.435	9.79
529.63	9.66
529.826	9.59
530.021	9.54
530.217	9.54
530.412	9.38
530.608	9.27
530.803	9.19
530.999	8.99
531.194	9.04
531.389	8.97
531.585	8.92
531.78	8.97
531.975	8.75
532.171	8.68
532.366	8.6
532.561	8.48
532.757	8.36
532.952	8.44
533.147	8.07
533.342	8.18
533.538	8.02
533.733	8.09
533.928	7.63
534.123	7.75
534.318	7.74
534.513	7.55
534.709	7.67
534.904	7.51
535.099	7.51
535.294	7.36
535.489	7.3
535.684	7.18
535.879	7.08
536.074	7.09
536.269	6.99
536.464	6.97
536.659	6.8
536.854	6.76
537.049	6.74
537.244	6.62
537.439	6.47
537.634	6.44
537.828	6.43
538.023	6.31
538.218	6.25
538.413	6.07
538.608	6.12
538.803	6.05
538.997	5.94
539.192	5.93
539.387	5.83
539.582	5.8
539.776	5.64
539.971	5.61
540.166	5.65
540.36	5.47
540.555	5.56
540.75	5.45
540.944	5.35
541.139	5.34
541.334	5.26
541.528	5.21
541.723	5.18
541.917	5.12
542.112	4.96
542.306	4.87
542.501	4.84
542.695	4.81
542.89	4.72
543.084	4.75
543.279	4.7
543.473	4.69
543.668	4.64
543.862	4.47
544.056	4.44
544.251	4.45
544.445	4.44
544.64	4.41
544.834	4.15
545.028	4.06
545.222	4.19
545.417	4.24
545.611	4.19
545.805	4.13
546	3.92
546.194	3.98
546.388	3.96
546.582	3.83
546.776	3.82
546.97	3.79
547.165	3.75
547.359	3.66
547.553	3.55
547.747	3.57
547.941	3.62
548.135	3.5
548.329	3.47
548.523	3.46
548.717	3.34
548.911	3.33
549.105	3.24
549.299	3.28
549.493	3.29
549.687	3.18
549.881	3.19
550.075	3.1
550.269	3
550.463	3.04
550.657	2.97
550.85	2.91
551.044	2.89
551.238	2.91
551.432	2.82
551.626	2.8
551.82	2.76
552.013	2.64
552.207	2.7
552.401	2.69
552.594	2.6
552.788	2.57
552.982	2.54
553.176	2.5
553.369	2.55
553.563	2.48
553.756	2.38
553.95	2.35
554.144	2.33
554.337	2.37
554.531	2.24
554.724	2.3
554.918	2.23
555.111	2.23
555.305	2.23
555.498	2.17
555.692	2.14
555.885	2.1
556.079	2.05
556.272	2.03
556.466	2.03
556.659	1.98
556.852	1.96
557.046	1.92
557.239	1.92
557.432	1.85
557.626	1.88
557.819	1.87
558.012	1.83
558.206	1.81
558.399	1.75
558.592	1.76
558.785	1.67
558.979	1.68
559.172	1.69
559.365	1.65
559.558	1.6
559.751	1.59
559.944	1.6
560.138	1.56
560.331	1.52
560.524	1.56
560.717	1.48
560.91	1.46
561.103	1.5
561.296	1.42
561.489	1.45
561.682	1.44
561.875	1.42
562.068	1.41
562.261	1.37
562.454	1.39
562.647	1.31
562.84	1.3
563.032	1.3
563.225	1.29
563.418	1.24
563.611	1.28
563.804	1.23
563.997	1.15
564.19	1.1
564.382	1.2
564.575	1.14
564.768	1.12
564.961	1.12
565.153	1.12
565.346	1.11
565.539	1.14
565.731	1.08
565.924	1.11
566.117	1.1
566.309	1.04
566.502	1
566.695	0.99
566.887	1.01
567.08	0.99
567.272	0.99
567.465	0.92
567.657	0.95
567.85	0.92
568.042	0.91
568.235	0.95
568.427	0.89
568.62	0.89
568.812	0.87
569.005	0.89
569.197	0.82
569.389	0.87
569.582	0.82
569.774	0.83
569.966	0.79
570.159	0.76
570.351	0.78
570.543	0.77
570.736	0.76
570.928	0.72
571.12	0.74
571.312	0.73
571.505	0.7
571.697	0.78
571.889	0.71
572.081	0.72
572.273	0.68
572.465	0.72
572.658	0.71
572.85	0.72
573.042	0.66
573.234	0.64
573.426	0.67
573.618	0.59
573.81	0.66
574.002	0.68
574.194	0.65
574.386	0.58
574.578	0.55
574.77	0.57
574.962	0.55
575.154	0.53
575.346	0.58
575.538	0.55
575.729	0.52
575.921	0.55
576.113	0.52
576.305	0.58
576.497	0.53
576.689	0.53
576.88	0.49
577.072	0.54
577.264	0.49
577.456	0.49
577.647	0.45
577.839	0.49
578.031	0.52
578.223	0.44
578.414	0.41
578.606	0.48
578.798	0.46
578.989	0.43
579.181	0.43
579.372	0.44
579.564	0.42
579.755	0.43
579.947	0.44
580.139	0.45
580.33	0.35
580.522	0.37
580.713	0.34
580.905	0.38
581.096	0.42
581.287	0.38
581.479	0.37
581.67	0.41
581.862	0.4
582.053	0.35
582.244	0.3
582.436	0.37
582.627	0.32
582.818	0.32
583.01	0.33
583.201	0.36
583.392	0.37
583.583	0.35
583.775	0.32
583.966	0.3
584.157	0.31
584.348	0.3
584.54	0.28
584.731	0.34
584.922	0.32
585.113	0.27
585.304	0.31
585.495	0.32
585.686	0.31
585.877	0.3
586.068	0.32
586.259	0.31
586.45	0.3
586.641	0.26
586.832	0.25
587.023	0.29
587.214	0.27
587.405	0.27
587.596	0.24
587.787	0.33
587.978	0.27
588.169	0.22
588.36	0.25
588.551	0.25
588.742	0.23
588.932	0.27
589.123	0.26
589.314	0.26
589.505	0.26
589.696	0.28
589.886	0.23
590.077	0.2
590.268	0.24
590.458	0.2
590.649	0.17
590.84	0.25
591.03	0.22
591.221	0.2
591.412	0.18
591.602	0.23
591.793	0.24
591.984	0.18
592.174	0.19
592.365	0.29
592.555	0.17
592.746	0.24
592.936	0.24
593.127	0.22
593.317	0.23
593.508	0.17
593.698	0.18
593.889	0.21
594.079	0.22
594.269	0.15
594.46	0.18
594.65	0.19
594.84	0.2
595.031	0.14
595.221	0.16
595.411	0.15
595.602	0.21
595.792	0.17
595.982	0.14
596.172	0.25
596.363	0.16
596.553	0.19
596.743	0.16
596.933	0.16
597.123	0.23
597.314	0.15
597.504	0.13
597.694	0.18
597.884	0.17
598.074	0.15
598.264	0.16
598.454	0.16
598.644	0.14
598.834	0.17
599.024	0.06
599.214	0.15
599.404	0.22
599.594	0.12
599.784	0.13
599.974	0.16
600.164	0.16
600.354	0.14
600.544	0.09
600.734	0.15
600.924	0.17
601.114	0.11
601.303	0.14
601.493	0.16
601.683	0.14
601.873	0.15
602.063	0.1
602.252	0.17
602.442	0.09
602.632	0.1
602.821	0.09
603.011	0.17
603.201	0.12
603.39	0.12
603.58	0.1
603.77	0.14
603.959	0.16
604.149	0.13
604.339	0.08
604.528	0.14
604.718	0.14
604.907	0.13
605.097	0.11
605.286	0.09
605.476	0.15
605.665	0.13
605.855	0.1
606.044	0.16
606.234	0.14
606.423	0.1
606.612	0.08
606.802	0.13
606.991	0.15
607.181	0.12
607.37	0.09
607.559	0.09
607.749	0.08
607.938	0.09
608.127	0.11
608.316	0.11
608.506	0.13
608.695	0.11
608.884	0.08
609.073	0.11
609.263	0.1
609.452	0.15
609.641	0.13
609.83	0.08
610.019	0.1
610.208	0.08
610.397	0.12
610.586	0.12
610.775	0.08
610.965	0.1
611.154	0.09
611.343	0.12
611.532	0.08
611.721	0.07
611.91	0.08
612.099	0.11
612.287	0.07
612.476	0.07
612.665	0.12
612.854	0.07
613.043	0.13
613.232	0.13
613.421	0.08
613.61	0.11
613.798	0.05
613.987	0.13
614.176	0.09
614.365	0.11
614.554	0.11
614.742	0.1
614.931	0.07
615.12	0.11
615.309	0.1
615.497	0.11
615.686	0.08
615.875	0.08
616.063	0.08
616.252	0.05
616.44	0.1
616.629	0.07
616.818	0.14
617.006	0.09
617.195	0.1
617.383	0.12
617.572	0.09
617.76	0.08
617.949	0.08
618.137	0.14
618.326	0.13
618.514	0.04
618.703	0.09
618.891	0.13
619.079	0.04
619.268	0.1
619.456	0.05
619.644	0.1
619.833	0.08
620.021	0.04
620.209	0.03
620.398	0.1
620.586	0.09
620.774	0.08
620.962	0.08
621.151	0.17
621.339	0.09
621.527	0.02
621.715	0.03
621.903	0.04
622.092	0.05
622.28	0.09
622.468	0.09
622.656	0.07
622.844	0.14
623.032	0.09
623.22	0.04
623.408	0.14
623.596	0.09
623.784	0.12
623.972	0.05
624.16	0.07
624.348	0.12
624.536	0.08
624.724	0.06
624.912	0.13
625.1	0.13
625.288	0.05
625.476	0.06
625.664	0.1
625.851	0.06
626.039	0.09
626.227	0.07
626.415	0.11
626.603	0.02
626.79	0.07
626.978	0.04
627.166	0.11
627.354	0.09
627.541	0.07
627.729	0.01
627.917	0.12
628.104	0.11
628.292	0.07
628.48	0.08
628.667	0.11
628.855	0.09
629.042	0.1
629.23	0.07
629.418	0.08
629.605	0.05
629.793	0.04
629.98	0.06
630.168	0.07
630.355	0.09
630.543	0.06
630.73	0.04
630.917	0.08
631.105	0.13
631.292	0.05
631.48	0.06
631.667	0.14
631.854	0.1
632.042	0.07
632.229	-0.01
632.416	0.1
632.604	0.09
632.791	0.04
632.978	0.08
633.165	0.09
633.353	0.14
633.54	0.11
633.727	0.02
633.914	0.04
634.101	0.02
634.289	0.11
634.476	0.05
634.663	0.09
634.85	0.07
635.037	0.05
635.224	0.01
635.411	0.09
635.598	0.12
635.785	0.09
635.972	0.05
636.159	0.12
636.346	0.06
636.533	0.06
636.72	0.05
636.907	0.05
637.094	0.1
637.281	0.05
637.468	0.12
637.655	0.08
637.842	0.08
638.029	0.01
638.215	0.08
638.402	0.06
638.589	0.07
638.776	0.04
638.963	0.04
639.149	0.11
639.336	0.09
639.523	0.06
639.709	0.06
639.896	0.07
640.083	0.13
640.27	0.1
640.456	0.06
640.643	0.1
640.829	0.03
641.016	0.08
641.203	0.03
641.389	0.09
641.576	0.08
641.762	0.07
641.949	0.02
642.135	0.1
642.322	0.06
642.508	0.03
642.695	0.07
642.881	0.07
643.068	0.06
643.254	0.06
643.441	0.11
643.627	0.06
643.813	0.05
644	0.07
644.186	0.03
644.372	0.06
644.559	0.07
644.745	0.06
644.931	0.02
645.118	0.05
645.304	0.06
645.49	0.03
645.676	0.04
645.862	0.1
646.049	0.13
646.235	0.07
646.421	0.13
646.607	0.11
646.793	0.07
646.979	0.04
647.165	0.07
647.352	0.06
647.538	0.13
647.724	0.09
647.91	0.1
648.096	0.1
648.282	0.11
648.468	0.05
648.654	0.07
648.84	0.07
649.026	0.05
649.212	0.07
649.397	0.05
649.583	0.04
649.769	0.11
649.955	0.07
650.141	0.09
650.327	0.11
650.513	0.04
650.698	0.1
650.884	-0.01
651.07	0.05
651.256	0.08
651.442	0.05
651.627	0.05
651.813	0.08
651.999	0.06
652.184	0.09
652.37	0.05
652.556	0.03
652.741	0.06
652.927	-0.02
653.113	0.05
653.298	0.09
653.484	0.06
653.669	0.01
653.855	0.05
654.04	0.08
654.226	0.08
654.412	0.04
654.597	0.03
654.782	0.07
654.968	0.08
655.153	0.08
655.339	0.01
655.524	0.02
655.71	0.06
655.895	0.04
656.08	0.05
656.266	0.11
656.451	0.06
656.636	0.06
656.822	0.08
657.007	0.03
657.192	0.06
657.378	0.03
657.563	0.07
657.748	0.09
657.933	0.05
658.118	0.05
658.304	0.02
658.489	0.1
658.674	0.1
658.859	0.01
659.044	0.07
659.229	0.07
659.414	0.04
659.599	0.04
659.785	0.04
659.97	0.05
660.155	0.09
660.34	0.09
660.525	0.06
660.71	0.04
660.895	0.09
661.08	0.06
661.264	0.06
661.449	0.1
661.634	0.13
661.819	0.11
662.004	0.09
662.189	-0.02
662.374	0.04
662.559	0.04
662.743	0.03
662.928	0.09
663.113	0.04
663.298	0.02
663.483	0.06
663.667	0.1
663.852	0.02
664.037	0.14
664.221	0.03
664.406	0.09
664.591	0.1
664.775	0.08
664.96	0.03
665.145	0.08
665.329	0.06
665.514	0.06
665.698	0.06
665.883	0.03
666.068	0.14
666.252	0.06
666.437	0.01
666.621	0.08
666.806	0.07
666.99	0.06
667.174	0.03
667.359	0.14
667.543	0.07
667.728	0.06
667.912	0.03
668.096	0.09
668.281	0.04
668.465	0.06
668.649	0.08
668.834	-0
669.018	0.09
669.202	0.08
669.387	0.05
669.571	0.14
669.755	0.04
669.939	0.08
670.124	0.09
670.308	0.08
670.492	0.09
670.676	0.07
670.86	0.08
671.044	0.04
671.228	0.12
671.413	0.06
671.597	0.09
671.781	0.04
671.965	0.09
672.149	0.07
672.333	0.07
672.517	0.06
672.701	0.13
672.885	0.07
673.069	0.03
673.253	0.08
673.437	0.06
673.621	0.06
673.804	0.1
673.988	0.08
674.172	0.07
674.356	-0.02
674.54	0.07
674.724	0.19
674.908	0.07
675.091	0.15
675.275	0.06
675.459	0.11
675.643	0.12
675.826	0.11
676.01	0.09
676.194	0.09
676.377	0.11
676.561	0.15
676.745	0.12
676.928	0.1
677.112	0.15
677.296	0.03
677.479	0.08
677.663	0.08
677.846	0.15
678.03	0.08
678.213	0.08
678.397	0.14
678.58	0.05
678.764	0.13
678.947	0.09
679.131	0.04
679.314	0.1
679.498	0.09
679.681	0.08
679.865	0.14
680.048	0.08
680.231	0.08
680.415	0.08
680.598	0.06
680.781	0.1
680.965	0.05
681.148	0.11
681.331	0.1
681.514	0.07
681.698	0.04
681.881	0.1
682.064	0.07
682.247	0.1
682.43	0.01
682.614	0.08
682.797	0.12
682.98	0.17
683.163	0.05
683.346	0.15
683.529	0.05
683.712	0.03
683.895	0.08
684.078	0.02
684.261	0.04
684.444	0.11
684.627	0.12
684.81	0.02
684.993	0.08
685.176	0.1
685.359	0.05
685.542	0.06
685.725	0.13
685.908	0.07
686.091	0.06
686.274	0.15
686.457	0.11
686.639	0.07
686.822	0.13
687.005	0.01
687.188	0.13
687.371	0.16
687.553	0.08
687.736	0.11
687.919	0.17
688.102	0.15
688.284	0.05
688.467	0.07
688.65	0.06
688.832	0.07
689.015	0.07
689.197	0.01
689.38	0.19
689.563	0.1
689.745	0.03
689.928	0.06
690.11	0.09
690.293	0.09
690.475	-0
690.658	0.09
690.84	0.06
691.023	0.05
691.205	0.02
691.388	0.05
691.57	0.14
691.752	0.1
691.935	-0
692.117	0.08
692.3	0.12
692.482	0.1
692.664	0.03
692.847	0.05
693.029	0.13
693.211	0.09
693.393	0.06
693.576	0.08
693.758	0.07
693.94	0.03
694.122	0.05
694.304	0.08
694.487	0.14
694.669	0.12
694.851	0.05
695.033	0.13
695.215	0.06
695.397	0.03
695.579	0.11
695.761	0.04
695.943	0
696.125	0.14
696.308	0.07
696.49	-0.04
696.671	0.18
696.853	0.07
697.035	0.19
697.217	0.12
697.399	0.12
697.581	0.09
697.763	0.08
697.945	0.04
698.127	0.1
698.309	0.14
698.491	0.1
698.672	0.11
698.854	0.16
699.036	0.19
699.218	0.06
699.399	0.11
699.581	0.14
699.763	0.12
699.945	0.04
700.126	0.07
700.308	0.1
700.49	0.1
700.671	-0.01
700.853	0.04
701.035	0.07
701.216	0.11
701.398	0.05
701.579	0.08
701.761	0.13
701.943	0.08
702.124	0.02
702.306	0.1
702.487	0.21
702.669	0.11
702.85	0.06
703.031	0.06
703.213	0.18
703.394	0.14
703.576	0.07
703.757	0.15
703.938	0.11
704.12	0.27
704.301	0.09
704.483	0.08
704.664	0.11
704.845	0.16
705.026	0.12
705.208	0.1
705.389	0.09
705.57	0.11
705.751	0.03
705.933	0.06
706.114	0.14
706.295	0.13
706.476	0.02
706.657	0.2
706.838	0.07
707.02	0.14
707.201	0.03
707.382	0.04
707.563	0.14
707.744	0.06
707.925	0.06
708.106	0.02
708.287	0.17
708.468	0.15
708.649	0.09
708.83	0.15
709.011	0.06
709.192	0.06
709.373	0.04
709.554	0.02
709.734	0.12
709.915	0.17
710.096	0.06
710.277	-0
710.458	0.08
710.639	0.13
710.819	-0.03
711	0.01
711.181	0.13
711.362	0.13
711.542	0.11
711.723	0.09
711.904	0.1
712.085	0.08
712.265	0.11
712.446	0.03
712.627	0.06
712.807	0.1
712.988	0.07
713.168	0.05
713.349	0.1
713.53	-0.07
713.71	-0.01
713.891	0.04
714.071	0.09
714.252	0.04
714.432	0.03
714.613	0.01
714.793	0.06
714.974	0.1
715.154	0.11
715.334	0.19
715.515	0.17
715.695	0.03
715.876	0.06
716.056	0.02
716.236	0.03
716.417	0.02
716.597	0.08
716.777	0.27
716.957	0.15
717.138	0.11
717.318	0.05
717.498	0.06
717.678	0.1
717.859	0.16
718.039	0.04
718.219	0.03
718.399	0.2
718.579	-0.01
718.759	-0.02
718.939	0.06
719.12	0.08
719.3	0.11
719.48	0.02
719.66	-0.02
719.84	0.16
720.02	0.14
720.2	0.08
720.38	0.05
720.56	0.19
720.74	0
720.92	0.09
721.1	0.18
721.279	0.12
721.459	0.04
721.639	0.01
721.819	0.1
721.999	0.06
722.179	0.08
722.359	0.01
722.538	0.06
722.718	0.12
722.898	0.04
723.078	0.09
723.257	0.04
723.437	0.11
723.617	0.12
723.797	0.06
723.976	0.04
724.156	0.07
724.336	0.14
724.515	0.25
724.695	0
724.874	0.05
725.054	0.09
725.234	-0.01
725.413	0.18
725.593	0.08
725.772	0.1
725.952	0.02
726.131	0.08
726.311	0.19
726.49	0.12
726.67	0.01
726.849	0.03
727.028	0.14
727.208	-0
727.387	0.19
727.567	0.06
727.746	0.03
727.925	0
728.105	0.07
728.284	0.1
728.463	0.02
728.643	0.15
728.822	-0.01
729.001	0.12
729.18	0.09
729.359	0.1
729.539	0.1
729.718	0.14
729.897	0.19
730.076	0.14
730.255	0
730.434	0.12
730.614	0.13
730.793	0.17
730.972	0.06
731.151	0.13
731.33	0.19
731.509	0.14
731.688	0.14
731.867	0.21
732.046	-0.02
732.225	0.27
732.404	-0.01
732.583	0.05
732.762	0.11
732.941	0.08
733.12	0.19
733.298	0.04
733.477	0.11
733.656	0.08
733.835	0.02
734.014	0.11
734.193	0.09
734.371	0.13
734.55	0.15
734.729	-0.05
734.908	0.1
735.086	0.13
735.265	0.18
735.444	-0.05
735.623	-0
735.801	0.08
735.98	0.05
736.159	0.1
736.337	0.26
736.516	0.08
736.694	0.04
736.873	0.13
737.052	0.29
737.23	0.24
737.409	0.03
737.587	0.22
737.766	-0.01
737.944	0.11
738.123	0.11
738.301	0.2
738.479	0.06
738.658	0.1
738.836	-0.08
739.015	0.22
739.193	0.21
739.371	0.02
739.55	0.13
739.728	0.06
739.906	0.22
740.085	0.38
740.263	0.2
740.441	-0.05
740.62	0.32
740.798	0.25
740.976	-0.01
741.154	0.01
741.332	0.14
741.511	0.06
741.689	0.2
741.867	0.16
742.045	0.21
742.223	0.04
742.401	0.04
742.579	0.07
742.757	0.16
742.935	0.03
743.114	0.12
743.292	0.1
743.47	0.12
743.648	0.12
743.826	0.13
744.004	0.18
744.181	0.15
744.359	0.06
744.537	0.14
744.715	0.02
744.893	0.04
745.071	0.22
745.249	0.01
745.427	0.1
745.605	0.25
745.782	0.1
745.96	0.17
746.138	0.2
746.316	0.27
746.493	0.04
746.671	0.16
746.849	0
747.027	0.15
747.204	0.03
747.382	0.1
747.56	-0.01
747.737	0.07
747.915	-0.05
748.093	0.26
748.27	0.04
748.448	0.02
748.625	-0.06
748.803	0.03
748.98	0.06
749.158	0.11
749.335	0.24
749.513	0.1
749.69	0.03
749.868	0.01
750.045	0.09
750.223	0.01
750.4	-0.04
750.578	0.2
750.755	0.07
750.932	-0.04
751.11	0.23
751.287	-0.03
751.464	0.18
751.642	0.06
751.819	0.24
751.996	0.12
752.173	0.06
752.351	-0.05
752.528	0.09
752.705	0.04
752.882	0.16
753.06	0.1
753.237	0.23
753.414	0.22
753.591	0.26
753.768	0.11
753.945	-0.08
754.122	-0.01
754.299	0.19
754.476	-0.08
754.654	-0.03
754.831	0.13
755.008	0.12
755.185	0.03
755.362	-0.02
755.539	0.2
755.716	0.01
755.892	0.04
756.069	0.11
756.246	-0.05
756.423	0
756.6	0.18
756.777	0.05
756.954	0.15
757.131	0.08
757.307	-0.01
757.484	-0.04
757.661	0.12
757.838	0.17
758.015	0.08
758.191	0.14
758.368	0.21
758.545	0.18
758.721	0.35
758.898	0.02
759.075	0.25
759.251	0.1
759.428	0.12
759.605	-0.17
759.781	0.04
759.958	0.12
760.134	0.18
760.311	-0.02
760.488	0.22
760.664	0.18
760.841	0.06
761.017	0.01
761.194	0.15
761.37	0.2
761.547	0.18
761.723	0.12
761.899	0.21
762.076	0.08
762.252	0.01
762.429	0.01
762.605	0.23
762.781	0.14
762.958	0.21
763.134	-0.1
763.31	0.04
763.486	0.31
763.663	-0.3
763.839	0.14
764.015	-0.05
764.191	0.08
764.368	-0.02
764.544	-0.04
764.72	0.03
764.896	0.04
765.072	0.18
765.248	-0.07
765.425	0.01
765.601	-0.01
765.777	0.14
765.953	-0.15
766.129	0.08
766.305	-0.05
766.481	0.16
766.657	0.03
766.833	0.24
767.009	0.03
767.185	0.11
767.361	0.12
767.537	0.02
767.713	0.26
767.889	0.05
768.065	0.15
768.24	0.22
768.416	0.18
768.592	0
768.768	0.08
768.944	0.07
769.12	-0.07
769.295	0.08
769.471	0.21
769.647	0.03
769.823	0.28
769.998	-0.11
770.174	-0.04
770.35	0.41
770.525	0.39
770.701	0.2
770.877	0.16
771.052	0.02
771.228	0.29
771.403	0.04
771.579	0.22
771.755	0.44
771.93	-0.08
772.106	-0.1
772.281	-0.16
772.457	0.22
772.632	0.07
772.808	0.01
772.983	0.06
773.159	-0.18
773.334	0.26
773.509	0.07
773.685	-0.06
773.86	0.37
774.036	0.31
774.211	0.15
774.386	-0.03
774.562	0.08
774.737	0.09
774.912	0.15
775.087	0.14
775.263	-0.06
775.438	0.11
775.613	-0.03
775.788	0.08
775.964	0.13
776.139	0.46
776.314	-0.08
776.489	0.15
776.664	0.2
776.839	-0
777.014	0.24
777.19	0.16
777.365	0.31
777.54	0.38
777.715	0.12
777.89	0.22
778.065	-0.16
778.24	0.14
778.415	0.31
778.59	-0.13
778.765	0.12
778.94	0.38
779.115	0.12
779.289	0.08
779.464	-0.05
779.639	0.14
779.814	0
779.989	-0.09
780.164	0.35
780.339	0.17
780.513	0.15
780.688	-0
780.863	0.07
781.038	0.21
781.212	-0.12
781.387	0.13
781.562	0.44
781.737	0.21
781.911	0.27
782.086	-0.07
782.261	0.19
782.435	0.3
782.61	0.01
782.784	0.13
782.959	0.21
783.134	-0.11
783.308	-0.2
783.483	0.23
783.657	0.34
783.832	0.32
784.006	-0.13
784.181	-0
784.355	0.35
784.53	-0.2
784.704	-0.08
784.878	0.52
785.053	0.17
785.227	0.23
785.402	0.26
785.576	-0.16
785.75	0.03
785.925	0.13
786.099	0.05
786.273	0.2
786.448	0.42
786.622	0.29
786.796	0.22
786.97	-0.08
787.145	0.56
787.319	-0.18
787.493	0.12
787.667	-0.19
787.841	-0.1
788.015	0.29
788.19	0.12
788.364	0.21
788.538	0.06
788.712	0.23
788.886	0.14
789.06	0.13
789.234	0.3
789.408	-0.15
789.582	0.12
789.756	-0
789.93	-0.14
790.104	0.07
790.278	0.06
790.452	-0.13
790.626	0.34
790.8	0.18
790.973	0.27
791.147	0.46
791.321	0.45
791.495	0.31
791.669	0.03
791.843	0.25
792.016	0.02
792.19	0.44
792.364	-0.15
792.538	0.78
792.711	0.43
792.885	0.02
793.059	0.03
793.233	-0.4
793.406	0.22
793.58	0.13
793.754	0.25
793.927	0.06
794.101	0.27
794.274	0.22
794.448	0.41
794.622	-0.1
794.795	0.57
794.969	-0.05
795.142	0.53
795.316	0.04
795.489	-0.03
795.663	0.44
795.836	0.01
796.009	0
796.183	0.37
796.356	0.26
796.53	0.33
796.703	0.15
796.876	0.58
797.05	-0.02
797.223	0.25
797.396	0.24
797.57	0.19
797.743	0.48
797.916	0.23
798.09	-0.1
798.263	0.33
798.436	0.18
798.609	0.2
798.782	0.11
798.956	0.25
799.129	0.22
799.302	0.32
799.475	-0.01
799.648	0.1
799.821	-0.03
799.994	0.18
800.167	-0.15
800.34	-0.12
800.514	0.33
800.687	0.2
800.86	-0
801.033	0.14
801.206	0.46
801.379	-0.15
801.551	0.42
801.724	0.17
801.897	0.48
802.07	-0.03
802.243	-0.46
802.416	0.2
802.589	0.21
802.762	0.06
802.935	0.06
803.107	0.56
803.28	0.38
803.453	0.54
803.626	-0.14
803.798	0.34
803.971	0.17
804.144	0.13
804.317	0.34
804.489	0.34
804.662	0.28
804.835	0.43
805.007	-0.22
805.18	0.47
805.353	0.12
805.525	-0.07
805.698	-0.14
805.87	0.25
806.043	0.48
806.215	0.09
806.388	-0.03
806.56	0.25
806.733	0.42
806.905	0.42
807.078	0.08
807.25	-0.07
807.423	0.45
807.595	0.01
807.768	0.22
807.94	0.26
808.112	0.35
808.285	0.18
808.457	-0.03
808.629	0.21
808.802	0.53
808.974	0.13
809.146	0.1
809.318	0.12
809.491	0.24
809.663	0.27
809.835	0.1
810.007	0.45
810.18	0.12
810.352	-0.21
810.524	-0.11
810.696	0.41
810.868	0.77
811.04	0.13
811.212	0.3
811.384	0.45
811.556	0.31
811.728	-0.04
811.901	0.74
812.073	0.05
812.245	0.42
812.417	0.14
812.589	-0.42
812.76	0.41
812.932	0.49
813.104	0.64
813.276	0.11
813.448	0.34
813.62	-0.05
813.792	0.31
813.964	0.34
814.136	0.24
814.307	0.11
814.479	-0.27
814.651	0.17
814.823	0.84
814.995	0.26
815.166	0.37
815.338	-0.1
815.51	0.15
815.681	0.64
815.853	0.06
816.025	0.46
816.196	0.56
816.368	0.34
816.54	-0.04
816.711	-0.16
816.883	0.58
817.054	1.21
817.226	-0.26
817.398	-0.26
817.569	0.24
817.741	0.33
817.912	0.2
818.084	-0.03
818.255	0.33
818.426	0.09
818.598	0.26
818.769	-0.18
818.941	0.38
819.112	0.63
819.283	0.27
819.455	-0.05
819.626	0.54
819.798	0.34
819.969	0.09
820.14	0.57
820.311	-0.32
820.483	0.35
820.654	0.42
820.825	0.32
820.996	-0.05
821.168	-0.24
821.339	-0.09
821.51	-0.35
821.681	-0.03
821.852	0.09
822.023	-0.11
822.195	-0.41
822.366	0.52
822.537	0.25
822.708	0.69
822.879	0.16
823.05	0.56
823.221	-0.01
823.392	0.51
823.563	-0.11
823.734	0.22
823.905	0.56
824.076	0.08
824.247	-0.29
824.418	-0.58
824.589	0.73
824.759	0.27
824.93	0.46
825.101	-0.49
825.272	0.74
825.443	0.47
825.614	0.6
825.784	-0.44
825.955	1.38
826.126	0.9
826.297	0.29
826.467	1.14
826.638	0.5
826.809	-0.65
826.98	0.22
827.15	0.07
827.321	0.05
827.492	0.96
827.662	0.82
827.833	1.14
828.003	0.45
828.174	-0.14
828.345	-0.2
828.515	0.88
828.686	0.12
828.856	0.57
829.027	0.86
829.197	0.48
829.368	0.91
829.538	-0.13
829.709	-0.25
829.879	0.82
830.049	0.14
830.22	0.35
830.39	-0.06
830.56	0.81
830.731	0.54
830.901	0.07
831.072	0.56
831.242	0.62
831.412	0.34
831.582	0.1
831.753	-0.04
831.923	1.2
832.093	0.65
832.263	-0.06
832.434	-0.01
832.604	-0.07
832.774	0.8
832.944	-0.1
833.114	0.22
833.284	0.32
833.454	-0.57
833.624	-0.18
833.795	0.26
833.965	0.6
834.135	0.88
834.305	-0.86
834.475	-0.52
834.645	0.56
834.815	-0.13
834.985	-0.23
835.155	0.39
835.325	0.78
835.494	0.73
835.664	-0.33
835.834	0.02
836.004	0.14
836.174	0.64
836.344	0.51
836.514	-0.37
836.684	0.09
836.853	-0.27
837.023	0.27
837.193	0.12
837.363	0.84
837.532	1.36
837.702	0.18
837.872	-0.03
838.041	0.96
838.211	2.07
838.381	-0.57
838.55	0.15
838.72	1.63
838.89	1.31
839.059	0.25
839.229	0.26
839.398	1.68
839.568	-0.03
839.738	-0.04
839.907	1.25
840.077	0.29
840.246	-0.24
840.416	0.21
840.585	-0.42
840.755	1.12
840.924	1.01
841.093	-0.59
841.263	-0.06
841.432	0.74
841.602	-0.17
841.771	0.16
841.94	0.43
842.11	1.43
842.279	1.82
842.448	-0.54
842.617	-0.52
842.787	1.42
842.956	-0.6
843.125	0.12
843.294	0.4
843.464	0.08
843.633	0.35
843.802	-0
843.971	-0.4
844.14	1.12
844.309	1.32
844.479	-0.42
844.648	-0.07
844.817	0.39
844.986	0.59
845.155	0.41
845.324	0.48
845.493	0.1
845.662	-0.22
845.831	1.61
846	0.66
846.169	0.2
846.338	1.15
846.507	-0.28
846.676	0.21
846.844	0.52
847.013	-0.01
847.182	0.53
847.351	-0.83
847.52	0.55
847.689	0.89
847.858	0.28
848.026	-0.11
848.195	0.12
848.364	-0.13
848.533	-0.79
848.701	-0.29
848.87	-0.06
849.039	0.89
849.207	0.59
849.376	1.24
849.545	1.45
849.713	0.44
849.882	0.19
850.051	-0.9
850.219	1.08
850.388	1.01
850.556	-0.57
850.725	-0.62
850.893	0.63
851.062	0.23
851.23	0.89
851.399	-0.9
851.567	0.21
851.736	-0.68
851.904	-1.15
852.073	0.04
852.241	0.94
852.41	1.1
852.578	0.29
852.746	-1.21
852.915	0.67
853.083	0.06
853.251	0.36
853.42	0.06
853.588	0.7
853.756	1
853.924	0.22
854.093	0.12
854.261	0.26
854.429	-1.12
854.597	0.65
854.765	-1.11
854.934	0.72
855.102	1.23
855.27	0.95
855.438	0.53
855.606	1.47
855.774	2.37
855.942	-0.83
856.11	-1.45
856.278	1.22
856.446	1.8
856.614	0.54
856.782	-0.14
856.95	1.02
857.118	1.87
857.286	0.57
857.454	0.03
857.622	2.01
857.79	0.17
857.958	-0.99
858.126	0.03
858.294	-2.35
858.462	0.94
858.629	-0.16
858.797	-0.46
858.965	1.64
859.133	0.35
859.301	0.09
859.468	0.89
859.636	-0.76
859.804	1.81
859.971	1.31
860.139	-0.35
860.307	2.08
860.474	1.26
860.642	-0.04
860.81	-0.79
860.977	-0.77
861.145	1.73
861.313	0.72
861.48	0.78
861.648	1.46
861.815	-0.81
861.983	-0.69
862.15	0.43
862.318	1.44
862.485	1.63
862.653	-0.88
862.82	-0.33
862.988	1.59
863.155	2.11
863.322	-0.46
863.49	-0.31
863.657	0.3
863.824	2.32
863.992	1.53
864.159	1.3
864.326	2.58
864.494	-0.95
864.661	3.54
864.828	-0.54
864.996	2.31
865.163	1.3
865.33	0.98
865.497	-2.16
865.664	-0.23
865.832	-0.49
865.999	0.83
866.166	0.1
866.333	0.65
866.5	1.62
866.667	0.43
866.834	1.44
867.001	2.09
867.168	0.21
867.335	1.52
867.502	-1.87
867.669	0.22
867.836	2.29
868.003	0.49
868.17	3.17
868.337	0.25
868.504	4.53
868.671	-1.17
868.838	0.38
869.005	-0.2
869.172	2.94
869.339	1.17
869.505	0.44
869.672	-0.37
869.839	1.29
870.006	-0.87
870.173	-1.67
870.339	0.64
870.506	4.31
870.673	-0.65
870.84	0.94
871.006	1.93
871.173	-0.27
871.34	1.95
871.506	-1.37
871.673	2.21
871.839	-2.66
872.006	1.68
872.173	-0.05
872.339	0.31
872.506	2.07
872.672	-0.98
872.839	-0.79
873.005	0.71
873.172	3.4
873.338	1.25
873.505	1.2
873.671	0.43
873.838	2.03
874.004	-0.51
874.171	-1.28
874.337	1.09
874.503	0.79
874.67	0.17
874.836	1.19
875.002	2.5
875.169	1.84
875.335	-0.28
875.501	0.28
875.668	-1.54
875.834	-0.32
876	-0.59
876.166	2.48
876.332	2.1
876.499	3.34
876.665	-0.57
876.831	0.58
876.997	4.15
877.163	2.53
877.329	0.2
877.495	-0
877.662	2.03
877.828	0.4
877.994	1.01
878.16	-1.32
878.326	-1.22
878.492	0.85
878.658	0.81
878.824	2.13
878.99	2.97
879.156	0.03
879.322	4.18
879.487	-0.32
879.653	2.24
879.819	1.47
879.985	-1.53
880.151	1.21
880.317	1.62
880.483	0.93
880.648	2.52
880.814	-3.29
880.98	1.27
881.146	-2.26
881.312	-0.38
881.477	-0
881.643	0.37
881.809	3.03
881.974	2.8
882.14	-2.18
882.306	-1.21
882.471	2.94
882.637	-0.47
882.803	1.85
882.968	3.51
883.134	4
883.299	0.91
883.465	1.38
883.63	1.86
883.796	1.56
883.961	-0.02
884.127	3.36
884.292	-2.29
884.458	-2.03
884.623	-2.03
