Data from Apollo_Calib_20240827__AbsoluteIrradiance__342__04-51-01-583.txt Node

Date: Wed Aug 28 04:51:01 BST 2024
User: biology
Spectrometer: FLMT08252
Trigger mode: 0
Integration Time (sec): 5.000000E-1
Scans to average: 5
Electric dark correction enabled: true
Nonlinearity correction enabled: false
Boxcar width: 0
XAxis mode: Wavelengths
Number of Pixels in Spectrum: 3648
>>>>>Begin Spectral Data<<<<<
179.588	-0
179.809	-0
180.03	-0
180.251	-0
180.473	-0
180.694	-0
180.915	0
181.136	-0
181.357	0
181.578	0
181.799	-0
182.02	-0
182.241	0
182.462	-0
182.683	0
182.904	-0
183.125	-0
183.346	0
183.567	0
183.788	0
184.009	-0
184.23	0
184.451	0
184.672	-0
184.892	-0
185.113	0
185.334	0
185.555	-0
185.776	-0
185.996	0
186.217	0
186.438	0
186.659	-0
186.879	0
187.1	-0
187.321	0
187.541	-0
187.762	0
187.983	0
188.203	-0
188.424	0
188.644	0
188.865	0
189.086	-0
189.306	0
189.527	0
189.747	0
189.968	-0
190.188	0
190.409	-0
190.629	0
190.849	-0
191.07	-0
191.29	0
191.511	0
191.731	-0
191.951	-0
192.172	0
192.392	0
192.612	0
192.833	-0
193.053	0
193.273	0
193.493	-0
193.714	0
193.934	0
194.154	0
194.374	0
194.594	0
194.815	0
195.035	0
195.255	0
195.475	-0
195.695	0
195.915	0
196.135	0
196.355	0
196.575	0
196.795	0
197.015	-0
197.235	0
197.455	0
197.675	0
197.895	0
198.115	-0
198.335	0
198.555	-0
198.775	0
198.995	0
199.214	0
199.434	0
199.654	0
199.874	0
200.094	1.69
200.313	0.22
200.533	0.08
200.753	-0.11
200.973	0.74
201.192	0.57
201.412	-0.63
201.632	-0.24
201.851	1.44
202.071	0
202.291	-0.05
202.51	0.03
202.73	1.02
202.95	-0.01
203.169	-0.36
203.389	0.37
203.608	0.41
203.828	-0.3
204.047	0.19
204.267	0.47
204.486	0.45
204.706	0.12
204.925	0.2
205.145	0.27
205.364	0.54
205.583	1.08
205.803	0.25
206.022	-0.41
206.242	0.37
206.461	0.47
206.68	0.21
206.9	0.14
207.119	0.69
207.338	0.93
207.557	-0.01
207.777	-0.07
207.996	0.38
208.215	0.78
208.434	-0.17
208.654	-0.01
208.873	0.46
209.092	0.83
209.311	-0.1
209.53	0.21
209.749	0.22
209.968	-0.34
210.187	0.01
210.407	-0.28
210.626	-0.03
210.845	0.68
211.064	0.2
211.283	-0.11
211.502	0.26
211.721	0.2
211.94	0.02
212.159	0.09
212.377	0.38
212.596	0.46
212.815	0.05
213.034	0.32
213.253	0.22
213.472	0.39
213.691	0.05
213.91	0
214.128	-0.07
214.347	0.55
214.566	-0.28
214.785	-0.22
215.003	0.29
215.222	0.2
215.441	0.06
215.66	-0.2
215.878	0.24
216.097	0.48
216.316	-0.19
216.534	-0.16
216.753	0.23
216.972	-0.07
217.19	0.03
217.409	-0.01
217.627	-0.13
217.846	0.05
218.064	0.1
218.283	-0.07
218.501	0.52
218.72	0.39
218.938	0.14
219.157	0.03
219.375	0.3
219.594	0.32
219.812	-0.14
220.031	-0.1
220.249	0.21
220.467	0.38
220.686	0.07
220.904	-0.15
221.122	-0.06
221.341	0.58
221.559	0.26
221.777	-0.02
221.995	0.08
222.214	0.33
222.432	-0.02
222.65	0.22
222.868	0.2
223.086	0.28
223.305	0.19
223.523	0.16
223.741	0.4
223.959	0.11
224.177	-0.23
224.395	-0.1
224.613	0.08
224.831	0.27
225.049	-0.08
225.267	0.07
225.485	0.19
225.703	-0.01
225.921	0.06
226.139	-0.02
226.357	0.16
226.575	0.14
226.793	-0.08
227.011	0.62
227.229	0.16
227.447	0.18
227.665	-0.04
227.883	-0.1
228.1	0.08
228.318	0.24
228.536	-0.18
228.754	-0
228.972	0.12
229.189	0.29
229.407	0.09
229.625	0.07
229.843	0.26
230.06	0.25
230.278	0.01
230.496	0.08
230.713	0.23
230.931	0.22
231.149	0.02
231.366	-0.17
231.584	0.05
231.801	0.33
232.019	0
232.236	-0.01
232.454	-0.11
232.671	0.17
232.889	0.07
233.106	-0.01
233.324	0.02
233.541	0.06
233.759	0.01
233.976	0.03
234.194	-0.02
234.411	0.01
234.628	-0.04
234.846	-0
235.063	-0.02
235.28	0.03
235.498	0.14
235.715	-0.02
235.932	0.27
236.149	0.14
236.367	-0.01
236.584	0.2
236.801	-0.05
237.018	0.19
237.236	0.08
237.453	-0.01
237.67	0.19
237.887	0.19
238.104	0.14
238.321	-0.06
238.538	0.01
238.755	0.26
238.973	-0.05
239.19	0.15
239.407	0.15
239.624	0.17
239.841	-0.12
240.058	-0.01
240.275	0.16
240.492	0.03
240.709	0.08
240.925	0.03
241.142	0.06
241.359	-0.05
241.576	-0.05
241.793	-0.02
242.01	0.08
242.227	0.21
242.444	0.04
242.66	0.19
242.877	0.1
243.094	0.01
243.311	0.14
243.527	0.06
243.744	0.21
243.961	0.17
244.178	-0.01
244.394	0.04
244.611	0.18
244.828	0.25
245.044	-0.01
245.261	0.04
245.477	0.18
245.694	0.15
245.911	-0.05
246.127	0.05
246.344	0.29
246.56	0.17
246.777	0.03
246.993	0.01
247.21	0.09
247.426	0.09
247.643	0.05
247.859	-0.07
248.076	0.07
248.292	0.36
248.508	0.09
248.725	0.07
248.941	0.2
249.157	0.22
249.374	0.06
249.59	0.03
249.806	0.06
250.023	0.25
250.239	-0.03
250.455	0.07
250.671	0.07
250.888	0.1
251.104	0.13
251.32	0.07
251.536	-0.01
251.752	0.04
251.969	0.07
252.185	0.03
252.401	0.2
252.617	-0.05
252.833	0.08
253.049	0.09
253.265	0.06
253.481	0.11
253.697	0.08
253.913	-0.03
254.129	0.16
254.345	0.1
254.561	0.04
254.777	0.04
254.993	0.09
255.209	0.09
255.425	0.03
255.641	-0.07
255.857	0.26
256.073	0.13
256.288	-0.09
256.504	0.01
256.72	0.09
256.936	0.12
257.152	0.05
257.367	0.01
257.583	0.1
257.799	0.26
258.015	-0
258.23	-0.03
258.446	0.3
258.662	0.1
258.877	-0.01
259.093	-0.01
259.309	0.1
259.524	0.1
259.74	0.01
259.955	-0.03
260.171	0.07
260.387	0.08
260.602	0.14
260.818	0.13
261.033	0.05
261.249	-0.02
261.464	0.03
261.68	-0.08
261.895	0.16
262.11	0.15
262.326	0.06
262.541	-0.03
262.757	0.12
262.972	0.13
263.187	0.06
263.403	0.06
263.618	0.15
263.833	0.04
264.049	0.01
264.264	0.05
264.479	0.1
264.694	0.13
264.91	-0.01
265.125	0.01
265.34	0.18
265.555	0.23
265.77	0.03
265.986	-0
266.201	0.13
266.416	0.24
266.631	0.04
266.846	0.1
267.061	0.08
267.276	0.08
267.491	-0.06
267.706	0.06
267.921	0.13
268.136	0.03
268.351	0.05
268.566	0
268.781	0.13
268.996	0.14
269.211	0.08
269.426	-0
269.641	0.06
269.856	0.13
270.071	0
270.285	-0.01
270.5	0.16
270.715	0.09
270.93	0.04
271.145	0.11
271.359	0.17
271.574	0.04
271.789	0.08
272.004	0.02
272.218	0.01
272.433	0.13
272.648	0.04
272.862	0.11
273.077	0.08
273.292	0.11
273.506	0.02
273.721	0.07
273.936	0.07
274.15	0.14
274.365	0.02
274.579	0.13
274.794	0.09
275.008	0.14
275.223	-0.01
275.437	0.02
275.652	0.1
275.866	0.04
276.081	0.05
276.295	0.15
276.509	0.05
276.724	0.07
276.938	0.05
277.153	0.08
277.367	0.12
277.581	0.04
277.796	-0.02
278.01	0.01
278.224	0.14
278.438	0.18
278.653	0.03
278.867	0.03
279.081	-0.12
279.295	0.02
279.51	0.12
279.724	-0.07
279.938	0.13
280.152	0.05
280.366	0.05
280.58	0.07
280.794	0.15
281.008	0.15
281.222	0.15
281.437	0.25
281.651	0.1
281.865	0.16
282.079	0.06
282.293	-0.01
282.507	0.01
282.721	0.07
282.935	0.06
283.148	0.03
283.362	0.02
283.576	0.05
283.79	0.07
284.004	0.03
284.218	0.19
284.432	0.09
284.646	0.05
284.859	0.04
285.073	0.09
285.287	0.08
285.501	0.03
285.714	0.05
285.928	0
286.142	0.14
286.356	0.01
286.569	0.05
286.783	0.19
286.997	0.13
287.21	0.04
287.424	0.09
287.637	0.07
287.851	0.03
288.065	0.08
288.278	0.05
288.492	0.07
288.705	0.06
288.919	0.06
289.132	0.01
289.346	0.12
289.559	-0.01
289.773	-0.01
289.986	0.06
290.2	0.07
290.413	0.12
290.626	0.01
290.84	0.06
291.053	0.07
291.267	0.12
291.48	0.04
291.693	0.08
291.906	0.05
292.12	0.1
292.333	0.01
292.546	0.03
292.76	0.15
292.973	0.09
293.186	0.09
293.399	0.05
293.612	0.15
293.826	0.05
294.039	0.08
294.252	0.05
294.465	0.16
294.678	0.09
294.891	0.03
295.104	0.01
295.317	0.07
295.53	0.04
295.743	0.05
295.956	0.08
296.169	0.13
296.382	0.09
296.595	0.08
296.808	0.03
297.021	0.18
297.234	0.11
297.447	0.11
297.66	0.08
297.873	0.14
298.086	0.1
298.299	0.01
298.511	0.01
298.724	0.04
298.937	0.05
299.15	0.06
299.363	0.03
299.575	0.13
299.788	0.11
300.001	0.06
300.213	0.02
300.426	0.08
300.639	0.04
300.852	0.04
301.064	0.09
301.277	0.11
301.489	0.14
301.702	0.1
301.915	0.08
302.127	0.08
302.34	0.13
302.552	0.13
302.765	0.05
302.977	0.13
303.19	0.04
303.402	0.05
303.615	0.02
303.827	0.09
304.04	0.07
304.252	0.09
304.464	0.06
304.677	0.22
304.889	0.12
305.102	0.05
305.314	0.02
305.526	0.15
305.739	0.1
305.951	0.01
306.163	0.01
306.375	0.14
306.588	0.04
306.8	0.03
307.012	0.02
307.224	0.11
307.436	0.13
307.649	-0
307.861	0.03
308.073	0.12
308.285	0.04
308.497	0.04
308.709	0.06
308.921	0.08
309.133	0.18
309.346	0.05
309.558	0.05
309.77	0.08
309.982	0.12
310.194	0.11
310.406	0.03
310.617	0.16
310.829	0.15
311.041	0.12
311.253	-0.01
311.465	0.08
311.677	0.08
311.889	0.07
312.101	0.01
312.313	0.11
312.524	0.11
312.736	0.04
312.948	0.09
313.16	0.12
313.372	0.15
313.583	0.13
313.795	0.06
314.007	0.06
314.218	0.13
314.43	0.06
314.642	0.04
314.853	0
315.065	0.08
315.277	0.03
315.488	0.07
315.7	0.12
315.912	0.1
316.123	0.04
316.335	0.07
316.546	0.13
316.758	0.04
316.969	0.04
317.181	0.08
317.392	0.08
317.604	0.1
317.815	0.02
318.026	0.03
318.238	0.06
318.449	0.1
318.661	0.02
318.872	0.05
319.083	0.02
319.295	0.14
319.506	0.07
319.717	0.11
319.929	0.12
320.14	0.07
320.351	0.1
320.562	0.03
320.774	0.08
320.985	0.08
321.196	0.01
321.407	0.02
321.618	0.15
321.829	0.08
322.041	0.12
322.252	0.07
322.463	0.07
322.674	0.1
322.885	0.06
323.096	0.09
323.307	0.07
323.518	0.14
323.729	0.04
323.94	0.07
324.151	0.06
324.362	0.08
324.573	0.09
324.784	0.01
324.995	0.1
325.206	0.1
325.417	0.04
325.628	0.04
325.838	0.1
326.049	0.07
326.26	0.08
326.471	0.06
326.682	0.09
326.892	0.09
327.103	-0
327.314	0.02
327.525	0.11
327.735	0.04
327.946	0.06
328.157	0.03
328.368	0.17
328.578	0.09
328.789	0.1
328.999	0.1
329.21	0.07
329.421	0.09
329.631	0.07
329.842	0.04
330.052	0.12
330.263	0.12
330.473	0.08
330.684	0.05
330.894	0.03
331.105	0.07
331.315	0.1
331.526	-0
331.736	0.17
331.947	0.06
332.157	0.08
332.367	0.03
332.578	0.16
332.788	0.11
332.999	0.1
333.209	0.09
333.419	0.04
333.629	0.06
333.84	0.1
334.05	0.05
334.26	0.14
334.47	0.09
334.681	0.12
334.891	0.04
335.101	0.11
335.311	0.17
335.521	0.08
335.732	-0.01
335.942	0.13
336.152	0.1
336.362	0.07
336.572	0.07
336.782	0.12
336.992	0.05
337.202	0.07
337.412	0.05
337.622	0.13
337.832	0.08
338.042	0.07
338.252	0.05
338.462	0.03
338.672	0.06
338.882	-0
339.092	0.08
339.302	0.17
339.511	0.14
339.721	0.05
339.931	0.04
340.141	0.15
340.351	0.11
340.561	0.06
340.77	0.11
340.98	0.12
341.19	0.12
341.4	0.07
341.609	0.04
341.819	0.07
342.029	0.04
342.238	0.04
342.448	0.02
342.658	0.11
342.867	0.1
343.077	0.08
343.286	0.07
343.496	0.12
343.706	0.15
343.915	0.03
344.125	0.11
344.334	0.1
344.544	0.01
344.753	0.05
344.963	0.05
345.172	0.08
345.381	0.02
345.591	0.04
345.8	0.07
346.01	0.14
346.219	0.12
346.428	-0.07
346.638	0.08
346.847	0.06
347.056	0.14
347.266	0.07
347.475	0.05
347.684	0.1
347.893	0.06
348.103	0.09
348.312	0.09
348.521	0.08
348.73	0.08
348.94	0.09
349.149	0.06
349.358	0.07
349.567	0.01
349.776	0.02
349.985	0.03
350.194	0.09
350.403	0.13
350.612	-0.01
350.821	0.07
351.03	0.08
351.239	0.03
351.448	0.07
351.657	0.02
351.866	0.15
352.075	0.1
352.284	0.13
352.493	0.05
352.702	0.14
352.911	0.1
353.12	0.1
353.329	0.06
353.538	0.1
353.746	0.07
353.955	0.09
354.164	0.09
354.373	0.06
354.582	0.12
354.79	0.08
354.999	0.1
355.208	0.04
355.416	0.15
355.625	0.01
355.834	0.05
356.042	0.11
356.251	0.06
356.46	0.01
356.668	0.06
356.877	0.15
357.085	0.12
357.294	0
357.503	0.11
357.711	0.03
357.92	0.26
358.128	0.07
358.337	0.03
358.545	0.1
358.754	0.04
358.962	0.1
359.17	0.08
359.379	0.08
359.587	0.1
359.796	0.05
360.004	0.11
360.212	0.14
360.421	0.12
360.629	0.07
360.837	0.09
361.046	0.08
361.254	0.15
361.462	0.07
361.67	0.08
361.879	0.08
362.087	0.13
362.295	0.05
362.503	0.04
362.711	0.04
362.92	0.02
363.128	0.01
363.336	0.03
363.544	-0.02
363.752	0.06
363.96	0.06
364.168	0.06
364.376	0.05
364.584	0.08
364.792	0.14
365	0.1
365.208	0.03
365.416	0.09
365.624	0.11
365.832	0.08
366.04	0.13
366.248	0.09
366.456	0.1
366.664	0.1
366.872	0.03
367.079	0.06
367.287	0.07
367.495	0.12
367.703	0.09
367.911	0.07
368.118	0.09
368.326	0.08
368.534	0.04
368.742	0.13
368.949	0.06
369.157	0.06
369.365	0.1
369.572	0.02
369.78	0.03
369.988	0.13
370.195	0.09
370.403	0.12
370.61	0.03
370.818	0.09
371.026	0.14
371.233	0.06
371.441	0.1
371.648	0.07
371.856	0.09
372.063	0.05
372.271	0.04
372.478	0.04
372.685	0.03
372.893	0.12
373.1	0.04
373.308	0.07
373.515	0.14
373.722	0.1
373.93	0.08
374.137	0.13
374.344	0.13
374.552	0.09
374.759	0.11
374.966	0.09
375.173	0.09
375.381	0.12
375.588	0.09
375.795	0.04
376.002	0.05
376.209	0.07
376.417	0.04
376.624	0.1
376.831	0.12
377.038	0.08
377.245	-0
377.452	0.06
377.659	0.07
377.866	0.07
378.073	0.05
378.28	0.07
378.487	0.11
378.694	0.09
378.901	0.12
379.108	0.06
379.315	0.13
379.522	0.22
379.729	0.06
379.936	0.05
380.143	0.1
380.35	0.11
380.557	0.05
380.763	0.11
380.97	0.1
381.177	0.09
381.384	0.1
381.591	0.08
381.797	0.05
382.004	0.1
382.211	0.11
382.418	0.07
382.624	0.1
382.831	0.12
383.038	0.09
383.244	0.08
383.451	0.05
383.658	0.07
383.864	0.07
384.071	0.01
384.277	0.18
384.484	0.04
384.69	0.12
384.897	0.05
385.103	0.11
385.31	0.07
385.516	0.07
385.723	0.03
385.929	0.06
386.136	0.05
386.342	0.13
386.549	0.06
386.755	0.11
386.961	0.16
387.168	0.09
387.374	0.07
387.58	0.14
387.787	0.07
387.993	0.08
388.199	0.05
388.406	0.09
388.612	0.09
388.818	0.07
389.024	0.06
389.231	0.08
389.437	0.17
389.643	0.14
389.849	0.08
390.055	0.09
390.261	0.09
390.467	0.11
390.674	0.07
390.88	0.1
391.086	0.11
391.292	0.07
391.498	0.12
391.704	0.09
391.91	0.09
392.116	0.04
392.322	0.02
392.528	0.1
392.734	0.08
392.94	0.1
393.146	0.1
393.352	0.14
393.557	0.08
393.763	0.08
393.969	0.1
394.175	0.07
394.381	0.13
394.587	0.07
394.792	0.08
394.998	0.14
395.204	0.16
395.41	0.04
395.615	0.11
395.821	0.16
396.027	0.14
396.233	0.07
396.438	0.14
396.644	0.19
396.85	0.11
397.055	0.1
397.261	0.11
397.466	0.1
397.672	0.07
397.878	0.15
398.083	0.18
398.289	0.07
398.494	0.2
398.7	0.17
398.905	0.03
399.111	0.17
399.316	0.03
399.522	0.11
399.727	0.09
399.932	0.12
400.138	0.11
400.343	0.17
400.549	0.17
400.754	0.11
400.959	0.14
401.165	0.11
401.37	0.12
401.575	0.13
401.78	0.16
401.986	0.11
402.191	0.13
402.396	0.15
402.601	0.15
402.807	0.18
403.012	0.12
403.217	0.23
403.422	0.1
403.627	0.16
403.832	0.12
404.037	0.15
404.243	0.18
404.448	0.08
404.653	0.13
404.858	0.21
405.063	0.14
405.268	0.1
405.473	0.06
405.678	0.08
405.883	0.3
406.088	0.16
406.293	0.1
406.498	0.12
406.703	0.18
406.907	0.18
407.112	0.12
407.317	0.17
407.522	0.24
407.727	0.11
407.932	0.17
408.136	0.25
408.341	0.23
408.546	0.24
408.751	0.19
408.956	0.18
409.16	0.23
409.365	0.16
409.57	0.21
409.774	0.22
409.979	0.3
410.184	0.21
410.388	0.15
410.593	0.26
410.798	0.26
411.002	0.2
411.207	0.23
411.411	0.25
411.616	0.24
411.82	0.24
412.025	0.29
412.229	0.25
412.434	0.37
412.638	0.29
412.843	0.34
413.047	0.33
413.252	0.31
413.456	0.31
413.66	0.39
413.865	0.35
414.069	0.46
414.273	0.37
414.478	0.35
414.682	0.37
414.886	0.41
415.091	0.35
415.295	0.38
415.499	0.54
415.703	0.45
415.908	0.55
416.112	0.43
416.316	0.6
416.52	0.56
416.724	0.53
416.929	0.6
417.133	0.71
417.337	0.68
417.541	0.6
417.745	0.67
417.949	0.76
418.153	0.76
418.357	0.77
418.561	0.94
418.765	0.87
418.969	0.99
419.173	0.93
419.377	0.9
419.581	1.14
419.785	1.04
419.989	1.08
420.193	1.15
420.397	1.18
420.601	1.26
420.804	1.31
421.008	1.32
421.212	1.46
421.416	1.42
421.62	1.36
421.823	1.44
422.027	1.6
422.231	1.58
422.435	1.55
422.638	1.63
422.842	1.69
423.046	1.71
423.249	1.87
423.453	1.85
423.657	1.96
423.86	1.97
424.064	2.07
424.268	2.23
424.471	2.25
424.675	2.4
424.878	2.48
425.082	2.49
425.285	2.68
425.489	2.6
425.692	2.73
425.896	2.77
426.099	2.92
426.303	2.94
426.506	3.09
426.71	3.3
426.913	3.43
427.116	3.51
427.32	3.47
427.523	3.66
427.726	3.93
427.93	3.92
428.133	4.17
428.336	4.24
428.54	4.28
428.743	4.5
428.946	4.69
429.149	4.74
429.353	4.88
429.556	4.85
429.759	4.91
429.962	5.01
430.165	5.12
430.368	4.9
430.571	4.99
430.775	5.18
430.978	5.13
431.181	5.14
431.384	5.27
431.587	5.32
431.79	5.64
431.993	5.54
432.196	5.77
432.399	6
432.602	6.22
432.805	6.18
433.008	6.6
433.211	6.59
433.414	6.81
433.616	6.89
433.819	6.94
434.022	7.02
434.225	7.27
434.428	7.22
434.631	7.55
434.833	7.37
435.036	7.7
435.239	7.91
435.442	8
435.645	8.09
435.847	8.19
436.05	8.45
436.253	8.64
436.455	8.74
436.658	8.74
436.861	9.06
437.063	9.17
437.266	9.14
437.468	9.6
437.671	9.8
437.874	9.9
438.076	9.94
438.279	10.37
438.481	10.41
438.684	11.18
438.886	11.02
439.089	11.34
439.291	11.39
439.494	11.79
439.696	12.12
439.899	12.64
440.101	13.04
440.303	13.37
440.506	14.12
440.708	13.99
440.91	14.42
441.113	14.8
441.315	15.03
441.517	15.07
441.72	15.75
441.922	15.54
442.124	15.76
442.326	16.1
442.529	16.45
442.731	16.66
442.933	17.18
443.135	17.17
443.337	17.37
443.539	18.02
443.742	17.77
443.944	18.7
444.146	18.57
444.348	18.84
444.55	18.75
444.752	19.19
444.954	19.53
445.156	19.51
445.358	20.16
445.56	20.46
445.762	20.51
445.964	21.07
446.166	20.98
446.368	21.11
446.57	21.23
446.772	20.91
446.974	20.75
447.175	21.2
447.377	21.09
447.579	21.56
447.781	21.35
447.983	21.16
448.184	20.75
448.386	21.23
448.588	20.82
448.79	20.76
448.991	21.29
449.193	21.3
449.395	20.58
449.597	20.08
449.798	20.05
450	19.46
450.202	19.51
450.403	19.48
450.605	19.47
450.806	18.97
451.008	18.84
451.21	18.5
451.411	17.87
451.613	17.03
451.814	17.26
452.016	17.2
452.217	16.33
452.419	16.3
452.62	15.9
452.821	15.44
453.023	15.32
453.224	14.93
453.426	14.34
453.627	13.35
453.828	13.47
454.03	13.61
454.231	13.44
454.432	13.22
454.634	12.73
454.835	12.4
455.036	12.39
455.238	11.9
455.439	11.46
455.64	11.1
455.841	10.98
456.042	10.94
456.244	10.59
456.445	10.27
456.646	9.96
456.847	9.74
457.048	9.66
457.249	9.71
457.45	9.31
457.651	8.79
457.852	8.48
458.054	8.19
458.255	8.08
458.456	8.23
458.657	8.01
458.858	7.5
459.058	7.42
459.259	7.42
459.46	7.19
459.661	7.11
459.862	7.19
460.063	7.05
460.264	6.82
460.465	6.49
460.666	6.56
460.866	6.31
461.067	5.96
461.268	6.08
461.469	5.91
461.67	5.78
461.87	5.65
462.071	5.59
462.272	5.54
462.473	5.43
462.673	5.63
462.874	5.48
463.075	5.39
463.275	5.31
463.476	5.35
463.676	5.21
463.877	5.09
464.078	5.02
464.278	5.08
464.479	4.95
464.679	4.73
464.88	4.7
465.08	4.62
465.281	4.42
465.481	4.19
465.682	3.96
465.882	3.98
466.083	3.91
466.283	3.81
466.483	3.59
466.684	3.49
466.884	3.34
467.085	3.3
467.285	3.34
467.485	3.18
467.686	3.06
467.886	2.97
468.086	2.95
468.286	2.89
468.487	2.89
468.687	2.66
468.887	2.65
469.087	2.73
469.287	2.62
469.488	2.4
469.688	2.49
469.888	2.49
470.088	2.37
470.288	2.34
470.488	2.19
470.688	2.12
470.888	2.04
471.088	1.91
471.288	1.99
471.488	1.94
471.688	1.92
471.888	1.81
472.088	1.9
472.288	1.75
472.488	1.69
472.688	1.66
472.888	1.67
473.088	1.64
473.288	1.57
473.488	1.49
473.688	1.68
473.887	1.46
474.087	1.42
474.287	1.46
474.487	1.32
474.687	1.4
474.886	1.31
475.086	1.29
475.286	1.26
475.486	1.25
475.685	1.18
475.885	1.18
476.085	1.16
476.284	1.16
476.484	1.18
476.684	1.11
476.883	1.17
477.083	1.04
477.282	1.04
477.482	1.09
477.681	1.04
477.881	0.92
478.08	0.91
478.28	0.87
478.479	0.89
478.679	0.93
478.878	0.83
479.078	0.82
479.277	0.81
479.477	0.79
479.676	0.8
479.875	0.77
480.075	0.68
480.274	0.77
480.473	0.8
480.673	0.72
480.872	0.74
481.071	0.72
481.271	0.7
481.47	0.68
481.669	0.65
481.868	0.61
482.067	0.6
482.267	0.57
482.466	0.58
482.665	0.55
482.864	0.53
483.063	0.51
483.262	0.54
483.461	0.58
483.661	0.57
483.86	0.5
484.059	0.52
484.258	0.49
484.457	0.45
484.656	0.51
484.855	0.49
485.054	0.38
485.253	0.42
485.452	0.4
485.651	0.4
485.849	0.4
486.048	0.36
486.247	0.37
486.446	0.4
486.645	0.33
486.844	0.34
487.043	0.34
487.241	0.37
487.44	0.33
487.639	0.29
487.838	0.33
488.037	0.31
488.235	0.34
488.434	0.28
488.633	0.25
488.831	0.28
489.03	0.31
489.229	0.29
489.427	0.24
489.626	0.29
489.825	0.31
490.023	0.25
490.222	0.22
490.42	0.24
490.619	0.28
490.817	0.26
491.016	0.21
491.214	0.24
491.413	0.2
491.611	0.2
491.81	0.21
492.008	0.21
492.207	0.23
492.405	0.21
492.604	0.14
492.802	0.18
493	0.21
493.199	0.17
493.397	0.17
493.595	0.2
493.794	0.16
493.992	0.23
494.19	0.16
494.388	0.19
494.587	0.17
494.785	0.17
494.983	0.11
495.181	0.17
495.379	0.15
495.578	0.15
495.776	0.17
495.974	0.16
496.172	0.15
496.37	0.13
496.568	0.14
496.766	0.1
496.964	0.18
497.162	0.13
497.36	0.11
497.558	0.17
497.756	0.16
497.954	0.13
498.152	0.12
498.35	0.14
498.548	0.13
498.746	0.11
498.944	0.09
499.142	0.11
499.34	0.08
499.538	0.12
499.736	0.09
499.933	0.16
500.131	0.13
500.329	0.11
500.527	0.14
500.725	0.14
500.922	0.14
501.12	0.11
501.318	0.11
501.516	0.08
501.713	0.1
501.911	0.07
502.109	0.07
502.306	0.11
502.504	0.09
502.701	0.07
502.899	0.1
503.097	0.14
503.294	0.11
503.492	0.07
503.689	0.09
503.887	0.12
504.084	0.13
504.282	0.09
504.479	0.04
504.677	0.08
504.874	0.05
505.072	0.07
505.269	0.05
505.466	0.09
505.664	0.1
505.861	0.06
506.059	0.07
506.256	0.09
506.453	0.07
506.651	0.12
506.848	0.09
507.045	0.05
507.242	0.06
507.44	0.05
507.637	0.06
507.834	0.06
508.031	0.11
508.229	0.03
508.426	0.07
508.623	0.1
508.82	0.07
509.017	0.03
509.214	0.07
509.411	0.08
509.608	0.03
509.805	0.07
510.003	0.06
510.2	0.04
510.397	0.09
510.594	0.03
510.791	0.05
510.988	0.06
511.184	0.08
511.381	0.06
511.578	0.05
511.775	0.07
511.972	0.06
512.169	0.07
512.366	0.05
512.563	0.08
512.76	0.04
512.956	0.07
513.153	0.04
513.35	0.06
513.547	0.04
513.744	0.05
513.94	0.02
514.137	0.05
514.334	0.06
514.53	0.05
514.727	0.06
514.924	0.12
515.12	0.04
515.317	0.02
515.514	0.04
515.71	0.02
515.907	0.05
516.103	0.05
516.3	0.05
516.497	0.07
516.693	0.1
516.89	0.06
517.086	0.02
517.283	0.09
517.479	0.06
517.676	0.03
517.872	0.06
518.068	0.02
518.265	0.04
518.461	0.06
518.658	0.02
518.854	0.06
519.05	0.03
519.247	0.03
519.443	0.06
519.639	0.06
519.836	0.04
520.032	0.06
520.228	0.05
520.424	0.08
520.621	0.06
520.817	0.03
521.013	0.05
521.209	0.07
521.405	0.09
521.601	0.06
521.798	0.04
521.994	0.08
522.19	0.03
522.386	0.02
522.582	0.01
522.778	0.08
522.974	0.05
523.17	0.01
523.366	0.06
523.562	0.06
523.758	0.05
523.954	0.03
524.15	0.02
524.346	0.06
524.542	0.01
524.738	0.01
524.934	0.03
525.129	0.04
525.325	0.06
525.521	0.02
525.717	0.07
525.913	0.06
526.109	0.04
526.304	0.04
526.5	0.06
526.696	0.07
526.892	0.04
527.087	0.05
527.283	0.01
527.479	0.07
527.674	0.04
527.87	0.01
528.066	0.06
528.261	0.08
528.457	0.04
528.653	0.03
528.848	0.01
529.044	0.06
529.239	0.04
529.435	0.06
529.63	0.06
529.826	0.09
530.021	0.04
530.217	0.06
530.412	0.02
530.608	0.02
530.803	0.05
530.999	0.03
531.194	-0.02
531.389	0.06
531.585	-0.01
531.78	0.02
531.975	0.03
532.171	0.04
532.366	0.02
532.561	0.04
532.757	0.01
532.952	0.01
533.147	0.06
533.342	0.03
533.538	0.02
533.733	0.06
533.928	0.03
534.123	0.02
534.318	0.02
534.513	0
534.709	0.03
534.904	0.02
535.099	0.03
535.294	0.04
535.489	0.05
535.684	0.01
535.879	0.02
536.074	0.04
536.269	0.02
536.464	0.04
536.659	0.04
536.854	0.04
537.049	0.03
537.244	0.03
537.439	0.02
537.634	0.04
537.828	0.05
538.023	0.03
538.218	-0.01
538.413	0.03
538.608	0.01
538.803	0.05
538.997	-0.02
539.192	0.07
539.387	0.05
539.582	0.06
539.776	0.05
539.971	0.01
540.166	0.01
540.36	0.02
540.555	0.03
540.75	0.03
540.944	0.04
541.139	-0.02
541.334	0.02
541.528	0.06
541.723	0.05
541.917	0.04
542.112	-0
542.306	0.02
542.501	0.01
542.695	0.04
542.89	0
543.084	0.02
543.279	0.05
543.473	0.03
543.668	0
543.862	0.04
544.056	0.06
544.251	0.01
544.445	0.03
544.64	0.04
544.834	-0.01
545.028	0.03
545.222	0.03
545.417	0.06
545.611	0.01
545.805	0.01
546	0.03
546.194	0.02
546.388	0.02
546.582	0.05
546.776	0.04
546.97	0.03
547.165	0.06
547.359	0.06
547.553	0.01
547.747	0.02
547.941	0.02
548.135	0.02
548.329	0.04
548.523	0.04
548.717	0.02
548.911	0.03
549.105	0.02
549.299	0.02
549.493	0.03
549.687	0.04
549.881	0.04
550.075	0.03
550.269	0.01
550.463	0.03
550.657	0.02
550.85	0.02
551.044	0.01
551.238	0.03
551.432	0.01
551.626	-0.01
551.82	0.03
552.013	0.02
552.207	0.03
552.401	0.04
552.594	0.02
552.788	0.04
552.982	0.04
553.176	-0
553.369	0.04
553.563	0.04
553.756	0
553.95	0.01
554.144	0.04
554.337	0.05
554.531	0.03
554.724	0.03
554.918	0.02
555.111	0.04
555.305	0.03
555.498	0.08
555.692	0.06
555.885	0.02
556.079	0.04
556.272	0.02
556.466	0.04
556.659	0.03
556.852	0.04
557.046	0.02
557.239	0.06
557.432	0.02
557.626	0.01
557.819	0.02
558.012	0.05
558.206	0.04
558.399	0.02
558.592	0.04
558.785	0.03
558.979	0.05
559.172	0.06
559.365	0.02
559.558	0.04
559.751	0.04
559.944	0.03
560.138	0.02
560.331	0.01
560.524	0
560.717	0.03
560.91	0.02
561.103	0.04
561.296	0.04
561.489	0.04
561.682	0.03
561.875	0.05
562.068	0.04
562.261	0.03
562.454	0.07
562.647	0.05
562.84	0.04
563.032	0.03
563.225	0.03
563.418	0.02
563.611	-0
563.804	0.03
563.997	0
564.19	0
564.382	0.02
564.575	0.02
564.768	0.03
564.961	0
565.153	-0
565.346	0.05
565.539	0.06
565.731	0.05
565.924	0.07
566.117	0.06
566.309	0.03
566.502	-0.01
566.695	0.05
566.887	0.03
567.08	0.01
567.272	0.01
567.465	0.03
567.657	0.03
567.85	0.04
568.042	0.05
568.235	0.05
568.427	0.03
568.62	0.05
568.812	0.05
569.005	0.03
569.197	-0.04
569.389	0.04
569.582	0.02
569.774	0.04
569.966	-0
570.159	-0.01
570.351	0.03
570.543	0.01
570.736	0.02
570.928	-0.02
571.12	0.02
571.312	0.01
571.505	-0.02
571.697	0.03
571.889	0
572.081	0.03
572.273	0.01
572.465	0.04
572.658	0.01
572.85	0.03
573.042	0.02
573.234	0.03
573.426	0.08
573.618	0
573.81	0.02
574.002	0.07
574.194	0.07
574.386	-0.04
574.578	-0.04
574.77	-0.01
574.962	0.03
575.154	-0.03
575.346	0.02
575.538	0.02
575.729	0
575.921	0.02
576.113	0.03
576.305	0.05
576.497	-0
576.689	0.01
576.88	0
577.072	0.07
577.264	0.01
577.456	0.01
577.647	-0.06
577.839	0.04
578.031	0.07
578.223	-0.01
578.414	-0
578.606	0.06
578.798	0.02
578.989	-0
579.181	0.04
579.372	0.02
579.564	-0.01
579.755	0.03
579.947	0.03
580.139	0.05
580.33	-0.04
580.522	-0.01
580.713	-0.05
580.905	-0
581.096	0.06
581.287	-0.01
581.479	0
581.67	0.05
581.862	0.03
582.053	0.01
582.244	-0.02
582.436	0.01
582.627	0.04
582.818	0.01
583.01	-0
583.201	0.03
583.392	0.07
583.583	0.02
583.775	-0.02
583.966	-0.01
584.157	0.01
584.348	-0.01
584.54	-0.02
584.731	0.02
584.922	0.01
585.113	-0.02
585.304	0.02
585.495	0.02
585.686	0
585.877	0.04
586.068	0.03
586.259	0.04
586.45	0.04
586.641	-0.02
586.832	-0.04
587.023	0.03
587.214	0.02
587.405	0.02
587.596	0
587.787	0.06
587.978	0.01
588.169	-0.03
588.36	-0.01
588.551	0.03
588.742	0.02
588.932	0.03
589.123	0.03
589.314	0.07
589.505	0.03
589.696	0.02
589.886	-0.01
590.077	-0.02
590.268	0.06
590.458	0
590.649	-0.03
590.84	0.06
591.03	0.01
591.221	-0.02
591.412	-0.03
591.602	0.06
591.793	0.04
591.984	-0.03
592.174	0
592.365	0.09
592.555	-0.03
592.746	0.03
592.936	0.03
593.127	0.04
593.317	0.05
593.508	0
593.698	-0
593.889	0
594.079	0.03
594.269	-0.02
594.46	0.02
594.65	-0.01
594.84	0.02
595.031	-0.02
595.221	0.02
595.411	-0.03
595.602	0.06
595.792	0.02
595.982	-0.01
596.172	0.07
596.363	0.02
596.553	0.03
596.743	0.01
596.933	0.02
597.123	0.04
597.314	0.01
597.504	-0
597.694	0.08
597.884	0.02
598.074	0.01
598.264	0
598.454	0.04
598.644	0.02
598.834	0
599.024	-0.03
599.214	0.02
599.404	0.05
599.594	0
599.784	-0.01
599.974	0.08
600.164	0.06
600.354	-0.03
600.544	-0.02
600.734	0.03
600.924	0.04
601.114	-0.01
601.303	0.03
601.493	0.01
601.683	0.03
601.873	0.04
602.063	-0.03
602.252	0.06
602.442	-0.04
602.632	-0.02
602.821	-0.02
603.011	0.04
603.201	0.03
603.39	-0.01
603.58	0.01
603.77	0.06
603.959	0.07
604.149	0.02
604.339	0.01
604.528	0.04
604.718	0.04
604.907	0.01
605.097	-0.01
605.286	-0.02
605.476	0.04
605.665	0.02
605.855	-0.01
606.044	0.04
606.234	0.02
606.423	-0.01
606.612	-0.05
606.802	-0.02
606.991	0.02
607.181	0.01
607.37	-0.02
607.559	-0
607.749	-0.06
607.938	0.01
608.127	-0
608.316	0
608.506	0
608.695	0.01
608.884	-0.01
609.073	0.01
609.263	0.03
609.452	0.03
609.641	0.02
609.83	-0.03
610.019	-0
610.208	-0.01
610.397	0.01
610.586	0.05
610.775	-0.02
610.965	-0
611.154	0.01
611.343	0
611.532	-0.01
611.721	-0.02
611.91	-0
612.099	0.03
612.287	0.01
612.476	-0.02
612.665	0.02
612.854	0.01
613.043	0.06
613.232	0.01
613.421	-0.02
613.61	0.03
613.798	-0.02
613.987	0.05
614.176	-0.02
614.365	0.04
614.554	0.02
614.742	0.03
614.931	-0.02
615.12	0.08
615.309	0.02
615.497	0.03
615.686	0
615.875	0
616.063	0.04
616.252	0.01
616.44	-0.01
616.629	0.02
616.818	0.08
617.006	0.01
617.195	-0.01
617.383	0.03
617.572	0.01
617.76	-0
617.949	-0.02
618.137	-0
618.326	0.08
618.514	-0.01
618.703	-0.02
618.891	0.08
619.079	-0.04
619.268	0.01
619.456	-0.02
619.644	0.08
619.833	0.01
620.021	-0.01
620.209	-0.03
620.398	0.03
620.586	-0.01
620.774	0.01
620.962	0.03
621.151	0.07
621.339	-0.01
621.527	-0.04
621.715	-0.03
621.903	-0
622.092	-0.03
622.28	0.01
622.468	0.03
622.656	-0.01
622.844	0.02
623.032	0.01
623.22	-0.07
623.408	0.05
623.596	0.03
623.784	0
623.972	0
624.16	-0.01
624.348	0.07
624.536	-0
624.724	-0.03
624.912	0.04
625.1	0.06
625.288	-0.02
625.476	-0.02
625.664	0.05
625.851	-0.02
626.039	0.05
626.227	0.02
626.415	-0
626.603	-0.07
626.79	0.04
626.978	-0.02
627.166	0.02
627.354	-0
627.541	-0.02
627.729	-0.07
627.917	0.06
628.104	0.05
628.292	-0.01
628.48	0.02
628.667	-0
628.855	0.01
629.042	0.04
629.23	0
629.418	0.01
629.605	0.01
629.793	-0.01
629.98	-0
630.168	-0.01
630.355	0.03
630.543	0.05
630.73	-0.03
630.917	0.05
631.105	0.05
631.292	-0.02
631.48	-0.01
631.667	0.08
631.854	-0
632.042	-0.01
632.229	-0.03
632.416	0.03
632.604	-0
632.791	-0.02
632.978	0.04
633.165	0.06
633.353	0.09
633.54	0.03
633.727	-0.06
633.914	0.01
634.101	-0.07
634.289	0.07
634.476	-0.02
634.663	-0.05
634.85	0.03
635.037	-0.03
635.224	-0.06
635.411	0.04
635.598	0.04
635.785	-0.01
635.972	-0.02
636.159	0.05
636.346	-0.03
636.533	0.01
636.72	0.02
636.907	-0.01
637.094	0
637.281	-0.01
637.468	0.05
637.655	-0.03
637.842	-0.02
638.029	-0.03
638.215	0.03
638.402	0.03
638.589	0.01
638.776	0.01
638.963	0.01
639.149	0.05
639.336	0.09
639.523	-0
639.709	0.02
639.896	0.02
640.083	0.06
640.27	0.01
640.456	-0.01
640.643	0.02
640.829	-0.03
641.016	0.01
641.203	-0.04
641.389	0.04
641.576	0.03
641.762	0.01
641.949	-0.05
642.135	0.03
642.322	-0.01
642.508	-0.06
642.695	0.01
642.881	-0.01
643.068	0.01
643.254	0.01
643.441	0.02
643.627	0.03
643.813	-0.02
644	0.06
644.186	0
644.372	0.02
644.559	0.07
644.745	0.01
644.931	-0.02
645.118	0.04
645.304	0.03
645.49	0.01
645.676	0.03
645.862	0.03
646.049	0.06
646.235	0
646.421	0.05
646.607	0.06
646.793	0.01
646.979	-0.02
647.165	0.03
647.352	0.01
647.538	0.05
647.724	0.01
647.91	0.03
648.096	0
648.282	0.06
648.468	-0.03
648.654	0.01
648.84	0.04
649.026	0.02
649.212	0.01
649.397	-0.04
649.583	-0.04
649.769	0.04
649.955	-0.01
650.141	0
650.327	0.04
650.513	-0.02
650.698	0.01
650.884	-0.07
651.07	0
651.256	0
651.442	-0.02
651.627	-0.02
651.813	0.02
651.999	-0.01
652.184	0.03
652.37	0
652.556	-0.03
652.741	0.07
652.927	-0.04
653.113	0.02
653.298	0.02
653.484	0
653.669	-0.05
653.855	-0
654.04	0.06
654.226	0.02
654.412	0
654.597	-0.04
654.782	0.04
654.968	0.06
655.153	0.03
655.339	-0
655.524	-0.01
655.71	0.05
655.895	-0.04
656.08	0.01
656.266	0.06
656.451	0.05
656.636	-0.04
656.822	0.01
657.007	-0.02
657.192	0
657.378	-0.06
657.563	0.02
657.748	0.04
657.933	0.04
658.118	0.01
658.304	-0.03
658.489	0.03
658.674	0.02
658.859	-0.02
659.044	0.05
659.229	0.03
659.414	-0.01
659.599	-0.02
659.785	-0.03
659.97	-0.01
660.155	0.04
660.34	0.02
660.525	-0.01
660.71	0.02
660.895	0.07
661.08	-0.01
661.264	-0.01
661.449	0.08
661.634	0.03
661.819	0.03
662.004	0.03
662.189	-0.08
662.374	-0.03
662.559	-0.04
662.743	-0.03
662.928	0
663.113	0
663.298	-0.05
663.483	-0.03
663.667	0.03
663.852	-0.06
664.037	0.02
664.221	-0.03
664.406	0.06
664.591	0.05
664.775	-0.01
664.96	-0
665.145	0.01
665.329	0.03
665.514	-0.01
665.698	0.03
665.883	-0.07
666.068	0.05
666.252	-0.03
666.437	-0.09
666.621	0.02
666.806	0.05
666.99	-0
667.174	-0.05
667.359	0.07
667.543	-0.01
667.728	0.02
667.912	-0.06
668.096	0.03
668.281	-0.03
668.465	0.01
668.649	0.01
668.834	0.05
669.018	0.02
669.202	-0.02
669.387	-0.05
669.571	0.03
669.755	-0.02
669.939	-0.02
670.124	0.01
670.308	0.06
670.492	0.05
670.676	0.01
670.86	0
671.044	-0.05
671.228	0.03
671.413	-0.01
671.597	-0.02
671.781	-0.04
671.965	0.07
672.149	-0.01
672.333	-0.02
672.517	0
672.701	0.01
672.885	-0.02
673.069	-0.03
673.253	0.09
673.437	-0.01
673.621	-0.05
673.804	-0.02
673.988	-0.02
674.172	0.01
674.356	-0.07
674.54	0.01
674.724	0.1
674.908	-0.05
675.091	0.05
675.275	-0.01
675.459	0.06
675.643	0.08
675.826	0.04
676.01	0.02
676.194	0.02
676.377	0.05
676.561	0.06
676.745	-0
676.928	0.02
677.112	0.07
677.296	0.03
677.479	-0.02
677.663	0
677.846	0.03
678.03	-0.04
678.213	-0.01
678.397	0.02
678.58	-0.04
678.764	0.01
678.947	-0.07
679.131	-0.08
679.314	0.06
679.498	0.02
679.681	0.01
679.865	0.07
680.048	0
680.231	-0.02
680.415	0.02
680.598	-0.02
680.781	-0.02
680.965	-0
681.148	0.02
681.331	0
681.514	0.01
681.698	0.02
681.881	0.02
682.064	0.02
682.247	0.02
682.43	-0.05
682.614	-0.01
682.797	0.05
682.98	0.03
683.163	-0.03
683.346	0.03
683.529	-0.03
683.712	-0.03
683.895	0.06
684.078	-0.02
684.261	0
684.444	0.07
684.627	0
684.81	-0.04
684.993	-0.04
685.176	0.03
685.359	-0.07
685.542	-0.01
685.725	0.07
685.908	0.02
686.091	-0.01
686.274	0.07
686.457	0.03
686.639	-0
686.822	0.01
687.005	0.02
687.188	0.05
687.371	0.11
687.553	-0.01
687.736	0.04
687.919	0.05
688.102	0.08
688.284	0.03
688.467	0
688.65	-0.02
688.832	0.03
689.015	0.01
689.197	-0.02
689.38	0.08
689.563	0.13
689.745	-0.05
689.928	-0.05
690.11	0.01
690.293	0.02
690.475	-0.09
690.658	0.02
690.84	0.03
691.023	0.02
691.205	0.01
691.388	0.03
691.57	0.05
691.752	0.08
691.935	-0.08
692.117	-0.03
692.3	0.02
692.482	0.01
692.664	-0.02
692.847	0.03
693.029	0.13
693.211	0.05
693.393	-0.02
693.576	-0.01
693.758	-0
693.94	-0.02
694.122	0.01
694.304	-0.03
694.487	-0
694.669	0.1
694.851	-0.06
695.033	0.04
695.215	-0.05
695.397	-0.03
695.579	0
695.761	-0.03
695.943	-0.07
696.125	0.06
696.308	0.06
696.49	-0.1
696.671	0.14
696.853	-0
697.035	0.21
697.217	0
697.399	0.05
697.581	-0.03
697.763	0.03
697.945	-0.02
698.127	0.04
698.309	0.05
698.491	0.05
698.672	0.04
698.854	0.1
699.036	0.09
699.218	0.05
699.399	0.08
699.581	0.04
699.763	0.01
699.945	-0.02
700.126	-0.04
700.308	0.02
700.49	0.05
700.671	-0.09
700.853	-0.02
701.035	-0.03
701.216	-0.01
701.398	0
701.579	-0.02
701.761	0.03
701.943	-0.02
702.124	-0.02
702.306	-0.04
702.487	0.14
702.669	0.03
702.85	-0.03
703.031	-0.1
703.213	0.11
703.394	0.09
703.576	-0.04
703.757	0.08
703.938	0.12
704.12	0.21
704.301	0.03
704.483	-0
704.664	0.02
704.845	0.1
705.026	0.08
705.208	-0.01
705.389	0
705.57	0.06
705.751	-0.06
705.933	0.04
706.114	0.11
706.295	0.02
706.476	-0.07
706.657	0.11
706.838	0.09
707.02	0.07
707.201	-0.03
707.382	0.04
707.563	0.05
707.744	-0.04
707.925	-0.06
708.106	0.02
708.287	0.03
708.468	0.07
708.649	-0.01
708.83	0.06
709.011	-0.03
709.192	0.08
709.373	-0.12
709.554	0.05
709.734	0.11
709.915	0.06
710.096	-0
710.277	-0.09
710.458	0.09
710.639	0.08
710.819	-0.08
711	-0.06
711.181	0.01
711.362	0.09
711.542	0.01
711.723	-0.04
711.904	0.1
712.085	0.03
712.265	0.03
712.446	-0
712.627	0.01
712.807	-0.04
712.988	0
713.168	-0.06
713.349	0.05
713.53	-0.12
713.71	-0.07
713.891	0.01
714.071	0.05
714.252	-0.08
714.432	0.02
714.613	-0.15
714.793	0.06
714.974	0.13
715.154	0.07
715.334	-0
715.515	0.08
715.695	-0.06
715.876	-0.01
716.056	0.04
716.236	0.02
716.417	-0.05
716.597	-0.08
716.777	0.21
716.957	-0.05
717.138	0
717.318	0.02
717.498	-0.08
717.678	0.06
717.859	-0.01
718.039	-0.09
718.219	-0.01
718.399	0.1
718.579	-0.06
718.759	-0.08
718.939	-0.01
719.12	-0.01
719.3	0.05
719.48	-0.12
719.66	-0.08
719.84	0.13
720.02	0.03
720.2	-0
720.38	0.02
720.56	0.12
720.74	-0.05
720.92	0.02
721.1	0.1
721.279	0.04
721.459	-0.05
721.639	-0.04
721.819	0.02
721.999	0.02
722.179	0.1
722.359	-0.07
722.538	0.03
722.718	-0.01
722.898	-0.09
723.078	-0.01
723.257	-0.03
723.437	-0.04
723.617	-0.01
723.797	-0.08
723.976	-0.03
724.156	0.06
724.336	0.17
724.515	0.16
724.695	-0.08
724.874	-0.03
725.054	0.06
725.234	-0.02
725.413	0
725.593	-0.02
725.772	0.01
725.952	0.06
726.131	0.03
726.311	0.04
726.49	0.01
726.67	-0.04
726.849	-0.02
727.028	0.08
727.208	0.01
727.387	0.01
727.567	-0.07
727.746	0.02
727.925	0.01
728.105	-0.05
728.284	-0.02
728.463	-0
728.643	0.05
728.822	-0.12
729.001	-0.02
729.18	-0.02
729.359	0.14
729.539	0.02
729.718	-0.05
729.897	0.08
730.076	-0
730.255	-0.07
730.434	-0.03
730.614	0.1
730.793	0.1
730.972	-0.06
731.151	0
731.33	0.06
731.509	0.15
731.688	0.04
731.867	-0.01
732.046	-0.14
732.225	0.22
732.404	-0.03
732.583	-0.05
732.762	0.01
732.941	0.05
733.12	0
733.298	-0.13
733.477	0.15
733.656	0.02
733.835	0
734.014	0.07
734.193	-0.03
734.371	0.06
734.55	0.04
734.729	-0.09
734.908	0.06
735.086	0.06
735.265	0.03
735.444	-0.15
735.623	-0.01
735.801	-0.11
735.98	-0.02
736.159	0.06
736.337	-0.02
736.516	-0.05
736.694	0.06
736.873	0.01
737.052	0.23
737.23	0.09
737.409	-0.02
737.587	0.21
737.766	-0.12
737.944	0.04
738.123	0.1
738.301	0.07
738.479	0.07
738.658	-0.01
738.836	-0.2
739.015	0.04
739.193	0.1
739.371	-0.15
739.55	0.08
739.728	-0.17
739.906	0.12
740.085	0.22
740.263	0.03
740.441	-0.19
740.62	0.24
740.798	0.1
740.976	0
741.154	-0.12
741.332	0.2
741.511	-0.07
741.689	0.08
741.867	0.08
742.045	0.04
742.223	-0.01
742.401	-0.1
742.579	-0.08
742.757	0.03
742.935	-0.01
743.114	0.05
743.292	-0.1
743.47	-0.07
743.648	0.02
743.826	-0.04
744.004	0.01
744.181	0.06
744.359	-0.17
744.537	0.07
744.715	0.07
744.893	-0.07
745.071	0.01
745.249	0.01
745.427	-0.04
745.605	0.03
745.782	0.07
745.96	0.1
746.138	0.04
746.316	-0.01
746.493	-0.04
746.671	0
746.849	0.07
747.027	0.18
747.204	0.01
747.382	0.07
747.56	-0.08
747.737	-0.08
747.915	-0.12
748.093	0.04
748.27	-0.01
748.448	0.01
748.625	-0.06
748.803	-0.09
748.98	-0.03
749.158	-0.03
749.335	0.03
749.513	-0.04
749.69	-0.11
749.868	0.03
750.045	0.14
750.223	-0.02
750.4	-0.1
750.578	0.28
750.755	0.09
750.932	-0.2
751.11	0.08
751.287	-0.14
751.464	0.16
751.642	-0.05
751.819	0.1
751.996	-0.09
752.173	-0.02
752.351	-0.11
752.528	0.03
752.705	0
752.882	-0.07
753.06	-0.01
753.237	0.11
753.414	0.2
753.591	0.25
753.768	0.03
753.945	-0.03
754.122	0.01
754.299	0.1
754.476	-0.06
754.654	0.09
754.831	0.12
755.008	0.03
755.185	0.04
755.362	-0.13
755.539	0.15
755.716	-0.18
755.892	0.03
756.069	0.04
756.246	-0.04
756.423	0.1
756.6	0.21
756.777	0.01
756.954	0.14
757.131	0.06
757.307	-0.02
757.484	-0.04
757.661	0.06
757.838	0.03
758.015	-0.17
758.191	0.07
758.368	0.06
758.545	0.17
758.721	0.11
758.898	-0.11
759.075	0.13
759.251	0.09
759.428	0.1
759.605	-0.1
759.781	-0.1
759.958	0.12
760.134	0.05
760.311	-0.11
760.488	0.11
760.664	0.3
760.841	0.11
761.017	-0.09
761.194	0.04
761.37	0.14
761.547	0.04
761.723	-0.02
761.899	0.2
762.076	-0.1
762.252	-0.01
762.429	-0.08
762.605	-0.01
762.781	-0.1
762.958	-0.05
763.134	-0.04
763.31	-0.01
763.486	0.17
763.663	-0.13
763.839	0.13
764.015	-0.13
764.191	-0.05
764.368	-0
764.544	0.09
764.72	0.05
764.896	-0.08
765.072	0.06
765.248	0.01
765.425	-0.01
765.601	0.1
765.777	-0.03
765.953	-0.18
766.129	-0.14
766.305	-0.15
766.481	0.08
766.657	0.02
766.833	0.17
767.009	-0.08
767.185	-0.06
767.361	0.12
767.537	-0.01
767.713	0.21
767.889	-0.09
768.065	0.07
768.24	-0.1
768.416	0.18
768.592	0.06
768.768	-0.02
768.944	-0.02
769.12	-0.09
769.295	-0.05
769.471	0.04
769.647	-0.11
769.823	0.18
769.998	-0.06
770.174	-0.1
770.35	0.34
770.525	0.28
770.701	0.15
770.877	0.16
771.052	-0.12
771.228	0.25
771.403	0.01
771.579	0.09
771.755	0.26
771.93	-0.03
772.106	-0.21
772.281	-0.17
772.457	0.08
772.632	0.18
772.808	-0.11
772.983	-0.12
773.159	-0.32
773.334	0.04
773.509	0.01
773.685	-0.16
773.86	0.41
774.036	0.22
774.211	-0.05
774.386	-0.04
774.562	0
774.737	0.07
774.912	-0.05
775.087	0.12
775.263	-0.01
775.438	-0.06
775.613	-0.09
775.788	0.04
775.964	0.05
776.139	0.33
776.314	-0.09
776.489	0.07
776.664	0.05
776.839	-0.06
777.014	0.2
777.19	0.11
777.365	0.3
777.54	0.22
777.715	0.01
777.89	-0.04
778.065	-0.24
778.24	-0.06
778.415	0.16
778.59	-0.09
778.765	-0.05
778.94	0.03
779.115	-0.08
779.289	-0.01
779.464	-0.04
779.639	-0.07
779.814	-0.14
779.989	-0.22
780.164	0.14
780.339	0.07
780.513	-0.11
780.688	-0.18
780.863	0.02
781.038	0.08
781.212	-0.09
781.387	0.08
781.562	0.32
781.737	-0.05
781.911	0.24
782.086	-0.08
782.261	0.03
782.435	0.52
782.61	-0.05
782.784	-0.14
782.959	0.25
783.134	-0.11
783.308	-0.05
783.483	-0.07
783.657	0.37
783.832	0.12
784.006	-0.29
784.181	-0.03
784.355	0.22
784.53	-0.05
784.704	-0.13
784.878	0.33
785.053	0.09
785.227	0.06
785.402	0.3
785.576	-0.26
785.75	-0.07
785.925	-0.13
786.099	0.21
786.273	0.1
786.448	0.15
786.622	0.23
786.796	-0.14
786.97	-0.08
787.145	0.31
787.319	-0.28
787.493	-0.08
787.667	-0.41
787.841	0.06
788.015	0.16
788.19	-0.17
788.364	0.09
788.538	0.2
788.712	0.12
788.886	-0.07
789.06	0.25
789.234	0.04
789.408	-0.32
789.582	0.03
789.756	0.04
789.93	-0.08
790.104	0.05
790.278	-0.08
790.452	-0.11
790.626	0.27
790.8	-0.09
790.973	0.22
791.147	0.36
791.321	0.27
791.495	0.15
791.669	0.22
791.843	0.07
792.016	-0.1
792.19	0.64
792.364	-0.28
792.538	0.48
792.711	0.28
792.885	-0.1
793.059	-0.25
793.233	-0.02
793.406	0.28
793.58	0.21
793.754	-0.05
793.927	-0.13
794.101	0.33
794.274	0.06
794.448	0.24
794.622	-0.33
794.795	0.52
794.969	-0.26
795.142	0.53
795.316	-0.12
795.489	-0.19
795.663	0.05
795.836	0.13
796.009	-0.26
796.183	0.43
796.356	0.08
796.53	0.08
796.703	0.13
796.876	0.77
797.05	0.02
797.223	0.14
797.396	0.33
797.57	0.04
797.743	0.42
797.916	0.09
798.09	0.02
798.263	0.43
798.436	0.23
798.609	-0.15
798.782	-0.01
798.956	0.18
799.129	0.06
799.302	0.12
799.475	-0.2
799.648	-0.18
799.821	-0.11
799.994	0.08
800.167	-0.17
800.34	-0.19
800.514	-0.02
800.687	0.05
800.86	-0.09
801.033	0.13
801.206	0.16
801.379	-0.28
801.551	0.38
801.724	0.27
801.897	0.41
802.07	0.05
802.243	-0.37
802.416	-0.13
802.589	-0.23
802.762	0.21
802.935	-0.04
803.107	0.16
803.28	0.37
803.453	0.1
803.626	-0.33
803.798	0.23
803.971	0.02
804.144	0.24
804.317	0.06
804.489	0.3
804.662	-0.04
804.835	0.08
805.007	-0.34
805.18	0.54
805.353	0.16
805.525	-0.22
805.698	-0.28
805.87	0.17
806.043	0.36
806.215	-0.26
806.388	-0.26
806.56	0.27
806.733	0.31
806.905	0.01
807.078	-0.17
807.25	-0.31
807.423	0.11
807.595	0
807.768	0.09
807.94	0.15
808.112	0.15
808.285	-0.06
808.457	0.03
808.629	-0.04
808.802	0.28
808.974	0.18
809.146	-0.17
809.318	-0.31
809.491	0.09
809.663	0.53
809.835	-0.25
810.007	0.1
810.18	-0.05
810.352	-0.21
810.524	-0.29
810.696	0.19
810.868	0.11
811.04	-0.13
811.212	-0
811.384	0.79
811.556	0.17
811.728	-0.17
811.901	0.68
812.073	-0.01
812.245	-0.07
812.417	-0.24
812.589	-0.51
812.76	-0.21
812.932	0.09
813.104	0.14
813.276	-0.1
813.448	0.43
813.62	0.38
813.792	0.29
813.964	0.23
814.136	0.39
814.307	-0.02
814.479	-0.03
814.651	-0.29
814.823	0.54
814.995	-0.34
815.166	0.13
815.338	-0.22
815.51	-0.24
815.681	0.41
815.853	-0.17
816.025	-0.35
816.196	0.55
816.368	0.43
816.54	-0.24
816.711	-0.66
816.883	0.48
817.054	0.87
817.226	-0.31
817.398	0.08
817.569	-0.14
817.741	0.33
817.912	-0.22
818.084	-0.02
818.255	0.36
818.426	-0.05
818.598	0.03
818.769	-0.06
818.941	0.44
819.112	0.61
819.283	0.56
819.455	-0.21
819.626	0.13
819.798	0.48
819.969	-0.12
820.14	-0.15
820.311	-0.18
820.483	0.06
820.654	0.02
820.825	0.05
820.996	-0.25
821.168	-0.15
821.339	-0.18
821.51	-0.24
821.681	-0.01
821.852	-0.17
822.023	-0.49
822.195	-0.19
822.366	0.81
822.537	0.15
822.708	-0.4
822.879	0.24
823.05	0.38
823.221	-0.11
823.392	0.43
823.563	-0.32
823.734	-0.43
823.905	-0.5
824.076	-0.01
824.247	-0.21
824.418	-0.05
824.589	0.64
824.759	0.33
824.93	0.14
825.101	-0.66
825.272	0.87
825.443	0.27
825.614	0.71
825.784	-0.87
825.955	0.85
826.126	0.33
826.297	0.3
826.467	0.32
826.638	0.93
826.809	-0.73
826.98	0.17
827.15	-0.02
827.321	0.73
827.492	0.81
827.662	-0.07
827.833	0.87
828.003	0.67
828.174	-0.71
828.345	-0.79
828.515	1.15
828.686	-0.16
828.856	-0.11
829.027	-0.33
829.197	-0.18
829.368	0.24
829.538	-0.21
829.709	-0.59
829.879	-0.03
830.049	0.17
830.22	-0.1
830.39	0.29
830.56	0.44
830.731	-0.12
830.901	-0.27
831.072	-0.04
831.242	0.13
831.412	-0.03
831.582	0.29
831.753	-0.63
831.923	0.37
832.093	0.3
832.263	-0.24
832.434	-0.28
832.604	-0.47
832.774	0.61
832.944	-0.44
833.114	-0.17
833.284	0.44
833.454	-0.15
833.624	-0.73
833.795	-0.14
833.965	0.63
834.135	0.72
834.305	-0.44
834.475	-0.74
834.645	0.2
834.815	-0.56
834.985	-1.19
835.155	-0.26
835.325	0.43
835.494	0.27
835.664	-0.54
835.834	-0.51
836.004	0.14
836.174	0.29
836.344	-0.18
836.514	-1
836.684	-0.59
836.853	-0.12
837.023	0.5
837.193	-0.36
837.363	1.14
837.532	0.93
837.702	-0.46
837.872	-0.78
838.041	0.9
838.211	1.22
838.381	-0.91
838.55	-0.05
838.72	2.04
838.89	0.87
839.059	-0.81
839.229	-0.37
839.398	1.35
839.568	0.71
839.738	-0.13
839.907	0.7
840.077	0.36
840.246	-0.42
840.416	-0.71
840.585	-1.04
840.755	1.37
840.924	1.1
841.093	-0.99
841.263	-0.71
841.432	0.96
841.602	-0.76
841.771	-1.01
841.94	0.24
842.11	1.69
842.279	1.63
842.448	-0.47
842.617	-0.56
842.787	1.51
842.956	-0.92
843.125	-0.08
843.294	0.61
843.464	0.63
843.633	0.23
843.802	-1.08
843.971	0.17
844.14	1.36
844.309	1.09
844.479	-0.92
844.648	-1.12
844.817	-0.35
844.986	0.52
845.155	-0.02
845.324	-0.72
845.493	0.76
845.662	0.08
845.831	0.18
846	0.87
846.169	-0.11
846.338	1.5
846.507	-0.11
846.676	-0.36
846.844	-0.21
847.013	1.36
847.182	0.06
847.351	-1.43
847.52	0.05
847.689	-0.01
847.858	-0.15
848.026	-0.89
848.195	0.11
848.364	-0.66
848.533	-1.02
848.701	-0.13
848.87	-0.52
849.039	0.92
849.207	0.84
849.376	2.06
849.545	1.34
849.713	-0.89
849.882	-0.15
850.051	-0.14
850.219	-0.22
850.388	0.94
850.556	-0.68
850.725	-0.74
850.893	1.38
851.062	0.88
851.23	0.49
851.399	-1.27
851.567	-0.33
851.736	-0.23
851.904	-0.31
852.073	0.05
852.241	0.99
852.41	-0.81
852.578	-0.87
852.746	-0.81
852.915	1.73
853.083	-0.27
853.251	-1.39
853.42	-0.38
853.588	1.05
853.756	1.68
853.924	0.21
854.093	0.12
854.261	-1.1
854.429	-1.86
854.597	0.63
854.765	-0.81
854.934	-0.18
855.102	0.74
855.27	-0.21
855.438	0.98
855.606	-0.31
855.774	1.43
855.942	-1.75
856.11	-2.21
856.278	0.88
856.446	1.69
856.614	0.12
856.782	-0.15
856.95	0.48
857.118	0.54
857.286	-0.26
857.454	-0.41
857.622	0.47
857.79	0.12
857.958	-2.33
858.126	-1.23
858.294	-3.59
858.462	-0.55
858.629	-0.65
858.797	-0.69
858.965	0.36
859.133	0.02
859.301	-0.11
859.468	0.52
859.636	-0.65
859.804	0.97
859.971	0.42
860.139	-0.49
860.307	1.17
860.474	-0.62
860.642	-1.61
860.81	-0.74
860.977	-0.88
861.145	0.74
861.313	-0.46
861.48	-1.36
861.648	1.04
861.815	-0.07
861.983	-0.66
862.15	-1.42
862.318	0.86
862.485	1.22
862.653	-1.31
862.82	-0.12
862.988	2.45
863.155	1.04
863.322	-1.44
863.49	-0.11
863.657	-0.47
863.824	2.07
863.992	-0.73
864.159	-0.39
864.326	1.57
864.494	-1.09
864.661	3.62
864.828	-0.53
864.996	0.75
865.163	0.46
865.33	-0.94
865.497	-2.88
865.664	-0.81
865.832	-1
865.999	-1.22
866.166	-0.87
866.333	-0.21
866.5	-0.56
866.667	-1.2
866.834	-0.29
867.001	2.4
867.168	-2.5
867.335	0.58
867.502	-1.08
867.669	-0.39
867.836	3.66
868.003	0.38
868.17	1.5
868.337	2.91
868.504	2.15
868.671	-0.03
868.838	-1.19
869.005	0.91
869.172	2.27
869.339	0.15
869.505	-1.52
869.672	1.59
869.839	1.6
870.006	0.44
870.173	-2.13
870.339	-0.6
870.506	2.93
870.673	-0.75
870.84	0.8
871.006	1.06
871.173	-0.78
871.34	-0.4
871.506	-2.52
871.673	-0.26
871.839	-2.16
872.006	-0.48
872.173	-0.76
872.339	1.25
872.506	3.11
872.672	-0.65
872.839	-2.75
873.005	1.18
873.172	3.06
873.338	1.26
873.505	1.09
873.671	1.33
873.838	2.66
874.004	-2.5
874.171	-0.4
874.337	0.46
874.503	0.51
874.67	-0.28
874.836	0.74
875.002	2.02
875.169	2.83
875.335	0.87
875.501	-0.35
875.668	0.51
875.834	-0.48
876	-0.34
876.166	1.43
876.332	-0
876.499	3.68
876.665	-1.45
876.831	0.14
876.997	3.07
877.163	-0.32
877.329	-1.43
877.495	0.18
877.662	0.2
877.828	0.45
877.994	0.46
878.16	-2.74
878.326	0.63
878.492	1.61
878.658	-1.45
878.824	0.7
878.99	-0.67
879.156	-0.3
879.322	3.3
879.487	-2.02
879.653	0.26
879.819	1.3
879.985	0.18
880.151	0.11
880.317	0.76
880.483	1.77
880.648	0.8
880.814	-1.46
880.98	0.54
881.146	-2.27
881.312	-0.62
881.477	-0.49
881.643	-0.53
881.809	2.41
881.974	2.4
882.14	-1.34
882.306	1.11
882.471	3.52
882.637	-1.28
882.803	0.58
882.968	2.76
883.134	3.53
883.299	1.03
883.465	-0.23
883.63	1.81
883.796	2.22
883.961	1.35
884.127	-0.08
884.292	-4.31
884.458	-2.88
884.623	-2.88
