Data from Apollo_Calib_20240827__AbsoluteIrradiance__720__11-09-02-320.txt Node

Date: Wed Aug 28 11:09:02 BST 2024
User: biology
Spectrometer: FLMT08252
Trigger mode: 0
Integration Time (sec): 5.000000E-1
Scans to average: 5
Electric dark correction enabled: true
Nonlinearity correction enabled: false
Boxcar width: 0
XAxis mode: Wavelengths
Number of Pixels in Spectrum: 3648
>>>>>Begin Spectral Data<<<<<
179.588	-0
179.809	-0
180.03	-0
180.251	-0
180.473	-0
180.694	0
180.915	0
181.136	-0
181.357	0
181.578	-0
181.799	-0
182.02	-0
182.241	-0
182.462	-0
182.683	0
182.904	-0
183.125	-0
183.346	0
183.567	0
183.788	-0
184.009	-0
184.23	0
184.451	0
184.672	-0
184.892	-0
185.113	0
185.334	0
185.555	-0
185.776	-0
185.996	0
186.217	0
186.438	0
186.659	-0
186.879	0
187.1	-0
187.321	0
187.541	0
187.762	0
187.983	0
188.203	-0
188.424	0
188.644	0
188.865	-0
189.086	-0
189.306	-0
189.527	0
189.747	0
189.968	-0
190.188	0
190.409	0
190.629	0
190.849	-0
191.07	-0
191.29	0
191.511	0
191.731	-0
191.951	-0
192.172	0
192.392	0
192.612	0
192.833	0
193.053	0
193.273	0
193.493	-0
193.714	0
193.934	0
194.154	0
194.374	0
194.594	0
194.815	0
195.035	0
195.255	0
195.475	-0
195.695	0
195.915	0
196.135	0
196.355	0
196.575	0
196.795	-0
197.015	-0
197.235	-0
197.455	-0
197.675	0
197.895	0
198.115	-0
198.335	0
198.555	-0
198.775	0
198.995	0
199.214	0
199.434	0
199.654	-0
199.874	0
200.094	0.85
200.313	0.04
200.533	0.23
200.753	-0.5
200.973	1.17
201.192	0.81
201.412	-0.88
201.632	-0.22
201.851	1.2
202.071	-0.22
202.291	0.06
202.51	-0.13
202.73	0.36
202.95	0.29
203.169	0.05
203.389	0.13
203.608	0.2
203.828	-0.16
204.047	-0.2
204.267	0.4
204.486	0.41
204.706	0.29
204.925	0.07
205.145	-0.48
205.364	0.55
205.583	0.78
205.803	0.05
206.022	-0.21
206.242	0.08
206.461	0.35
206.68	-0.13
206.9	0.09
207.119	0.96
207.338	0.47
207.557	0.14
207.777	-0.06
207.996	0.07
208.215	0.56
208.434	-0.26
208.654	-0.44
208.873	-0.1
209.092	0.67
209.311	-0.08
209.53	-0.01
209.749	0.2
209.968	-0.39
210.187	0.03
210.407	-0.4
210.626	-0.15
210.845	0.43
211.064	-0.04
211.283	-0.04
211.502	0.35
211.721	0
211.94	-0.02
212.159	0.07
212.377	0.49
212.596	0.32
212.815	-0.03
213.034	0.19
213.253	0.23
213.472	0.3
213.691	-0.13
213.91	-0.1
214.128	-0.06
214.347	0.43
214.566	-0.43
214.785	-0.2
215.003	0.44
215.222	0.19
215.441	0.12
215.66	-0.15
215.878	0.14
216.097	0.31
216.316	-0.01
216.534	-0.2
216.753	0.02
216.972	-0.04
217.19	0.13
217.409	0.03
217.627	-0.07
217.846	-0.1
218.064	0.02
218.283	-0.16
218.501	0.5
218.72	0.19
218.938	-0.02
219.157	-0.04
219.375	0.18
219.594	0.24
219.812	-0.21
220.031	0.01
220.249	0.21
220.467	0.45
220.686	0.05
220.904	-0.17
221.122	-0.01
221.341	0.34
221.559	0.19
221.777	-0.19
221.995	0.18
222.214	0.33
222.432	-0.07
222.65	0.19
222.868	0.12
223.086	0.12
223.305	0.17
223.523	-0.03
223.741	0.38
223.959	-0.01
224.177	-0.2
224.395	-0.08
224.613	0.06
224.831	0.25
225.049	-0.12
225.267	0.01
225.485	0.02
225.703	0.13
225.921	-0.07
226.139	-0.04
226.357	0.28
226.575	0.19
226.793	-0
227.011	0.63
227.229	0.16
227.447	0.23
227.665	0.11
227.883	-0.09
228.1	-0.03
228.318	0.07
228.536	-0.16
228.754	-0.06
228.972	0.2
229.189	0.23
229.407	-0.05
229.625	0
229.843	0.21
230.06	0.19
230.278	0.08
230.496	0.08
230.713	0.04
230.931	0.2
231.149	0.02
231.366	-0.14
231.584	0.07
231.801	0.42
232.019	-0.05
232.236	-0.05
232.454	-0.02
232.671	0.12
232.889	-0.05
233.106	0
233.324	0.11
233.541	-0.09
233.759	0.01
233.976	0.01
234.194	-0.01
234.411	0.07
234.628	-0.02
234.846	0
235.063	0.03
235.28	-0.07
235.498	0.01
235.715	-0.13
235.932	0.24
236.149	-0.04
236.367	-0.06
236.584	0.17
236.801	0.01
237.018	0.02
237.236	0.02
237.453	-0.1
237.67	0.24
237.887	0.03
238.104	-0.01
238.321	-0.02
238.538	-0.02
238.755	0.19
238.973	-0.1
239.19	0
239.407	0.13
239.624	0.07
239.841	-0.09
240.058	-0.02
240.275	0.14
240.492	0.06
240.709	0.03
240.925	0.03
241.142	0.03
241.359	-0.03
241.576	-0.06
241.793	0.02
242.01	0.03
242.227	0.14
242.444	0.08
242.66	0.16
242.877	0.09
243.094	0.07
243.311	0.05
243.527	-0.05
243.744	0.1
243.961	0.16
244.178	-0.08
244.394	-0.04
244.611	0.11
244.828	0.07
245.044	-0.05
245.261	0.09
245.477	0.06
245.694	0.04
245.911	-0.03
246.127	0.08
246.344	0.17
246.56	0.13
246.777	0.04
246.993	0.05
247.21	0.12
247.426	0.09
247.643	-0.02
247.859	-0.06
248.076	-0.04
248.292	0.24
248.508	0.03
248.725	0.13
248.941	0.13
249.157	0.15
249.374	-0.01
249.59	0.12
249.806	0.07
250.023	0.21
250.239	-0.05
250.455	0.02
250.671	0.02
250.888	0.05
251.104	0.18
251.32	-0.06
251.536	0.05
251.752	-0.01
251.969	-0.02
252.185	0.04
252.401	0.15
252.617	0.13
252.833	-0.02
253.049	0.05
253.265	0.01
253.481	0.09
253.697	0.03
253.913	0.04
254.129	0.07
254.345	0.08
254.561	0.06
254.777	-0.01
254.993	0.17
255.209	0.06
255.425	0.05
255.641	0.06
255.857	0.13
256.073	0.02
256.288	-0.08
256.504	-0.03
256.72	-0.01
256.936	0.19
257.152	0.06
257.367	-0.02
257.583	0.03
257.799	0.13
258.015	0
258.23	-0.01
258.446	0.15
258.662	-0.01
258.877	0.01
259.093	-0
259.309	-0.02
259.524	0.03
259.74	-0.02
259.955	-0.08
260.171	0.05
260.387	0.08
260.602	0.11
260.818	0.09
261.033	-0.04
261.249	0.01
261.464	-0.05
261.68	-0.04
261.895	0.1
262.11	0.1
262.326	0.01
262.541	-0.04
262.757	0.05
262.972	0.07
263.187	0.06
263.403	0.04
263.618	0.09
263.833	0.07
264.049	-0.09
264.264	0
264.479	0.08
264.694	0.12
264.91	-0.05
265.125	-0.04
265.34	0.09
265.555	0.15
265.77	0.1
265.986	-0
266.201	0.13
266.416	0.11
266.631	0.08
266.846	0.02
267.061	-0.03
267.276	0.05
267.491	-0.09
267.706	0.09
267.921	0.05
268.136	0.07
268.351	0.07
268.566	-0.02
268.781	0.1
268.996	0.12
269.211	0
269.426	-0.05
269.641	0.01
269.856	0.06
270.071	-0.06
270.285	-0.05
270.5	0.04
270.715	0.16
270.93	0.03
271.145	0.07
271.359	0.08
271.574	-0.01
271.789	0.01
272.004	-0.06
272.218	0.03
272.433	0.11
272.648	0.03
272.862	0.08
273.077	0.02
273.292	-0
273.506	-0.02
273.721	-0
273.936	0.06
274.15	0.1
274.365	-0.02
274.579	0.07
274.794	0.08
275.008	0.09
275.223	-0.08
275.437	0.02
275.652	0.13
275.866	0.09
276.081	0.05
276.295	0.05
276.509	0.08
276.724	0.04
276.938	0.1
277.153	0.09
277.367	0.08
277.581	-0
277.796	-0.01
278.01	-0.03
278.224	0.09
278.438	0.13
278.653	-0.03
278.867	0.02
279.081	0.1
279.295	0.02
279.51	0.09
279.724	-0
279.938	0.12
280.152	0.07
280.366	0
280.58	0.06
280.794	0.1
281.008	0.14
281.222	0.07
281.437	0.16
281.651	0.08
281.865	0.07
282.079	-0
282.293	-0.1
282.507	-0.02
282.721	0.03
282.935	0.02
283.148	-0.07
283.362	0.02
283.576	-0.02
283.79	0.05
284.004	-0.01
284.218	0.13
284.432	0.01
284.646	-0.03
284.859	0.02
285.073	0.02
285.287	0
285.501	0.02
285.714	0.02
285.928	0.09
286.142	0.02
286.356	-0.02
286.569	0.02
286.783	0.1
286.997	0.04
287.21	0.02
287.424	0.07
287.637	0.04
287.851	0.04
288.065	0.09
288.278	0.06
288.492	0.04
288.705	0.03
288.919	0.08
289.132	-0.02
289.346	0.06
289.559	-0.03
289.773	-0.03
289.986	0.01
290.2	0.06
290.413	0.07
290.626	0.02
290.84	0.02
291.053	0.04
291.267	0.1
291.48	0.05
291.693	0.05
291.906	0.01
292.12	0.02
292.333	-0.02
292.546	0.03
292.76	0.08
292.973	0.03
293.186	0.11
293.399	0.01
293.612	0.1
293.826	0.06
294.039	0.03
294.252	0.02
294.465	0.05
294.678	0.09
294.891	0.05
295.104	-0.02
295.317	0.04
295.53	0.03
295.743	0.02
295.956	0.02
296.169	0.09
296.382	0.08
296.595	0.08
296.808	0.02
297.021	0.09
297.234	0.09
297.447	0.01
297.66	0.05
297.873	0.04
298.086	0.06
298.299	0.03
298.511	-0.01
298.724	0.01
298.937	-0.02
299.15	-0.02
299.363	0.04
299.575	0.08
299.788	0.11
300.001	-0.04
300.213	0.01
300.426	0.04
300.639	0.03
300.852	-0.01
301.064	0.06
301.277	0.11
301.489	0.08
301.702	0.09
301.915	0.06
302.127	0.04
302.34	0.06
302.552	0.07
302.765	0.01
302.977	0.04
303.19	0.01
303.402	0.01
303.615	0.01
303.827	-0.01
304.04	0.04
304.252	0.08
304.464	0.01
304.677	0.16
304.889	0.11
305.102	0.01
305.314	0.04
305.526	0.09
305.739	0.06
305.951	-0.01
306.163	0.01
306.375	0.07
306.588	-0.03
306.8	0.01
307.012	-0
307.224	0.04
307.436	0.11
307.649	-0.01
307.861	0.1
308.073	0.01
308.285	0.04
308.497	0.01
308.709	0.03
308.921	0.04
309.133	0.06
309.346	0.04
309.558	0.03
309.77	0.04
309.982	0.1
310.194	0.09
310.406	-0.01
310.617	0.12
310.829	0.06
311.041	0.06
311.253	0
311.465	0.02
311.677	0.02
311.889	0.02
312.101	0.03
312.313	0.08
312.524	0.12
312.736	-0.04
312.948	0.03
313.16	0.09
313.372	0.09
313.583	0.03
313.795	0.02
314.007	0
314.218	0.05
314.43	0
314.642	-0.01
314.853	0.02
315.065	0.04
315.277	0.02
315.488	0.02
315.7	0.05
315.912	0.07
316.123	0.03
316.335	0.03
316.546	0.18
316.758	0
316.969	-0.03
317.181	0.02
317.392	0.02
317.604	0.1
317.815	-0.01
318.026	0.03
318.238	0.02
318.449	0.02
318.661	-0.01
318.872	-0.02
319.083	0
319.295	0.09
319.506	0.03
319.717	0.04
319.929	0.02
320.14	0.01
320.351	0.06
320.562	0.02
320.774	0.05
320.985	0.03
321.196	0
321.407	-0.01
321.618	0.07
321.829	0.03
322.041	0.1
322.252	0.04
322.463	0.04
322.674	0.05
322.885	0.02
323.096	0.04
323.307	0.02
323.518	0.03
323.729	-0.02
323.94	-0.01
324.151	0.03
324.362	0.02
324.573	0.07
324.784	-0
324.995	0.05
325.206	0.04
325.417	-0.01
325.628	-0.01
325.838	0.02
326.049	0.04
326.26	0.04
326.471	0
326.682	0.04
326.892	0.02
327.103	-0.02
327.314	-0.02
327.525	0.06
327.735	0.06
327.946	0.02
328.157	-0.01
328.368	0.02
328.578	0.03
328.789	0.11
328.999	0.04
329.21	0.02
329.421	0.05
329.631	0.03
329.842	0.01
330.052	0.08
330.263	0.06
330.473	0.06
330.684	-0
330.894	0.08
331.105	0.02
331.315	-0.01
331.526	-0
331.736	0.15
331.947	0.07
332.157	0.09
332.367	-0.02
332.578	0.05
332.788	0.12
332.999	0.06
333.209	0.04
333.419	0.03
333.629	0.01
333.84	0.06
334.05	-0.01
334.26	0.1
334.47	0.07
334.681	0.11
334.891	0.02
335.101	0.08
335.311	0.12
335.521	0.06
335.732	-0.03
335.942	0.07
336.152	0.05
336.362	0.03
336.572	0.07
336.782	0.04
336.992	0.03
337.202	0.02
337.412	0.01
337.622	0.05
337.832	0.03
338.042	0.01
338.252	0.03
338.462	0.05
338.672	0.03
338.882	-0.04
339.092	0.01
339.302	0.11
339.511	0.06
339.721	-0.01
339.931	0.02
340.141	0.04
340.351	0.1
340.561	0.06
340.77	0.03
340.98	0.04
341.19	0.07
341.4	0.03
341.609	-0.04
341.819	0.02
342.029	-0.02
342.238	0
342.448	-0.03
342.658	0.07
342.867	0.03
343.077	0.04
343.286	0.09
343.496	-0
343.706	0.08
343.915	0
344.125	0.02
344.334	0.05
344.544	-0.03
344.753	0.04
344.963	0.02
345.172	0.01
345.381	0
345.591	-0.01
345.8	0.06
346.01	0.12
346.219	0.07
346.428	-0.11
346.638	0.02
346.847	0.03
347.056	0.12
347.266	0.01
347.475	0.05
347.684	0.11
347.893	0.06
348.103	0.07
348.312	-0
348.521	0.04
348.73	0.04
348.94	0.03
349.149	0.04
349.358	0.03
349.567	0
349.776	-0.04
349.985	0.01
350.194	0.11
350.403	0.03
350.612	-0.04
350.821	-0.01
351.03	0.08
351.239	-0.01
351.448	0.04
351.657	0.02
351.866	0.1
352.075	0.04
352.284	0.08
352.493	-0
352.702	0.1
352.911	0.06
353.12	0.05
353.329	0.03
353.538	0.07
353.746	0.04
353.955	0.02
354.164	0.05
354.373	0.03
354.582	0.07
354.79	0.06
354.999	0.08
355.208	0.01
355.416	0.11
355.625	0.01
355.834	0
356.042	0.01
356.251	0.01
356.46	-0.01
356.668	0.06
356.877	0.1
357.085	0.05
357.294	-0.05
357.503	0.08
357.711	-0.01
357.92	0.15
358.128	0.06
358.337	-0.01
358.545	0.06
358.754	0.06
358.962	0.04
359.17	0.01
359.379	0.02
359.587	0.08
359.796	0.05
360.004	0.12
360.212	0.06
360.421	0.1
360.629	0.01
360.837	0
361.046	0.04
361.254	0.09
361.462	0.03
361.67	-0
361.879	0.02
362.087	0.11
362.295	0.03
362.503	0.03
362.711	-0.03
362.92	-0.03
363.128	0.02
363.336	0.02
363.544	-0.05
363.752	0.03
363.96	-0.02
364.168	0.04
364.376	0.03
364.584	0.05
364.792	0.07
365	0.07
365.208	0.08
365.416	0.04
365.624	0.06
365.832	0.02
366.04	0.07
366.248	0.07
366.456	0.1
366.664	0.04
366.872	0.06
367.079	0.03
367.287	0.05
367.495	0.07
367.703	0.02
367.911	0.01
368.118	0.02
368.326	-0.01
368.534	-0
368.742	0.09
368.949	0.01
369.157	-0.02
369.365	0.1
369.572	0.04
369.78	0.01
369.988	0.05
370.195	0.05
370.403	0.05
370.61	0.03
370.818	0.05
371.026	0.09
371.233	-0
371.441	0.02
371.648	-0.01
371.856	0.03
372.063	0.08
372.271	0.03
372.478	0
372.685	0
372.893	0.07
373.1	0.03
373.308	-0.04
373.515	0.12
373.722	0.05
373.93	0.02
374.137	0.05
374.344	0.12
374.552	0.08
374.759	0.02
374.966	0.08
375.173	0.01
375.381	0.07
375.588	0
375.795	-0.05
376.002	0.03
376.209	0.01
376.417	0.07
376.624	0.05
376.831	0.07
377.038	0.01
377.245	-0.02
377.452	-0.01
377.659	0.03
377.866	0.02
378.073	0.04
378.28	0
378.487	0.03
378.694	0.1
378.901	-0.02
379.108	0.06
379.315	0.05
379.522	0.12
379.729	0.05
379.936	0.04
380.143	0.04
380.35	0.02
380.557	0.04
380.763	0.03
380.97	0.03
381.177	0.07
381.384	0.03
381.591	0.01
381.797	0.06
382.004	0.06
382.211	0.05
382.418	0
382.624	0.05
382.831	0.09
383.038	0.01
383.244	0.04
383.451	0.05
383.658	0.04
383.864	0
384.071	-0.01
384.277	0.13
384.484	0.01
384.69	0.09
384.897	0.02
385.103	0.04
385.31	0.01
385.516	0.03
385.723	-0
385.929	0.03
386.136	-0.01
386.342	0.08
386.549	0
386.755	0.07
386.961	0.07
387.168	0.02
387.374	0.01
387.58	0.06
387.787	0.04
387.993	0.04
388.199	0.04
388.406	0.01
388.612	0.02
388.818	0.03
389.024	0.02
389.231	0.06
389.437	0.07
389.643	0.05
389.849	0.06
390.055	-0
390.261	0.07
390.467	0.06
390.674	-0.02
390.88	0.02
391.086	0.05
391.292	-0.02
391.498	0.05
391.704	0.04
391.91	0.03
392.116	0.02
392.322	-0.03
392.528	0.05
392.734	0.03
392.94	0.02
393.146	0.04
393.352	0.04
393.557	0.06
393.763	0.02
393.969	0.03
394.175	0.04
394.381	0.07
394.587	0.01
394.792	0.04
394.998	0.05
395.204	0.06
395.41	-0.01
395.615	0.04
395.821	0.03
396.027	0.09
396.233	0.03
396.438	0.02
396.644	0.04
396.85	0.07
397.055	0.07
397.261	0.06
397.466	0.07
397.672	0.04
397.878	0.08
398.083	0.03
398.289	0.02
398.494	0.09
398.7	0.06
398.905	-0.01
399.111	0.09
399.316	-0.02
399.522	0.01
399.727	0.06
399.932	0.05
400.138	0.03
400.343	0.1
400.549	0.07
400.754	0.03
400.959	0.05
401.165	0.03
401.37	0.03
401.575	0.03
401.78	0.02
401.986	0.04
402.191	0.05
402.396	0.04
402.601	0.1
402.807	0.05
403.012	0.03
403.217	0.05
403.422	0.03
403.627	0.09
403.832	0.05
404.037	0.14
404.243	0.1
404.448	-0
404.653	0.05
404.858	0.09
405.063	0.06
405.268	-0
405.473	0.01
405.678	0.04
405.883	0.19
406.088	0.1
406.293	-0.02
406.498	0.02
406.703	0.08
406.907	0.09
407.112	0
407.317	0.07
407.522	0.06
407.727	-0.03
407.932	0.07
408.136	0.16
408.341	0.06
408.546	0.09
408.751	0.1
408.956	0.05
409.16	0.11
409.365	0.04
409.57	0.02
409.774	0.07
409.979	0.12
410.184	0.08
410.388	0.03
410.593	0.13
410.798	0.11
411.002	0.07
411.207	0.08
411.411	0.1
411.616	0.06
411.82	0.09
412.025	0.12
412.229	0.05
412.434	0.19
412.638	0.09
412.843	0.07
413.047	0.13
413.252	0.07
413.456	0.1
413.66	0.16
413.865	0.14
414.069	0.18
414.273	0.11
414.478	0.08
414.682	0.12
414.886	0.15
415.091	0.08
415.295	0.14
415.499	0.18
415.703	0.15
415.908	0.17
416.112	0.06
416.316	0.27
416.52	0.14
416.724	0.1
416.929	0.14
417.133	0.33
417.337	0.16
417.541	0.19
417.745	0.21
417.949	0.21
418.153	0.25
418.357	0.22
418.561	0.31
418.765	0.3
418.969	0.4
419.173	0.31
419.377	0.26
419.581	0.43
419.785	0.3
419.989	0.24
420.193	0.37
420.397	0.31
420.601	0.42
420.804	0.45
421.008	0.36
421.212	0.35
421.416	0.45
421.62	0.4
421.823	0.4
422.027	0.54
422.231	0.43
422.435	0.45
422.638	0.45
422.842	0.5
423.046	0.46
423.249	0.52
423.453	0.53
423.657	0.56
423.86	0.52
424.064	0.54
424.268	0.62
424.471	0.56
424.675	0.71
424.878	0.69
425.082	0.62
425.285	0.77
425.489	0.65
425.692	0.7
425.896	0.61
426.099	0.72
426.303	0.71
426.506	0.65
426.71	0.73
426.913	0.84
427.116	0.76
427.32	0.81
427.523	0.8
427.726	0.93
427.93	0.85
428.133	0.88
428.336	0.86
428.54	0.83
428.743	0.97
428.946	1.09
429.149	1
429.353	1.03
429.556	1.02
429.759	1.01
429.962	0.95
430.165	1
430.368	0.97
430.571	0.99
430.775	1.02
430.978	0.93
431.181	1.03
431.384	1.03
431.587	1.03
431.79	1.08
431.993	1.07
432.196	1.12
432.399	1.08
432.602	1.24
432.805	1.12
433.008	1.3
433.211	1.17
433.414	1.29
433.616	1.32
433.819	1.27
434.022	1.24
434.225	1.44
434.428	1.38
434.631	1.52
434.833	1.3
435.036	1.43
435.239	1.42
435.442	1.46
435.645	1.44
435.847	1.48
436.05	1.59
436.253	1.56
436.455	1.48
436.658	1.51
436.861	1.65
437.063	1.6
437.266	1.59
437.468	1.66
437.671	1.8
437.874	1.72
438.076	1.6
438.279	1.75
438.481	1.74
438.684	1.84
438.886	1.93
439.089	1.87
439.291	1.8
439.494	2.01
439.696	1.92
439.899	2.12
440.101	2.16
440.303	2.11
440.506	2.2
440.708	2.24
440.91	2.35
441.113	2.25
441.315	2.41
441.517	2.28
441.72	2.42
441.922	2.38
442.124	2.3
442.326	2.5
442.529	2.51
442.731	2.49
442.933	2.61
443.135	2.56
443.337	2.54
443.539	2.56
443.742	2.57
443.944	2.74
444.146	2.67
444.348	2.71
444.55	2.63
444.752	2.75
444.954	2.67
445.156	2.7
445.358	2.74
445.56	2.95
445.762	2.8
445.964	2.84
446.166	2.82
446.368	2.88
446.57	2.92
446.772	2.91
446.974	2.77
447.175	2.89
447.377	2.83
447.579	2.87
447.781	2.83
447.983	2.87
448.184	2.78
448.386	2.84
448.588	2.69
448.79	2.74
448.991	2.74
449.193	2.81
449.395	2.75
449.597	2.75
449.798	2.68
450	2.63
450.202	2.57
450.403	2.59
450.605	2.63
450.806	2.49
451.008	2.41
451.21	2.41
451.411	2.32
451.613	2.26
451.814	2.29
452.016	2.28
452.217	2.13
452.419	2.16
452.62	2.03
452.821	2.13
453.023	2.04
453.224	1.94
453.426	1.92
453.627	1.74
453.828	1.82
454.03	1.79
454.231	1.75
454.432	1.69
454.634	1.77
454.835	1.59
455.036	1.5
455.238	1.56
455.439	1.55
455.64	1.43
455.841	1.37
456.042	1.54
456.244	1.39
456.445	1.31
456.646	1.24
456.847	1.24
457.048	1.25
457.249	1.31
457.45	1.42
457.651	1.13
457.852	1.11
458.054	1.03
458.255	1.02
458.456	1.1
458.657	1.02
458.858	0.92
459.058	0.98
459.259	0.98
459.46	0.88
459.661	0.85
459.862	1.06
460.063	0.86
460.264	0.93
460.465	0.84
460.666	0.96
460.866	0.84
461.067	0.77
461.268	0.77
461.469	0.76
461.67	0.78
461.87	0.71
462.071	0.74
462.272	0.73
462.473	0.71
462.673	0.78
462.874	0.71
463.075	0.72
463.275	0.7
463.476	0.81
463.676	0.7
463.877	0.69
464.078	0.7
464.278	0.72
464.479	0.71
464.679	0.66
464.88	0.66
465.08	0.75
465.281	0.6
465.481	0.6
465.682	0.57
465.882	0.6
466.083	0.63
466.283	0.56
466.483	0.52
466.684	0.46
466.884	0.48
467.085	0.5
467.285	0.52
467.485	0.48
467.686	0.5
467.886	0.44
468.086	0.47
468.286	0.47
468.487	0.51
468.687	0.42
468.887	0.43
469.087	0.51
469.287	0.46
469.488	0.4
469.688	0.44
469.888	0.46
470.088	0.47
470.288	0.48
470.488	0.41
470.688	0.35
470.888	0.36
471.088	0.33
471.288	0.41
471.488	0.42
471.688	0.36
471.888	0.36
472.088	0.45
472.288	0.4
472.488	0.39
472.688	0.35
472.888	0.34
473.088	0.38
473.288	0.31
473.488	0.33
473.688	0.43
473.887	0.3
474.087	0.3
474.287	0.33
474.487	0.27
474.687	0.37
474.886	0.27
475.086	0.32
475.286	0.29
475.486	0.29
475.685	0.3
475.885	0.28
476.085	0.31
476.284	0.31
476.484	0.31
476.684	0.3
476.883	0.33
477.083	0.31
477.282	0.3
477.482	0.33
477.681	0.34
477.881	0.31
478.08	0.26
478.28	0.27
478.479	0.32
478.679	0.35
478.878	0.27
479.078	0.22
479.277	0.24
479.477	0.22
479.676	0.33
479.875	0.25
480.075	0.19
480.274	0.28
480.473	0.31
480.673	0.22
480.872	0.31
481.071	0.31
481.271	0.28
481.47	0.25
481.669	0.28
481.868	0.24
482.067	0.26
482.267	0.24
482.466	0.22
482.665	0.25
482.864	0.24
483.063	0.22
483.262	0.28
483.461	0.32
483.661	0.35
483.86	0.26
484.059	0.28
484.258	0.29
484.457	0.28
484.656	0.28
484.855	0.32
485.054	0.26
485.253	0.23
485.452	0.23
485.651	0.27
485.849	0.26
486.048	0.27
486.247	0.26
486.446	0.28
486.645	0.26
486.844	0.26
487.043	0.29
487.241	0.28
487.44	0.27
487.639	0.31
487.838	0.3
488.037	0.3
488.235	0.36
488.434	0.29
488.633	0.26
488.831	0.3
489.03	0.34
489.229	0.31
489.427	0.31
489.626	0.35
489.825	0.36
490.023	0.34
490.222	0.32
490.42	0.33
490.619	0.34
490.817	0.32
491.016	0.28
491.214	0.37
491.413	0.34
491.611	0.31
491.81	0.33
492.008	0.35
492.207	0.39
492.405	0.38
492.604	0.32
492.802	0.34
493	0.37
493.199	0.32
493.397	0.39
493.595	0.38
493.794	0.35
493.992	0.43
494.19	0.39
494.388	0.41
494.587	0.36
494.785	0.39
494.983	0.36
495.181	0.42
495.379	0.4
495.578	0.44
495.776	0.43
495.974	0.42
496.172	0.45
496.37	0.41
496.568	0.4
496.766	0.41
496.964	0.48
497.162	0.47
497.36	0.44
497.558	0.5
497.756	0.49
497.954	0.45
498.152	0.49
498.35	0.53
498.548	0.48
498.746	0.49
498.944	0.49
499.142	0.49
499.34	0.51
499.538	0.55
499.736	0.5
499.933	0.56
500.131	0.57
500.329	0.57
500.527	0.6
500.725	0.58
500.922	0.6
501.12	0.59
501.318	0.59
501.516	0.57
501.713	0.61
501.911	0.6
502.109	0.58
502.306	0.61
502.504	0.59
502.701	0.61
502.899	0.64
503.097	0.71
503.294	0.64
503.492	0.65
503.689	0.66
503.887	0.69
504.084	0.73
504.282	0.69
504.479	0.63
504.677	0.71
504.874	0.67
505.072	0.66
505.269	0.71
505.466	0.76
505.664	0.73
505.861	0.67
506.059	0.67
506.256	0.76
506.453	0.72
506.651	0.83
506.848	0.79
507.045	0.81
507.242	0.75
507.44	0.77
507.637	0.8
507.834	0.76
508.031	0.82
508.229	0.75
508.426	0.79
508.623	0.81
508.82	0.79
509.017	0.8
509.214	0.8
509.411	0.86
509.608	0.79
509.805	0.83
510.003	0.82
510.2	0.85
510.397	0.9
510.594	0.83
510.791	0.87
510.988	0.87
511.184	0.89
511.381	0.87
511.578	0.82
511.775	0.93
511.972	0.89
512.169	0.89
512.366	0.88
512.563	0.91
512.76	0.95
512.956	0.96
513.153	0.91
513.35	0.92
513.547	0.89
513.744	0.92
513.94	0.89
514.137	0.97
514.334	0.96
514.53	0.98
514.727	0.98
514.924	1.02
515.12	0.96
515.317	0.94
515.514	0.98
515.71	0.96
515.907	1
516.103	1
516.3	0.99
516.497	1.02
516.693	1.05
516.89	0.99
517.086	0.99
517.283	1.03
517.479	1.01
517.676	1.04
517.872	1.02
518.068	1.02
518.265	1.03
518.461	1.04
518.658	1.03
518.854	1.06
519.05	1.04
519.247	1.04
519.443	1.05
519.639	1.11
519.836	1.06
520.032	1.07
520.228	1.09
520.424	1.13
520.621	1.1
520.817	1.09
521.013	1.08
521.209	1.15
521.405	1.17
521.601	1.09
521.798	1.09
521.994	1.17
522.19	1.06
522.386	1.07
522.582	1.12
522.778	1.14
522.974	1.12
523.17	1.12
523.366	1.09
523.562	1.16
523.758	1.13
523.954	1.09
524.15	1.12
524.346	1.16
524.542	1.14
524.738	1.11
524.934	1.17
525.129	1.15
525.325	1.15
525.521	1.15
525.717	1.19
525.913	1.14
526.109	1.14
526.304	1.19
526.5	1.15
526.696	1.22
526.892	1.16
527.087	1.18
527.283	1.15
527.479	1.19
527.674	1.14
527.87	1.22
528.066	1.13
528.261	1.23
528.457	1.18
528.653	1.21
528.848	1.19
529.044	1.2
529.239	1.21
529.435	1.2
529.63	1.15
529.826	1.23
530.021	1.19
530.217	1.25
530.412	1.16
530.608	1.19
530.803	1.17
530.999	1.15
531.194	1.15
531.389	1.2
531.585	1.18
531.78	1.2
531.975	1.21
532.171	1.26
532.366	1.2
532.561	1.22
532.757	1.19
532.952	1.25
533.147	1.23
533.342	1.22
533.538	1.17
533.733	1.29
533.928	1.2
534.123	1.21
534.318	1.2
534.513	1.2
534.709	1.24
534.904	1.23
535.099	1.24
535.294	1.26
535.489	1.22
535.684	1.26
535.879	1.21
536.074	1.26
536.269	1.22
536.464	1.24
536.659	1.21
536.854	1.22
537.049	1.24
537.244	1.23
537.439	1.23
537.634	1.28
537.828	1.26
538.023	1.24
538.218	1.19
538.413	1.21
538.608	1.24
538.803	1.25
538.997	1.2
539.192	1.28
539.387	1.27
539.582	1.25
539.776	1.25
539.971	1.19
540.166	1.25
540.36	1.23
540.555	1.29
540.75	1.23
540.944	1.25
541.139	1.25
541.334	1.24
541.528	1.26
541.723	1.28
541.917	1.24
542.112	1.2
542.306	1.21
542.501	1.22
542.695	1.27
542.89	1.21
543.084	1.23
543.279	1.22
543.473	1.26
543.668	1.29
543.862	1.22
544.056	1.24
544.251	1.25
544.445	1.3
544.64	1.25
544.834	1.2
545.028	1.2
545.222	1.28
545.417	1.31
545.611	1.28
545.805	1.26
546	1.22
546.194	1.25
546.388	1.23
546.582	1.23
546.776	1.25
546.97	1.27
547.165	1.26
547.359	1.26
547.553	1.24
547.747	1.24
547.941	1.23
548.135	1.27
548.329	1.28
548.523	1.29
548.717	1.22
548.911	1.24
549.105	1.24
549.299	1.25
549.493	1.3
549.687	1.25
549.881	1.31
550.075	1.27
550.269	1.21
550.463	1.29
550.657	1.24
550.85	1.28
551.044	1.27
551.238	1.3
551.432	1.25
551.626	1.24
551.82	1.25
552.013	1.2
552.207	1.25
552.401	1.29
552.594	1.25
552.788	1.25
552.982	1.27
553.176	1.23
553.369	1.3
553.563	1.28
553.756	1.23
553.95	1.24
554.144	1.29
554.337	1.31
554.531	1.26
554.724	1.27
554.918	1.24
555.111	1.29
555.305	1.25
555.498	1.28
555.692	1.27
555.885	1.23
556.079	1.27
556.272	1.26
556.466	1.26
556.659	1.28
556.852	1.26
557.046	1.24
557.239	1.24
557.432	1.2
557.626	1.25
557.819	1.28
558.012	1.28
558.206	1.29
558.399	1.26
558.592	1.28
558.785	1.23
558.979	1.28
559.172	1.27
559.365	1.25
559.558	1.25
559.751	1.26
559.944	1.29
560.138	1.27
560.331	1.27
560.524	1.27
560.717	1.27
560.91	1.23
561.103	1.28
561.296	1.22
561.489	1.26
561.682	1.28
561.875	1.29
562.068	1.31
562.261	1.28
562.454	1.28
562.647	1.27
562.84	1.29
563.032	1.27
563.225	1.28
563.418	1.26
563.611	1.27
563.804	1.25
563.997	1.22
564.19	1.17
564.382	1.22
564.575	1.27
564.768	1.24
564.961	1.22
565.153	1.24
565.346	1.27
565.539	1.28
565.731	1.25
565.924	1.3
566.117	1.3
566.309	1.24
566.502	1.25
566.695	1.23
566.887	1.25
567.08	1.23
567.272	1.24
567.465	1.23
567.657	1.26
567.85	1.29
568.042	1.29
568.235	1.28
568.427	1.22
568.62	1.21
568.812	1.26
569.005	1.27
569.197	1.24
569.389	1.24
569.582	1.26
569.774	1.23
569.966	1.23
570.159	1.22
570.351	1.23
570.543	1.22
570.736	1.25
570.928	1.21
571.12	1.23
571.312	1.24
571.505	1.16
571.697	1.29
571.889	1.21
572.081	1.25
572.273	1.22
572.465	1.3
572.658	1.25
572.85	1.25
573.042	1.23
573.234	1.24
573.426	1.3
573.618	1.27
573.81	1.25
574.002	1.28
574.194	1.26
574.386	1.2
574.578	1.17
574.77	1.2
574.962	1.2
575.154	1.16
575.346	1.21
575.538	1.25
575.729	1.2
575.921	1.22
576.113	1.27
576.305	1.27
576.497	1.23
576.689	1.2
576.88	1.18
577.072	1.24
577.264	1.21
577.456	1.23
577.647	1.15
577.839	1.24
578.031	1.25
578.223	1.19
578.414	1.17
578.606	1.24
578.798	1.19
578.989	1.2
579.181	1.21
579.372	1.23
579.564	1.21
579.755	1.22
579.947	1.2
580.139	1.22
580.33	1.11
580.522	1.21
580.713	1.15
580.905	1.17
581.096	1.22
581.287	1.2
581.479	1.19
581.67	1.23
581.862	1.2
582.053	1.19
582.244	1.14
582.436	1.2
582.627	1.18
582.818	1.16
583.01	1.14
583.201	1.26
583.392	1.18
583.583	1.19
583.775	1.13
583.966	1.15
584.157	1.17
584.348	1.24
584.54	1.12
584.731	1.18
584.922	1.18
585.113	1.19
585.304	1.2
585.495	1.19
585.686	1.21
585.877	1.2
586.068	1.17
586.259	1.21
586.45	1.17
586.641	1.14
586.832	1.14
587.023	1.19
587.214	1.16
587.405	1.17
587.596	1.13
587.787	1.18
587.978	1.17
588.169	1.1
588.36	1.15
588.551	1.15
588.742	1.11
588.932	1.17
589.123	1.1
589.314	1.22
589.505	1.17
589.696	1.17
589.886	1.13
590.077	1.1
590.268	1.13
590.458	1.08
590.649	1.08
590.84	1.18
591.03	1.12
591.221	1.07
591.412	1.12
591.602	1.15
591.793	1.14
591.984	1.12
592.174	1.14
592.365	1.23
592.555	1.08
592.746	1.11
592.936	1.12
593.127	1.14
593.317	1.12
593.508	1.13
593.698	1.06
593.889	1.11
594.079	1.09
594.269	1.09
594.46	1.09
594.65	1.11
594.84	1.12
595.031	1.07
595.221	1.05
595.411	1.05
595.602	1.09
595.792	1.06
595.982	1.07
596.172	1.16
596.363	1.06
596.553	1.08
596.743	1.06
596.933	1.05
597.123	1.08
597.314	1.05
597.504	1.01
597.694	1.1
597.884	1.06
598.074	1.07
598.264	1.03
598.454	1.08
598.644	1.03
598.834	1.05
599.024	1
599.214	1.08
599.404	1.06
599.594	1.04
599.784	1
599.974	1.07
600.164	1.07
600.354	1
600.544	0.97
600.734	1.02
600.924	1.05
601.114	0.99
601.303	0.99
601.493	1.01
601.683	0.96
601.873	1.02
602.063	0.98
602.252	1.01
602.442	0.98
602.632	0.99
602.821	0.98
603.011	0.98
603.201	0.99
603.39	0.97
603.58	0.93
603.77	1
603.959	0.99
604.149	0.99
604.339	0.97
604.528	0.99
604.718	0.95
604.907	0.98
605.097	0.95
605.286	0.93
605.476	0.94
605.665	0.99
605.855	0.93
606.044	0.99
606.234	0.95
606.423	0.95
606.612	0.93
606.802	0.95
606.991	0.96
607.181	0.96
607.37	0.89
607.559	0.87
607.749	0.9
607.938	0.89
608.127	0.9
608.316	0.9
608.506	0.92
608.695	0.94
608.884	0.9
609.073	0.92
609.263	0.94
609.452	0.97
609.641	0.86
609.83	0.86
610.019	0.9
610.208	0.85
610.397	0.88
610.586	0.9
610.775	0.87
610.965	0.88
611.154	0.86
611.343	0.88
611.532	0.8
611.721	0.89
611.91	0.83
612.099	0.91
612.287	0.84
612.476	0.83
612.665	0.87
612.854	0.84
613.043	0.91
613.232	0.85
613.421	0.79
613.61	0.86
613.798	0.83
613.987	0.88
614.176	0.81
614.365	0.87
614.554	0.85
614.742	0.87
614.931	0.82
615.12	0.85
615.309	0.84
615.497	0.83
615.686	0.79
615.875	0.83
616.063	0.8
616.252	0.85
616.44	0.78
616.629	0.8
616.818	0.81
617.006	0.79
617.195	0.74
617.383	0.79
617.572	0.76
617.76	0.77
617.949	0.79
618.137	0.84
618.326	0.83
618.514	0.68
618.703	0.73
618.891	0.83
619.079	0.73
619.268	0.82
619.456	0.71
619.644	0.81
619.833	0.75
620.021	0.7
620.209	0.67
620.398	0.77
620.586	0.74
620.774	0.78
620.962	0.72
621.151	0.77
621.339	0.77
621.527	0.67
621.715	0.68
621.903	0.73
622.092	0.72
622.28	0.72
622.468	0.71
622.656	0.74
622.844	0.72
623.032	0.7
623.22	0.69
623.408	0.78
623.596	0.72
623.784	0.74
623.972	0.66
624.16	0.7
624.348	0.74
624.536	0.64
624.724	0.66
624.912	0.73
625.1	0.7
625.288	0.64
625.476	0.67
625.664	0.72
625.851	0.63
626.039	0.66
626.227	0.7
626.415	0.71
626.603	0.59
626.79	0.68
626.978	0.68
627.166	0.69
627.354	0.59
627.541	0.62
627.729	0.6
627.917	0.67
628.104	0.67
628.292	0.63
628.48	0.65
628.667	0.69
628.855	0.65
629.042	0.69
629.23	0.6
629.418	0.64
629.605	0.62
629.793	0.59
629.98	0.58
630.168	0.57
630.355	0.59
630.543	0.62
630.73	0.58
630.917	0.61
631.105	0.67
631.292	0.61
631.48	0.59
631.667	0.69
631.854	0.62
632.042	0.6
632.229	0.52
632.416	0.57
632.604	0.57
632.791	0.55
632.978	0.61
633.165	0.59
633.353	0.63
633.54	0.62
633.727	0.49
633.914	0.54
634.101	0.58
634.289	0.67
634.476	0.53
634.663	0.52
634.85	0.56
635.037	0.51
635.224	0.5
635.411	0.6
635.598	0.59
635.785	0.53
635.972	0.53
636.159	0.6
636.346	0.5
636.533	0.54
636.72	0.48
636.907	0.51
637.094	0.59
637.281	0.52
637.468	0.5
637.655	0.52
637.842	0.54
638.029	0.5
638.215	0.51
638.402	0.54
638.589	0.48
638.776	0.51
638.963	0.45
639.149	0.53
639.336	0.58
639.523	0.5
639.709	0.52
639.896	0.46
640.083	0.54
640.27	0.49
640.456	0.47
640.643	0.52
640.829	0.42
641.016	0.48
641.203	0.43
641.389	0.51
641.576	0.51
641.762	0.47
641.949	0.43
642.135	0.5
642.322	0.5
642.508	0.41
642.695	0.46
642.881	0.48
643.068	0.47
643.254	0.43
643.441	0.48
643.627	0.46
643.813	0.37
644	0.49
644.186	0.42
644.372	0.43
644.559	0.48
644.745	0.45
644.931	0.39
645.118	0.41
645.304	0.42
645.49	0.41
645.676	0.38
645.862	0.43
646.049	0.45
646.235	0.42
646.421	0.5
646.607	0.48
646.793	0.39
646.979	0.4
647.165	0.43
647.352	0.43
647.538	0.43
647.724	0.41
647.91	0.4
648.096	0.44
648.282	0.45
648.468	0.4
648.654	0.37
648.84	0.42
649.026	0.36
649.212	0.41
649.397	0.4
649.583	0.35
649.769	0.39
649.955	0.36
650.141	0.38
650.327	0.42
650.513	0.33
650.698	0.38
650.884	0.33
651.07	0.39
651.256	0.39
651.442	0.34
651.627	0.33
651.813	0.42
651.999	0.36
652.184	0.36
652.37	0.33
652.556	0.33
652.741	0.38
652.927	0.31
653.113	0.37
653.298	0.36
653.484	0.32
653.669	0.31
653.855	0.35
654.04	0.36
654.226	0.35
654.412	0.34
654.597	0.29
654.782	0.34
654.968	0.39
655.153	0.34
655.339	0.28
655.524	0.29
655.71	0.35
655.895	0.32
656.08	0.32
656.266	0.39
656.451	0.33
656.636	0.26
656.822	0.37
657.007	0.31
657.192	0.33
657.378	0.28
657.563	0.33
657.748	0.34
657.933	0.33
658.118	0.28
658.304	0.3
658.489	0.35
658.674	0.32
658.859	0.26
659.044	0.31
659.229	0.33
659.414	0.26
659.599	0.3
659.785	0.23
659.97	0.3
660.155	0.32
660.34	0.3
660.525	0.3
660.71	0.31
660.895	0.31
661.08	0.28
661.264	0.23
661.449	0.31
661.634	0.33
661.819	0.3
662.004	0.31
662.189	0.21
662.374	0.25
662.559	0.23
662.743	0.21
662.928	0.26
663.113	0.27
663.298	0.23
663.483	0.21
663.667	0.26
663.852	0.23
664.037	0.32
664.221	0.23
664.406	0.31
664.591	0.27
664.775	0.27
664.96	0.25
665.145	0.28
665.329	0.26
665.514	0.19
665.698	0.26
665.883	0.17
666.068	0.31
666.252	0.25
666.437	0.19
666.621	0.23
666.806	0.24
666.99	0.24
667.174	0.21
667.359	0.27
667.543	0.21
667.728	0.21
667.912	0.17
668.096	0.29
668.281	0.22
668.465	0.22
668.649	0.23
668.834	0.21
669.018	0.18
669.202	0.21
669.387	0.19
669.571	0.21
669.755	0.21
669.939	0.23
670.124	0.21
670.308	0.26
670.492	0.3
670.676	0.24
670.86	0.21
671.044	0.2
671.228	0.24
671.413	0.16
671.597	0.22
671.781	0.19
671.965	0.24
672.149	0.2
672.333	0.22
672.517	0.18
672.701	0.25
672.885	0.19
673.069	0.16
673.253	0.3
673.437	0.19
673.621	0.15
673.804	0.21
673.988	0.2
674.172	0.2
674.356	0.2
674.54	0.24
674.724	0.3
674.908	0.16
675.091	0.25
675.275	0.18
675.459	0.24
675.643	0.27
675.826	0.21
676.01	0.19
676.194	0.22
676.377	0.22
676.561	0.23
676.745	0.24
676.928	0.2
677.112	0.23
677.296	0.16
677.479	0.17
677.663	0.16
677.846	0.2
678.03	0.2
678.213	0.18
678.397	0.23
678.58	0.17
678.764	0.17
678.947	0.11
679.131	0.12
679.314	0.21
679.498	0.16
679.681	0.19
679.865	0.24
680.048	0.21
680.231	0.15
680.415	0.18
680.598	0.17
680.781	0.12
680.965	0.12
681.148	0.18
681.331	0.22
681.514	0.18
681.698	0.12
681.881	0.17
682.064	0.18
682.247	0.17
682.43	0.06
682.614	0.21
682.797	0.22
682.98	0.2
683.163	0.11
683.346	0.21
683.529	0.15
683.712	0.12
683.895	0.16
684.078	0.08
684.261	0.18
684.444	0.21
684.627	0.18
684.81	0.12
684.993	0.08
685.176	0.19
685.359	0.14
685.542	0.19
685.725	0.21
685.908	0.16
686.091	0.14
686.274	0.2
686.457	0.22
686.639	0.13
686.822	0.12
687.005	0.15
687.188	0.13
687.371	0.24
687.553	0.18
687.736	0.18
687.919	0.24
688.102	0.23
688.284	0.12
688.467	0.12
688.65	0.11
688.832	0.17
689.015	0.16
689.197	0.09
689.38	0.22
689.563	0.22
689.745	0.08
689.928	0.11
690.11	0.15
690.293	0.19
690.475	0.06
690.658	0.11
690.84	0.1
691.023	0.14
691.205	0.07
691.388	0.13
691.57	0.2
691.752	0.17
691.935	0.04
692.117	0.1
692.3	0.19
692.482	0.08
692.664	0.09
692.847	0.13
693.029	0.15
693.211	0.14
693.393	0.14
693.576	0.1
693.758	0.13
693.94	0.15
694.122	0.09
694.304	0.11
694.487	0.08
694.669	0.22
694.851	0.12
695.033	0.11
695.215	0.14
695.397	0.12
695.579	0.14
695.761	0.03
695.943	0.05
696.125	0.17
696.308	0.15
696.49	0.02
696.671	0.22
696.853	0.1
697.035	0.23
697.217	0.07
697.399	0.17
697.581	0.08
697.763	0.12
697.945	0.04
698.127	0.11
698.309	0.19
698.491	0.1
698.672	0.12
698.854	0.17
699.036	0.16
699.218	0.07
699.399	0.18
699.581	0.15
699.763	0.14
699.945	0.1
700.126	0
700.308	0.09
700.49	0.14
700.671	0.07
700.853	0.05
701.035	0.1
701.216	0.12
701.398	0.08
701.579	0.1
701.761	0.16
701.943	0.03
702.124	0.04
702.306	0.09
702.487	0.22
702.669	0.12
702.85	0.09
703.031	0.08
703.213	0.17
703.394	0.17
703.576	0.02
703.757	0.2
703.938	0.16
704.12	0.27
704.301	0.11
704.483	0.06
704.664	0.12
704.845	0.19
705.026	0.14
705.208	0.08
705.389	0.11
705.57	0.11
705.751	0.04
705.933	0.07
706.114	0.17
706.295	0.17
706.476	-0.03
706.657	0.12
706.838	0.12
707.02	0.17
707.201	0.06
707.382	0.01
707.563	0.15
707.744	0.04
707.925	0.08
708.106	0.06
708.287	0.09
708.468	0.15
708.649	0.11
708.83	0.15
709.011	0.06
709.192	0.11
709.373	0.03
709.554	0.11
709.734	0.1
709.915	0.11
710.096	0.11
710.277	-0.01
710.458	0.09
710.639	0.13
710.819	0.04
711	0.04
711.181	0.14
711.362	0.17
711.542	0.1
711.723	0.07
711.904	0.14
712.085	0.12
712.265	0.14
712.446	0.04
712.627	0.08
712.807	0.07
712.988	0.05
713.168	0.04
713.349	0.12
713.53	-0.08
713.71	0.02
713.891	0.02
714.071	0.1
714.252	0.1
714.432	0.04
714.613	-0.04
714.793	0.02
714.974	0.11
715.154	0.13
715.334	0.07
715.515	0.16
715.695	0.05
715.876	0.1
716.056	0.02
716.236	0.04
716.417	0.04
716.597	0
716.777	0.26
716.957	0.1
717.138	0.09
717.318	0.07
717.498	0.06
717.678	0.07
717.859	0.06
718.039	-0.07
718.219	0.09
718.399	0.14
718.579	-0
718.759	0.09
718.939	0.06
719.12	0.1
719.3	0.06
719.48	-0.07
719.66	-0.04
719.84	0.18
720.02	0.05
720.2	0.02
720.38	0.09
720.56	0.14
720.74	-0.01
720.92	0.07
721.1	0.15
721.279	0.09
721.459	0.12
721.639	0
721.819	0.08
721.999	0.05
722.179	0.08
722.359	0.02
722.538	0.04
722.718	0.03
722.898	0.01
723.078	0.08
723.257	-0.03
723.437	0.09
723.617	0.05
723.797	0.01
723.976	0.07
724.156	0.09
724.336	0.14
724.515	0.21
724.695	-0.02
724.874	0.02
725.054	0.16
725.234	-0.01
725.413	0.04
725.593	0.05
725.772	0.05
725.952	0.04
726.131	0.09
726.311	0.04
726.49	0.07
726.67	0.01
726.849	0
727.028	0.09
727.208	0.03
727.387	0.13
727.567	0
727.746	0.03
727.925	0.01
728.105	-0.01
728.284	-0.08
728.463	0.06
728.643	0.09
728.822	-0.1
729.001	-0.03
729.18	0.07
729.359	0.08
729.539	0.1
729.718	0.03
729.897	0.09
730.076	0.05
730.255	-0.1
730.434	0.1
730.614	0.08
730.793	0.16
730.972	0.02
731.151	0.11
731.33	0.11
731.509	0.13
731.688	0.03
731.867	0.14
732.046	-0
732.225	0.28
732.404	-0.03
732.583	-0.08
732.762	0.11
732.941	0.13
733.12	0.06
733.298	0.1
733.477	0.16
733.656	0.06
733.835	-0.05
734.014	0.13
734.193	0.06
734.371	0.11
734.55	0.17
734.729	-0.1
734.908	0.11
735.086	0.14
735.265	0.06
735.444	-0.11
735.623	-0.1
735.801	-0.07
735.98	-0.01
736.159	0.12
736.337	0.09
736.516	-0.01
736.694	-0.01
736.873	0.05
737.052	0.22
737.23	0.24
737.409	0.08
737.587	0.19
737.766	-0.2
737.944	-0.03
738.123	0.1
738.301	-0.01
738.479	0.13
738.658	0.11
738.836	-0.15
739.015	0.11
739.193	0.06
739.371	-0.13
739.55	0.04
739.728	0.01
739.906	0.26
740.085	0.23
740.263	0.17
740.441	-0.23
740.62	0.14
740.798	0.09
740.976	0.03
741.154	-0.11
741.332	0.11
741.511	0.11
741.689	0.02
741.867	0.15
742.045	0.16
742.223	0.07
742.401	-0.08
742.579	-0.01
742.757	0.03
742.935	-0.1
743.114	0.03
743.292	-0.02
743.47	-0.03
743.648	0.14
743.826	0.08
744.004	0.13
744.181	0.12
744.359	-0.08
744.537	0.12
744.715	-0.05
744.893	0.07
745.071	0.02
745.249	-0.01
745.427	0.05
745.605	0.17
745.782	0.01
745.96	0.17
746.138	0.16
746.316	0.01
746.493	0.02
746.671	0.07
746.849	0.08
747.027	0.15
747.204	0.07
747.382	0.1
747.56	-0.1
747.737	0.16
747.915	-0.04
748.093	0.11
748.27	-0.09
748.448	0.05
748.625	-0.03
748.803	-0.03
748.98	-0.09
749.158	0.05
749.335	0.15
749.513	-0.04
749.69	0.06
749.868	0.05
750.045	0.16
750.223	0.06
750.4	-0.14
750.578	0.22
750.755	0
750.932	-0.16
751.11	0.15
751.287	-0.19
751.464	0.1
751.642	-0.02
751.819	0.13
751.996	0.09
752.173	0.04
752.351	-0.06
752.528	0.01
752.705	0.1
752.882	-0.05
753.06	0.05
753.237	0.17
753.414	0.13
753.591	0.16
753.768	0.09
753.945	0.03
754.122	-0.01
754.299	0.08
754.476	-0.06
754.654	0.08
754.831	0.12
755.008	0.11
755.185	0.08
755.362	0.04
755.539	0.08
755.716	-0.01
755.892	-0.04
756.069	-0.01
756.246	0.01
756.423	0.08
756.6	0.31
756.777	0.07
756.954	0.14
757.131	0.02
757.307	-0.11
757.484	0.04
757.661	0.07
757.838	0.07
758.015	-0.03
758.191	0.16
758.368	0.05
758.545	0.27
758.721	0.15
758.898	-0.13
759.075	0.22
759.251	0.13
759.428	0.13
759.605	-0.09
759.781	0.05
759.958	0.15
760.134	0.24
760.311	0.03
760.488	0.13
760.664	0.16
760.841	0.04
761.017	-0.09
761.194	0.08
761.37	0.18
761.547	-0.02
761.723	0
761.899	0.16
762.076	-0.02
762.252	-0.04
762.429	0.03
762.605	0.16
762.781	-0.08
762.958	0.14
763.134	-0.03
763.31	-0.03
763.486	-0
763.663	-0.13
763.839	0.05
764.015	-0.07
764.191	-0.1
764.368	0.05
764.544	0.05
764.72	0.07
764.896	0.12
765.072	0.1
765.248	-0.03
765.425	-0.01
765.601	0.04
765.777	0.03
765.953	-0.25
766.129	0.04
766.305	-0.05
766.481	0.1
766.657	0.03
766.833	0.26
767.009	-0.21
767.185	-0
767.361	-0.02
767.537	-0.23
767.713	0.11
767.889	-0.06
768.065	0.12
768.24	0.11
768.416	0.18
768.592	0.09
768.768	0.1
768.944	0.11
769.12	-0.05
769.295	-0.04
769.471	0.01
769.647	-0.01
769.823	0.03
769.998	0.01
770.174	-0
770.35	0.36
770.525	0.23
770.701	0.1
770.877	0
771.052	-0.11
771.228	0.15
771.403	0.17
771.579	0.14
771.755	0.23
771.93	0.06
772.106	-0.2
772.281	-0.21
772.457	0.09
772.632	0.06
772.808	-0.23
772.983	0.04
773.159	-0.11
773.334	0.29
773.509	0.04
773.685	-0.04
773.86	0.47
774.036	0.2
774.211	0
774.386	0.03
774.562	0.1
774.737	0.17
774.912	0.12
775.087	0.09
775.263	0.06
775.438	0.12
775.613	0.04
775.788	0.06
775.964	0.25
776.139	0.3
776.314	-0.19
776.489	0.03
776.664	0.03
776.839	-0.13
777.014	0.13
777.19	0.19
777.365	0.24
777.54	0.21
777.715	0.06
777.89	-0.04
778.065	-0.15
778.24	0.09
778.415	0.2
778.59	-0.02
778.765	-0.07
778.94	0.32
779.115	0.15
779.289	0.06
779.464	0.01
779.639	-0.07
779.814	-0.08
779.989	-0.17
780.164	0.14
780.339	0.05
780.513	-0.09
780.688	-0.13
780.863	0.01
781.038	0.22
781.212	-0.03
781.387	0.09
781.562	0.2
781.737	-0.15
781.911	0.17
782.086	0.11
782.261	-0.03
782.435	0.26
782.61	-0.01
782.784	0.03
782.959	0.27
783.134	-0.06
783.308	-0.24
783.483	-0.06
783.657	0.24
783.832	0.08
784.006	-0.31
784.181	-0
784.355	0.25
784.53	-0.11
784.704	-0.25
784.878	0.18
785.053	0.26
785.227	0.24
785.402	0.53
785.576	0.01
785.75	-0.03
785.925	-0.21
786.099	-0.03
786.273	0.11
786.448	0.13
786.622	0.01
786.796	0.14
786.97	0.12
787.145	0.3
787.319	-0.32
787.493	-0.2
787.667	-0.3
787.841	-0
788.015	0.36
788.19	-0.08
788.364	0.13
788.538	0.18
788.712	0.26
788.886	-0.01
789.06	0.3
789.234	0.32
789.408	-0.26
789.582	-0.14
789.756	0.13
789.93	0.12
790.104	-0.01
790.278	-0.1
790.452	-0.1
790.626	0.24
790.8	-0.07
790.973	0.17
791.147	0.17
791.321	0.24
791.495	0.25
791.669	0.29
791.843	0.16
792.016	0.07
792.19	0.49
792.364	-0.34
792.538	0.59
792.711	0.25
792.885	0.09
793.059	-0.2
793.233	-0.49
793.406	0.36
793.58	0.03
793.754	-0.04
793.927	-0.01
794.101	0.35
794.274	0.1
794.448	0.23
794.622	-0.17
794.795	0.53
794.969	-0.06
795.142	0.22
795.316	0.03
795.489	-0.16
795.663	0.56
795.836	-0.04
796.009	-0.11
796.183	0.5
796.356	0.14
796.53	0.04
796.703	-0.2
796.876	0.48
797.05	0.01
797.223	-0.17
797.396	0.07
797.57	-0.07
797.743	0.2
797.916	0.09
798.09	-0.01
798.263	0.5
798.436	0.1
798.609	0.02
798.782	0.19
798.956	0.06
799.129	0.1
799.302	-0.09
799.475	0.08
799.648	0.11
799.821	-0.1
799.994	0.05
800.167	-0.44
800.34	0.01
800.514	0.06
800.687	-0.34
800.86	-0.02
801.033	0.09
801.206	0.08
801.379	-0.03
801.551	0.2
801.724	0.2
801.897	0.29
802.07	-0.23
802.243	-0.47
802.416	-0.13
802.589	-0.08
802.762	0.07
802.935	0.23
803.107	0.13
803.28	0.11
803.453	0.22
803.626	-0.27
803.798	-0.12
803.971	-0.01
804.144	0.18
804.317	-0.08
804.489	0.37
804.662	0.02
804.835	0.09
805.007	-0.21
805.18	0.48
805.353	0.2
805.525	-0.27
805.698	-0.09
805.87	0.26
806.043	0.36
806.215	-0.3
806.388	-0.15
806.56	0.03
806.733	0.42
806.905	-0.02
807.078	0.03
807.25	0.01
807.423	0.56
807.595	0.22
807.768	0.01
807.94	0.42
808.112	0.49
808.285	-0.03
808.457	0.25
808.629	0.3
808.802	0.26
808.974	0.03
809.146	0.17
809.318	-0.45
809.491	0.06
809.663	0.51
809.835	-0.13
810.007	0.28
810.18	0.08
810.352	-0.28
810.524	0.1
810.696	0.05
810.868	0.51
811.04	-0.07
811.212	-0.16
811.384	0.36
811.556	0.14
811.728	0.15
811.901	0.72
812.073	-0.02
812.245	0.2
812.417	0.4
812.589	-0.57
812.76	0.25
812.932	0.15
813.104	0.53
813.276	-0.05
813.448	0.29
813.62	0.1
813.792	0.19
813.964	0.17
814.136	0.17
814.307	0.15
814.479	0.07
814.651	0.16
814.823	0.72
814.995	0.17
815.166	-0.05
815.338	-0.44
815.51	-0.31
815.681	0.86
815.853	0.26
816.025	-0.18
816.196	0.1
816.368	0.74
816.54	-0.32
816.711	-0.3
816.883	0.34
817.054	0.99
817.226	-0.82
817.398	0.02
817.569	-0.17
817.741	0.37
817.912	-0.14
818.084	0.04
818.255	0.35
818.426	-0.35
818.598	0.17
818.769	0.07
818.941	0.28
819.112	0.57
819.283	0.62
819.455	-0.32
819.626	0.06
819.798	0.4
819.969	-0.1
820.14	-0.29
820.311	0.28
820.483	-0.17
820.654	0.32
820.825	0.14
820.996	-0.06
821.168	-0.3
821.339	-0.13
821.51	-0.3
821.681	0.3
821.852	0.15
822.023	-0.09
822.195	-0.46
822.366	0.59
822.537	0.09
822.708	0.27
822.879	0.03
823.05	0.75
823.221	0.17
823.392	0.31
823.563	0.43
823.734	-0.08
823.905	0.46
824.076	-0.17
824.247	-0.39
824.418	-0.09
824.589	0.86
824.759	0.19
824.93	0.09
825.101	-0.37
825.272	0.8
825.443	0.9
825.614	0.87
825.784	-0.55
825.955	0.73
826.126	0.54
826.297	0.68
826.467	0.91
826.638	0.37
826.809	-0.58
826.98	-0.09
827.15	0.53
827.321	-0.09
827.492	0.8
827.662	-0.15
827.833	0.97
828.003	0.04
828.174	-0.16
828.345	-0.42
828.515	0.53
828.686	0.22
828.856	0.02
829.027	0.14
829.197	0.44
829.368	-0.44
829.538	-0.02
829.709	0.05
829.879	-0.17
830.049	0.44
830.22	-0.25
830.39	-0.04
830.56	0.89
830.731	0.1
830.901	-0.68
831.072	0.01
831.242	0.55
831.412	0.1
831.582	-0.2
831.753	-0.47
831.923	0.69
832.093	0.2
832.263	0.13
832.434	-0.47
832.604	-0.3
832.774	0.65
832.944	0.13
833.114	-0.35
833.284	0.42
833.454	0.14
833.624	-0.15
833.795	-0.1
833.965	0.58
834.135	0.76
834.305	-0.5
834.475	-0.52
834.645	-0.01
834.815	-0.26
834.985	-0.11
835.155	-0.56
835.325	0.54
835.494	0.51
835.664	0.02
835.834	-0.54
836.004	0.72
836.174	0.04
836.344	0.25
836.514	-0.98
836.684	-0.35
836.853	-0.15
837.023	0.37
837.193	-0.05
837.363	1.11
837.532	0.59
837.702	0.04
837.872	-0.82
838.041	0.76
838.211	1.34
838.381	-0.29
838.55	0.02
838.72	1.79
838.89	1.22
839.059	-0.12
839.229	-0.82
839.398	1.84
839.568	0.01
839.738	-0.04
839.907	0.67
840.077	0.07
840.246	-0.09
840.416	-0.48
840.585	-0.58
840.755	1.46
840.924	1
841.093	-0.01
841.263	0.08
841.432	0.17
841.602	-0.41
841.771	0.06
841.94	0.12
842.11	1.82
842.279	2.28
842.448	-0.47
842.617	-0.74
842.787	1.24
842.956	-0.58
843.125	-0.02
843.294	0.64
843.464	1.02
843.633	-0.13
843.802	-0.6
843.971	0.59
844.14	0.99
844.309	0.25
844.479	-1.5
844.648	-1.25
844.817	-0.17
844.986	0.61
845.155	-0.83
845.324	0.3
845.493	0.68
845.662	-1.66
845.831	-0.02
846	0.86
846.169	0.13
846.338	1.12
846.507	0.76
846.676	0.61
846.844	-0.59
847.013	0.8
847.182	0.11
847.351	-0.24
847.52	-0.52
847.689	0.74
847.858	-0.18
848.026	0.02
848.195	0.48
848.364	0.4
848.533	-0.87
848.701	-0.16
848.87	0.97
849.039	1.23
849.207	0.74
849.376	0.34
849.545	0.95
849.713	0.47
849.882	-0.58
850.051	-0.19
850.219	-0.09
850.388	0.54
850.556	-0.53
850.725	-0.34
850.893	0.19
851.062	-0.9
851.23	0.32
851.399	-1.45
851.567	-1.26
851.736	-0.61
851.904	-0.51
852.073	0.79
852.241	1.25
852.41	0.66
852.578	-0.68
852.746	0.7
852.915	1.07
853.083	0.39
853.251	-0.84
853.42	0.67
853.588	0.83
853.756	0.5
853.924	0.52
854.093	0.42
854.261	-0.55
854.429	-1.23
854.597	0.76
854.765	-0.63
854.934	0.37
855.102	1.46
855.27	-0.43
855.438	0.25
855.606	0.92
855.774	1.63
855.942	-1.05
856.11	-1.45
856.278	0.66
856.446	1.44
856.614	-0.63
856.782	1.01
856.95	1.51
857.118	1.55
857.286	0.92
857.454	0.07
857.622	0.93
857.79	0.02
857.958	-1.13
858.126	-0.46
858.294	-3.13
858.462	0.18
858.629	0.12
858.797	-0.27
858.965	0.39
859.133	0.15
859.301	0.32
859.468	1.16
859.636	-0.21
859.804	2.09
859.971	0.44
860.139	-0.76
860.307	1.92
860.474	0.64
860.642	0.5
860.81	0.04
860.977	-1.02
861.145	1.78
861.313	0.12
861.48	0.14
861.648	0.75
861.815	0.31
861.983	-1.12
862.15	-0.2
862.318	0.65
862.485	0.66
862.653	0.18
862.82	-0.11
862.988	1.73
863.155	1.17
863.322	0.1
863.49	-1.43
863.657	-1.08
863.824	1.88
863.992	1.19
864.159	-0.31
864.326	0.56
864.494	-1.19
864.661	2.58
864.828	-1.38
864.996	1.95
865.163	1.29
865.33	-0.57
865.497	-1.08
865.664	-0.75
865.832	-2.37
865.999	-0.83
866.166	0.07
866.333	-0.08
866.5	-0.8
866.667	-0.67
866.834	0.29
867.001	1.42
867.168	-2.57
867.335	0.42
867.502	-2.81
867.669	0.38
867.836	2.5
868.003	-0.07
868.17	1.58
868.337	2.97
868.504	2.46
868.671	-0.95
868.838	-1.4
869.005	0.38
869.172	2.13
869.339	-0.07
869.505	0.58
869.672	0.93
869.839	0.51
870.006	-0.86
870.173	-1.92
870.339	1.62
870.506	3.61
870.673	-0.53
870.84	1.29
871.006	-0.37
871.173	-0.85
871.34	0.82
871.506	-1.58
871.673	1.86
871.839	-1.3
872.006	0.52
872.173	0.35
872.339	-1.01
872.506	2.54
872.672	-0.86
872.839	-2.82
873.005	-0.09
873.172	2.63
873.338	1.49
873.505	0.51
873.671	-0.36
873.838	1.21
874.004	-2.08
874.171	-1.7
874.337	1.09
874.503	1.93
874.67	0.68
874.836	-1.28
875.002	1.13
875.169	0.32
875.335	0.2
875.501	-1.01
875.668	-0.18
875.834	-0.1
876	-0.61
876.166	1.24
876.332	2.02
876.499	3.31
876.665	0.73
876.831	0.45
876.997	4.33
877.163	1.79
877.329	-0.32
877.495	1.97
877.662	1.18
877.828	0.17
877.994	-0.23
878.16	-3.32
878.326	-0.29
878.492	1.58
878.658	0.34
878.824	0.12
878.99	0.92
879.156	0.72
879.322	3
879.487	-0.36
879.653	0.94
879.819	1.22
879.985	-0.12
880.151	0.1
880.317	1.21
880.483	-1.28
880.648	2.29
880.814	-4.32
880.98	0.14
881.146	-1.94
881.312	-0.74
881.477	1.7
881.643	0.82
881.809	1.23
881.974	1.18
882.14	-1.55
882.306	-0.12
882.471	4.29
882.637	-0.2
882.803	1.08
882.968	1.97
883.134	4.95
883.299	-0.79
883.465	-0.51
883.63	1.95
883.796	1.02
883.961	0.08
884.127	-0.2
884.292	-4.22
884.458	-1.34
884.623	-1.34
