Data from Apollo_Calib_20240827__AbsoluteIrradiance__427__06-16-02-189.txt Node

Date: Wed Aug 28 06:16:02 BST 2024
User: biology
Spectrometer: FLMT08252
Trigger mode: 0
Integration Time (sec): 5.000000E-1
Scans to average: 5
Electric dark correction enabled: true
Nonlinearity correction enabled: false
Boxcar width: 0
XAxis mode: Wavelengths
Number of Pixels in Spectrum: 3648
>>>>>Begin Spectral Data<<<<<
179.588	-0
179.809	-0
180.03	-0
180.251	-0
180.473	-0
180.694	0
180.915	0
181.136	-0
181.357	-0
181.578	0
181.799	0
182.02	-0
182.241	0
182.462	-0
182.683	0
182.904	-0
183.125	0
183.346	-0
183.567	0
183.788	0
184.009	0
184.23	0
184.451	0
184.672	0
184.892	0
185.113	0
185.334	0
185.555	0
185.776	0
185.996	0
186.217	0
186.438	0
186.659	0
186.879	0
187.1	0
187.321	0
187.541	0
187.762	0
187.983	0
188.203	0
188.424	0
188.644	0
188.865	0
189.086	0
189.306	0
189.527	0
189.747	0
189.968	0
190.188	0
190.409	0
190.629	0
190.849	0
191.07	0
191.29	0
191.511	0
191.731	0
191.951	0
192.172	0
192.392	0
192.612	0
192.833	0
193.053	0
193.273	0
193.493	0
193.714	0
193.934	0
194.154	0
194.374	0
194.594	0
194.815	0
195.035	0
195.255	0
195.475	0
195.695	0
195.915	0
196.135	0
196.355	0
196.575	0
196.795	0
197.015	0
197.235	0
197.455	0
197.675	0
197.895	0
198.115	0
198.335	0
198.555	0
198.775	0
198.995	0
199.214	0
199.434	0
199.654	0
199.874	0
200.094	2.44
200.313	0.78
200.533	1.03
200.753	0.29
200.973	2.08
201.192	1.69
201.412	0.5
201.632	0.68
201.851	1.74
202.071	0.28
202.291	0.59
202.51	0.22
202.73	1.63
202.95	0.64
203.169	0.18
203.389	1.04
203.608	1.2
203.828	0.26
204.047	0.37
204.267	1.22
204.486	0.86
204.706	0.68
204.925	0.57
205.145	0.56
205.364	0.95
205.583	1.41
205.803	0.3
206.022	0.19
206.242	0.6
206.461	0.57
206.68	0.26
206.9	0.61
207.119	1.05
207.338	1.36
207.557	0.39
207.777	0.68
207.996	0.37
208.215	1
208.434	-0.01
208.654	-0.04
208.873	0.61
209.092	1
209.311	0.41
209.53	0.38
209.749	0.86
209.968	0.3
210.187	0.42
210.407	0.15
210.626	0.37
210.845	0.91
211.064	0.52
211.283	0.35
211.502	0.63
211.721	0.32
211.94	0.37
212.159	0.74
212.377	0.75
212.596	0.62
212.815	0.46
213.034	0.52
213.253	0.66
213.472	0.53
213.691	0.42
213.91	0.1
214.128	0.24
214.347	0.73
214.566	0
214.785	0.13
215.003	0.6
215.222	0.62
215.441	0.4
215.66	0.09
215.878	0.33
216.097	0.53
216.316	0.14
216.534	0.35
216.753	0.26
216.972	0.17
217.19	0.41
217.409	0.11
217.627	-0.01
217.846	0.31
218.064	0.22
218.283	0.03
218.501	0.75
218.72	0.54
218.938	0.15
219.157	0.12
219.375	0.46
219.594	0.45
219.812	0.2
220.031	0.17
220.249	0.69
220.467	0.61
220.686	0.33
220.904	0.22
221.122	0.21
221.341	0.6
221.559	0.41
221.777	0.07
221.995	0.27
222.214	0.4
222.432	0.13
222.65	0.38
222.868	0.38
223.086	0.25
223.305	0.34
223.523	0.14
223.741	0.64
223.959	0.14
224.177	0.14
224.395	0.18
224.613	0.37
224.831	0.36
225.049	0.02
225.267	0.15
225.485	0.32
225.703	0.13
225.921	0.2
226.139	0.14
226.357	0.29
226.575	0.37
226.793	0.22
227.011	0.66
227.229	0.22
227.447	0.35
227.665	0.21
227.883	0.12
228.1	0.26
228.318	0.39
228.536	0.01
228.754	0.15
228.972	0.27
229.189	0.36
229.407	0.25
229.625	0.07
229.843	0.4
230.06	0.28
230.278	0.22
230.496	0.2
230.713	0.32
230.931	0.45
231.149	0.12
231.366	-0.02
231.584	0.17
231.801	0.47
232.019	0.2
232.236	-0.05
232.454	0.11
232.671	0.33
232.889	0.27
233.106	0.03
233.324	0.22
233.541	0.21
233.759	0.22
233.976	0.11
234.194	0.21
234.411	0.19
234.628	0.14
234.846	0.31
235.063	0.25
235.28	0.22
235.498	0.14
235.715	0.13
235.932	0.26
236.149	0.21
236.367	0.11
236.584	0.22
236.801	0.24
237.018	0.34
237.236	0.25
237.453	0.11
237.67	0.17
237.887	0.14
238.104	0.12
238.321	0.15
238.538	0.06
238.755	0.3
238.973	0.02
239.19	0.16
239.407	0.2
239.624	0.29
239.841	0.1
240.058	0.08
240.275	0.23
240.492	0.19
240.709	0.16
240.925	0.12
241.142	0.17
241.359	0.07
241.576	0.16
241.793	0.08
242.01	0.13
242.227	0.35
242.444	0.26
242.66	0.29
242.877	0.19
243.094	0.12
243.311	0.21
243.527	0.18
243.744	0.13
243.961	0.17
244.178	0.12
244.394	0.17
244.611	0.36
244.828	0.41
245.044	0.12
245.261	0.18
245.477	0.15
245.694	0.32
245.911	0.1
246.127	0.2
246.344	0.24
246.56	0.32
246.777	0.11
246.993	0.18
247.21	0.18
247.426	0.24
247.643	0.13
247.859	0.05
248.076	0.14
248.292	0.25
248.508	0.08
248.725	0.2
248.941	0.21
249.157	0.26
249.374	0.07
249.59	0.07
249.806	0.13
250.023	0.31
250.239	0.13
250.455	0.09
250.671	0.12
250.888	0.24
251.104	0.18
251.32	0.1
251.536	0.16
251.752	0.14
251.969	0.18
252.185	0.17
252.401	0.32
252.617	0.16
252.833	0.09
253.049	0.2
253.265	0.17
253.481	0.16
253.697	0.05
253.913	0.15
254.129	0.15
254.345	0.18
254.561	0.14
254.777	0.08
254.993	0.11
255.209	0.19
255.425	0.12
255.641	0.17
255.857	0.23
256.073	0.16
256.288	-0.01
256.504	0.14
256.72	0.26
256.936	0.2
257.152	0.14
257.367	0.13
257.583	0.17
257.799	0.25
258.015	0.17
258.23	0.07
258.446	0.28
258.662	0.15
258.877	0.1
259.093	0.07
259.309	0.2
259.524	0.18
259.74	0.1
259.955	0.02
260.171	0.16
260.387	0.16
260.602	0.22
260.818	0.17
261.033	0.08
261.249	0.04
261.464	0.11
261.68	-0.01
261.895	0.09
262.11	0.27
262.326	0.14
262.541	-0.04
262.757	0.26
262.972	0.09
263.187	0.13
263.403	0.12
263.618	0.22
263.833	0.16
264.049	0.07
264.264	0.11
264.479	0.19
264.694	0.26
264.91	0.05
265.125	0.19
265.34	0.17
265.555	0.3
265.77	0.16
265.986	0.09
266.201	0.16
266.416	0.22
266.631	0.07
266.846	0.16
267.061	0.18
267.276	0.19
267.491	0.06
267.706	0.12
267.921	0.11
268.136	0.18
268.351	0.15
268.566	0.06
268.781	0.21
268.996	0.16
269.211	0.11
269.426	0.15
269.641	0.12
269.856	0.22
270.071	0.06
270.285	-0.01
270.5	0.25
270.715	0.16
270.93	0.15
271.145	0.16
271.359	0.19
271.574	0.11
271.789	0.12
272.004	0.03
272.218	0.15
272.433	0.14
272.648	0.06
272.862	0.2
273.077	0.1
273.292	0.13
273.506	0.11
273.721	0.11
273.936	0.13
274.15	0.18
274.365	0.02
274.579	0.18
274.794	0.2
275.008	0.17
275.223	0.09
275.437	0.17
275.652	0.17
275.866	0.17
276.081	0.15
276.295	0.19
276.509	0.11
276.724	0.11
276.938	0.11
277.153	0.17
277.367	0.12
277.581	0.07
277.796	0.14
278.01	0.02
278.224	0.15
278.438	0.26
278.653	0.06
278.867	0.09
279.081	0.16
279.295	0.1
279.51	0.16
279.724	0.07
279.938	0.19
280.152	0.2
280.366	0.07
280.58	0.07
280.794	0.2
281.008	0.14
281.222	0.15
281.437	0.26
281.651	0.16
281.865	0.21
282.079	0.1
282.293	0.01
282.507	0.07
282.721	0.14
282.935	0.09
283.148	0.08
283.362	0.15
283.576	0.05
283.79	0.14
284.004	0.11
284.218	0.19
284.432	0.09
284.646	0.13
284.859	0.07
285.073	0.1
285.287	0.12
285.501	0.1
285.714	0.12
285.928	0.11
286.142	0.11
286.356	0.1
286.569	0.09
286.783	0.18
286.997	0.19
287.21	0.12
287.424	0.15
287.637	0.1
287.851	0.1
288.065	0.16
288.278	0.1
288.492	0.13
288.705	0.12
288.919	0.18
289.132	0.1
289.346	0.25
289.559	0.04
289.773	0.08
289.986	0.13
290.2	0.12
290.413	0.17
290.626	0.08
290.84	0.09
291.053	0.08
291.267	0.19
291.48	0.15
291.693	0.18
291.906	0.08
292.12	0.1
292.333	0.04
292.546	0.1
292.76	0.18
292.973	0.19
293.186	0.13
293.399	0.12
293.612	0.14
293.826	0.11
294.039	0.11
294.252	0.11
294.465	0.12
294.678	0.17
294.891	0.1
295.104	0.06
295.317	0.1
295.53	0.11
295.743	0.12
295.956	0.1
296.169	0.12
296.382	0.11
296.595	0.09
296.808	0.05
297.021	0.14
297.234	0.15
297.447	0.06
297.66	0.12
297.873	0.2
298.086	0.13
298.299	0.06
298.511	0.02
298.724	0.06
298.937	0.03
299.15	0.06
299.363	0.15
299.575	0.11
299.788	0.13
300.001	0.08
300.213	0.05
300.426	0.05
300.639	0.07
300.852	0.07
301.064	0.12
301.277	0.13
301.489	0.12
301.702	0.15
301.915	0.12
302.127	0.08
302.34	0.12
302.552	0.13
302.765	0.08
302.977	0.14
303.19	0.07
303.402	0.06
303.615	0.1
303.827	0.05
304.04	0.1
304.252	0.15
304.464	0.08
304.677	0.19
304.889	0.16
305.102	0.08
305.314	0.07
305.526	0.19
305.739	0.13
305.951	0.05
306.163	0.1
306.375	0.18
306.588	0.06
306.8	0.09
307.012	0.04
307.224	0.11
307.436	0.15
307.649	0.01
307.861	0.11
308.073	0.15
308.285	0.08
308.497	0.07
308.709	0.12
308.921	0.13
309.133	0.13
309.346	0.1
309.558	0.07
309.77	0.12
309.982	0.15
310.194	0.12
310.406	0.02
310.617	0.19
310.829	0.1
311.041	0.15
311.253	0.03
311.465	0.09
311.677	0.09
311.889	0.13
312.101	0.11
312.313	0.14
312.524	0.16
312.736	0.04
312.948	0.07
313.16	0.16
313.372	0.11
313.583	0.09
313.795	0.14
314.007	0.06
314.218	0.14
314.43	0.08
314.642	0.11
314.853	0.07
315.065	0.11
315.277	0.1
315.488	0.09
315.7	0.11
315.912	0.15
316.123	0.09
316.335	0.1
316.546	0.19
316.758	0.06
316.969	0.06
317.181	0.11
317.392	0.07
317.604	0.11
317.815	0.08
318.026	0.09
318.238	0.1
318.449	0.11
318.661	0.07
318.872	0.06
319.083	0.06
319.295	0.07
319.506	0.08
319.717	0.14
319.929	0.18
320.14	0.13
320.351	0.12
320.562	0.05
320.774	0.09
320.985	0.09
321.196	0.05
321.407	0.02
321.618	0.15
321.829	0.11
322.041	0.12
322.252	0.1
322.463	0.11
322.674	0.11
322.885	0.04
323.096	0.1
323.307	0.09
323.518	0.09
323.729	0.08
323.94	0.08
324.151	0.06
324.362	0.1
324.573	0.07
324.784	0.07
324.995	0.16
325.206	0.13
325.417	0.07
325.628	0.09
325.838	0.09
326.049	0.1
326.26	0.12
326.471	0.07
326.682	0.1
326.892	0.09
327.103	0.01
327.314	0.08
327.525	0.12
327.735	0.08
327.946	0.11
328.157	0.07
328.368	0.15
328.578	0.09
328.789	0.09
328.999	0.11
329.21	0.08
329.421	0.13
329.631	0.06
329.842	0.09
330.052	0.14
330.263	0.13
330.473	0.11
330.684	0.1
330.894	0.07
331.105	0.12
331.315	0.08
331.526	0.03
331.736	0.17
331.947	0.15
332.157	0.12
332.367	0.08
332.578	0.11
332.788	0.14
332.999	0.11
333.209	0.09
333.419	0.02
333.629	0.08
333.84	0.15
334.05	0.09
334.26	0.14
334.47	0.09
334.681	0.15
334.891	0.09
335.101	0.09
335.311	0.19
335.521	0.14
335.732	0.01
335.942	0.14
336.152	0.15
336.362	0.09
336.572	0.12
336.782	0.12
336.992	0.05
337.202	0.07
337.412	0.08
337.622	0.07
337.832	0.1
338.042	0.09
338.252	0.09
338.462	0.07
338.672	0.09
338.882	0.1
339.092	0.04
339.302	0.11
339.511	0.12
339.721	0.04
339.931	0.07
340.141	0.14
340.351	0.13
340.561	0.07
340.77	0.11
340.98	0.09
341.19	0.12
341.4	0.08
341.609	0.03
341.819	0.07
342.029	0.08
342.238	0.15
342.448	0.07
342.658	0.14
342.867	0.1
343.077	0.06
343.286	0.09
343.496	0.12
343.706	0.18
343.915	0.05
344.125	0.06
344.334	0.12
344.544	0.02
344.753	0.06
344.963	0.11
345.172	0.09
345.381	0.11
345.591	0.09
345.8	0.1
346.01	0.14
346.219	0.11
346.428	-0.01
346.638	0.09
346.847	0.08
347.056	0.16
347.266	0.07
347.475	0.12
347.684	0.12
347.893	0.13
348.103	0.11
348.312	0.07
348.521	0.07
348.73	0.14
348.94	0.09
349.149	0.08
349.358	0.1
349.567	0.07
349.776	0.04
349.985	0.09
350.194	0.13
350.403	0.11
350.612	0.06
350.821	0.08
351.03	0.1
351.239	0.04
351.448	0.03
351.657	0.07
351.866	0.17
352.075	0.07
352.284	0.14
352.493	0.08
352.702	0.14
352.911	0.09
353.12	0.12
353.329	0.07
353.538	0.13
353.746	0.11
353.955	0.04
354.164	0.1
354.373	0.1
354.582	0.12
354.79	0.08
354.999	0.14
355.208	0.1
355.416	0.16
355.625	0.05
355.834	0.05
356.042	0.09
356.251	0.06
356.46	0.05
356.668	0.12
356.877	0.18
357.085	0.1
357.294	0.04
357.503	0.11
357.711	0.08
357.92	0.19
358.128	0.1
358.337	0.11
358.545	0.07
358.754	0.12
358.962	0.14
359.17	0.07
359.379	0.09
359.587	0.1
359.796	0.09
360.004	0.17
360.212	0.13
360.421	0.16
360.629	0.09
360.837	0.1
361.046	0.16
361.254	0.19
361.462	0.1
361.67	0.06
361.879	0.1
362.087	0.15
362.295	0.1
362.503	0.06
362.711	0.08
362.92	0.08
363.128	0.07
363.336	0.05
363.544	0.07
363.752	0.09
363.96	0.08
364.168	0.09
364.376	0.12
364.584	0.14
364.792	0.14
365	0.15
365.208	0.11
365.416	0.14
365.624	0.14
365.832	0.03
366.04	0.16
366.248	0.11
366.456	0.13
366.664	0.11
366.872	0.09
367.079	0.08
367.287	0.12
367.495	0.1
367.703	0.07
367.911	0.09
368.118	0.11
368.326	0.1
368.534	0.04
368.742	0.17
368.949	0.05
369.157	0.06
369.365	0.12
369.572	0.1
369.78	0.05
369.988	0.11
370.195	0.15
370.403	0.09
370.61	0.11
370.818	0.12
371.026	0.16
371.233	0.09
371.441	0.09
371.648	0.04
371.856	0.12
372.063	0.1
372.271	0.05
372.478	0.07
372.685	0.09
372.893	0.16
373.1	0.1
373.308	0.1
373.515	0.15
373.722	0.16
373.93	0.07
374.137	0.1
374.344	0.19
374.552	0.1
374.759	0.13
374.966	0.11
375.173	0.1
375.381	0.1
375.588	0.09
375.795	0.08
376.002	0.07
376.209	0.05
376.417	0.09
376.624	0.11
376.831	0.14
377.038	0.06
377.245	0.06
377.452	0.09
377.659	0.08
377.866	0.05
378.073	0.09
378.28	0.11
378.487	0.14
378.694	0.12
378.901	0.11
379.108	0.09
379.315	0.13
379.522	0.17
379.729	0.1
379.936	0.14
380.143	0.12
380.35	0.13
380.557	0.1
380.763	0.13
380.97	0.09
381.177	0.1
381.384	0.13
381.591	0.05
381.797	0.07
382.004	0.13
382.211	0.18
382.418	0.14
382.624	0.13
382.831	0.11
383.038	0.1
383.244	0.11
383.451	0.09
383.658	0.11
383.864	0.09
384.071	0.05
384.277	0.15
384.484	0.11
384.69	0.14
384.897	0.09
385.103	0.1
385.31	0.08
385.516	0.09
385.723	0.12
385.929	0.11
386.136	0.1
386.342	0.1
386.549	0.09
386.755	0.14
386.961	0.1
387.168	0.12
387.374	0.1
387.58	0.13
387.787	0.11
387.993	0.12
388.199	0.07
388.406	0.09
388.612	0.08
388.818	0.07
389.024	0.09
389.231	0.1
389.437	0.18
389.643	0.14
389.849	0.12
390.055	0.12
390.261	0.12
390.467	0.14
390.674	0.07
390.88	0.11
391.086	0.2
391.292	0.08
391.498	0.13
391.704	0.12
391.91	0.11
392.116	0.1
392.322	0.03
392.528	0.12
392.734	0.1
392.94	0.1
393.146	0.11
393.352	0.1
393.557	0.12
393.763	0.11
393.969	0.12
394.175	0.12
394.381	0.09
394.587	0.07
394.792	0.11
394.998	0.18
395.204	0.15
395.41	0.08
395.615	0.13
395.821	0.13
396.027	0.12
396.233	0.12
396.438	0.09
396.644	0.17
396.85	0.15
397.055	0.13
397.261	0.13
397.466	0.12
397.672	0.08
397.878	0.16
398.083	0.14
398.289	0.09
398.494	0.15
398.7	0.16
398.905	0.05
399.111	0.14
399.316	0.07
399.522	0.13
399.727	0.08
399.932	0.1
400.138	0.08
400.343	0.16
400.549	0.13
400.754	0.14
400.959	0.1
401.165	0.09
401.37	0.13
401.575	0.19
401.78	0.14
401.986	0.08
402.191	0.08
402.396	0.08
402.601	0.12
402.807	0.15
403.012	0.1
403.217	0.14
403.422	0.09
403.627	0.09
403.832	0.1
404.037	0.18
404.243	0.14
404.448	0.09
404.653	0.14
404.858	0.12
405.063	0.18
405.268	0.1
405.473	0.12
405.678	0.09
405.883	0.22
406.088	0.15
406.293	0.08
406.498	0.12
406.703	0.17
406.907	0.12
407.112	0.12
407.317	0.16
407.522	0.21
407.727	0.11
407.932	0.14
408.136	0.23
408.341	0.11
408.546	0.15
408.751	0.13
408.956	0.08
409.16	0.2
409.365	0.15
409.57	0.15
409.774	0.15
409.979	0.16
410.184	0.18
410.388	0.08
410.593	0.19
410.798	0.17
411.002	0.15
411.207	0.18
411.411	0.18
411.616	0.09
411.82	0.12
412.025	0.2
412.229	0.09
412.434	0.17
412.638	0.14
412.843	0.16
413.047	0.16
413.252	0.09
413.456	0.15
413.66	0.21
413.865	0.1
414.069	0.21
414.273	0.1
414.478	0.08
414.682	0.1
414.886	0.13
415.091	0.1
415.295	0.07
415.499	0.21
415.703	0.12
415.908	0.19
416.112	0.07
416.316	0.16
416.52	0.14
416.724	0.07
416.929	0.07
417.133	0.24
417.337	0.14
417.541	0.12
417.745	0.13
417.949	0.16
418.153	0.14
418.357	0.13
418.561	0.21
418.765	0.14
418.969	0.26
419.173	0.19
419.377	0.12
419.581	0.25
419.785	0.11
419.989	0.12
420.193	0.13
420.397	0.14
420.601	0.24
420.804	0.16
421.008	0.15
421.212	0.16
421.416	0.17
421.62	0.14
421.823	0.13
422.027	0.25
422.231	0.18
422.435	0.12
422.638	0.2
422.842	0.14
423.046	0.14
423.249	0.2
423.453	0.15
423.657	0.17
423.86	0.18
424.064	0.16
424.268	0.24
424.471	0.17
424.675	0.22
424.878	0.22
425.082	0.13
425.285	0.17
425.489	0.18
425.692	0.16
425.896	0.12
426.099	0.16
426.303	0.13
426.506	0.07
426.71	0.19
426.913	0.2
427.116	0.22
427.32	0.19
427.523	0.14
427.726	0.25
427.93	0.13
428.133	0.16
428.336	0.09
428.54	0.14
428.743	0.2
428.946	0.2
429.149	0.17
429.353	0.17
429.556	0.17
429.759	0.17
429.962	0.15
430.165	0.16
430.368	0.16
430.571	0.16
430.775	0.18
430.978	0.16
431.181	0.21
431.384	0.22
431.587	0.14
431.79	0.09
431.993	0.2
432.196	0.13
432.399	0.11
432.602	0.25
432.805	0.17
433.008	0.2
433.211	0.12
433.414	0.19
433.616	0.22
433.819	0.21
434.022	0.07
434.225	0.25
434.428	0.21
434.631	0.29
434.833	0.2
435.036	0.2
435.239	0.26
435.442	0.19
435.645	0.15
435.847	0.2
436.05	0.22
436.253	0.17
436.455	0.14
436.658	0.15
436.861	0.25
437.063	0.22
437.266	0.19
437.468	0.19
437.671	0.3
437.874	0.2
438.076	0.12
438.279	0.11
438.481	0.19
438.684	0.18
438.886	0.21
439.089	0.11
439.291	0.23
439.494	0.22
439.696	0.16
439.899	0.19
440.101	0.19
440.303	0.16
440.506	0.24
440.708	0.19
440.91	0.2
441.113	0.17
441.315	0.23
441.517	0.11
441.72	0.2
441.922	0.19
442.124	0.17
442.326	0.23
442.529	0.27
442.731	0.16
442.933	0.25
443.135	0.21
443.337	0.14
443.539	0.16
443.742	0.18
443.944	0.24
444.146	0.17
444.348	0.2
444.55	0.17
444.752	0.11
444.954	0.15
445.156	0.22
445.358	0.16
445.56	0.29
445.762	0.2
445.964	0.14
446.166	0.2
446.368	0.17
446.57	0.26
446.772	0.14
446.974	0.16
447.175	0.21
447.377	0.17
447.579	0.19
447.781	0.14
447.983	0.25
448.184	0.17
448.386	0.21
448.588	0.13
448.79	0.23
448.991	0.18
449.193	0.2
449.395	0.19
449.597	0.26
449.798	0.24
450	0.25
450.202	0.2
450.403	0.24
450.605	0.25
450.806	0.22
451.008	0.14
451.21	0.24
451.411	0.2
451.613	0.21
451.814	0.21
452.016	0.23
452.217	0.22
452.419	0.23
452.62	0.21
452.821	0.15
453.023	0.35
453.224	0.28
453.426	0.19
453.627	0.2
453.828	0.27
454.03	0.26
454.231	0.29
454.432	0.2
454.634	0.28
454.835	0.23
455.036	0.18
455.238	0.22
455.439	0.33
455.64	0.21
455.841	0.2
456.042	0.33
456.244	0.27
456.445	0.21
456.646	0.14
456.847	0.21
457.048	0.29
457.249	0.27
457.45	0.46
457.651	0.17
457.852	0.28
458.054	0.22
458.255	0.26
458.456	0.25
458.657	0.3
458.858	0.25
459.058	0.19
459.259	0.28
459.46	0.26
459.661	0.24
459.862	0.41
460.063	0.25
460.264	0.32
460.465	0.23
460.666	0.38
460.866	0.25
461.067	0.26
461.268	0.25
461.469	0.24
461.67	0.21
461.87	0.25
462.071	0.25
462.272	0.25
462.473	0.26
462.673	0.3
462.874	0.25
463.075	0.25
463.275	0.23
463.476	0.27
463.676	0.29
463.877	0.32
464.078	0.3
464.278	0.36
464.479	0.32
464.679	0.28
464.88	0.32
465.08	0.44
465.281	0.29
465.481	0.34
465.682	0.3
465.882	0.31
466.083	0.32
466.283	0.3
466.483	0.29
466.684	0.3
466.884	0.24
467.085	0.26
467.285	0.37
467.485	0.28
467.686	0.32
467.886	0.29
468.086	0.32
468.286	0.29
468.487	0.41
468.687	0.31
468.887	0.32
469.087	0.36
469.287	0.36
469.488	0.27
469.688	0.43
469.888	0.38
470.088	0.43
470.288	0.42
470.488	0.4
470.688	0.35
470.888	0.35
471.088	0.32
471.288	0.43
471.488	0.37
471.688	0.46
471.888	0.35
472.088	0.47
472.288	0.42
472.488	0.37
472.688	0.39
472.888	0.42
473.088	0.47
473.288	0.48
473.488	0.44
473.688	0.51
473.887	0.48
474.087	0.45
474.287	0.47
474.487	0.47
474.687	0.56
474.886	0.45
475.086	0.5
475.286	0.52
475.486	0.54
475.685	0.5
475.885	0.52
476.085	0.55
476.284	0.59
476.484	0.52
476.684	0.6
476.883	0.65
477.083	0.6
477.282	0.57
477.482	0.64
477.681	0.62
477.881	0.6
478.08	0.62
478.28	0.6
478.479	0.69
478.679	0.71
478.878	0.66
479.078	0.66
479.277	0.72
479.477	0.69
479.676	0.73
479.875	0.75
480.075	0.71
480.274	0.77
480.473	0.79
480.673	0.75
480.872	0.84
481.071	0.83
481.271	0.88
481.47	0.84
481.669	0.9
481.868	0.85
482.067	0.89
482.267	0.86
482.466	0.9
482.665	0.91
482.864	0.95
483.063	0.96
483.262	1
483.461	1.07
483.661	1.12
483.86	1.04
484.059	1.06
484.258	1.14
484.457	1.15
484.656	1.13
484.855	1.25
485.054	1.14
485.253	1.21
485.452	1.18
485.651	1.32
485.849	1.28
486.048	1.26
486.247	1.3
486.446	1.39
486.645	1.35
486.844	1.39
487.043	1.44
487.241	1.48
487.44	1.45
487.639	1.54
487.838	1.56
488.037	1.57
488.235	1.66
488.434	1.62
488.633	1.58
488.831	1.77
489.03	1.75
489.229	1.81
489.427	1.81
489.626	1.86
489.825	1.89
490.023	1.89
490.222	1.92
490.42	1.97
490.619	2.08
490.817	2.06
491.016	2.06
491.214	2.16
491.413	2.17
491.611	2.14
491.81	2.23
492.008	2.32
492.207	2.36
492.405	2.37
492.604	2.38
492.802	2.5
493	2.53
493.199	2.6
493.397	2.66
493.595	2.73
493.794	2.72
493.992	2.87
494.19	2.84
494.388	2.94
494.587	2.92
494.785	2.92
494.983	2.97
495.181	3.11
495.379	3.15
495.578	3.25
495.776	3.29
495.974	3.29
496.172	3.36
496.37	3.59
496.568	3.6
496.766	3.57
496.964	3.75
497.162	3.8
497.36	3.85
497.558	3.93
497.756	4.07
497.954	4.04
498.152	4.21
498.35	4.3
498.548	4.24
498.746	4.35
498.944	4.38
499.142	4.53
499.34	4.6
499.538	4.8
499.736	4.71
499.933	4.84
500.131	4.9
500.329	5.14
500.527	5.14
500.725	5.33
500.922	5.39
501.12	5.46
501.318	5.68
501.516	5.72
501.713	5.83
501.911	5.84
502.109	5.92
502.306	6.18
502.504	6.08
502.701	6.28
502.899	6.4
503.097	6.7
503.294	6.56
503.492	6.83
503.689	6.94
503.887	6.96
504.084	7.12
504.282	7.2
504.479	7.32
504.677	7.58
504.874	7.64
505.072	7.52
505.269	7.97
505.466	8.03
505.664	8.16
505.861	8.15
506.059	8.37
506.256	8.42
506.453	8.66
506.651	8.84
506.848	8.98
507.045	8.97
507.242	9.1
507.44	9.28
507.637	9.5
507.834	9.46
508.031	9.78
508.229	9.82
508.426	9.79
508.623	10.17
508.82	10.32
509.017	10.37
509.214	10.39
509.411	10.71
509.608	10.74
509.805	11.06
510.003	11.04
510.2	11.22
510.397	11.54
510.594	11.45
510.791	11.65
510.988	11.75
511.184	11.7
511.381	11.6
511.578	11.99
511.775	12.35
511.972	12.27
512.169	12.47
512.366	12.56
512.563	12.86
512.76	13.07
512.956	13.04
513.153	13.03
513.35	13.02
513.547	13.05
513.744	13.42
513.94	13.53
514.137	13.68
514.334	13.66
514.53	13.74
514.727	14.31
514.924	13.98
515.12	14.15
515.317	14.24
515.514	14.05
515.71	14.07
515.907	14.62
516.103	14.65
516.3	14.41
516.497	14.6
516.693	14.72
516.89	14.8
517.086	14.83
517.283	14.83
517.479	14.58
517.676	15.06
517.872	15.2
518.068	15.08
518.265	15.05
518.461	14.9
518.658	15.37
518.854	15.11
519.05	15.35
519.247	15.49
519.443	15.23
519.639	15.43
519.836	15.15
520.032	15.04
520.228	15.36
520.424	15
520.621	15.25
520.817	15.29
521.013	15.14
521.209	15.45
521.405	15.29
521.601	15.19
521.798	15.02
521.994	14.87
522.19	14.76
522.386	14.9
522.582	14.98
522.778	15.04
522.974	14.78
523.17	14.77
523.366	14.52
523.562	14.65
523.758	14.59
523.954	14.2
524.15	14.43
524.346	14.38
524.542	14.34
524.738	14.19
524.934	14.34
525.129	14.14
525.325	13.83
525.521	13.78
525.717	14
525.913	13.55
526.109	13.58
526.304	13.63
526.5	13.5
526.696	13.4
526.892	13.15
527.087	13.43
527.283	13.21
527.479	12.93
527.674	12.53
527.87	12.8
528.066	12.59
528.261	12.53
528.457	12.19
528.653	12.45
528.848	12.3
529.044	12.24
529.239	11.89
529.435	11.85
529.63	11.55
529.826	11.48
530.021	11.43
530.217	11.41
530.412	11.19
530.608	11.18
530.803	11.03
530.999	10.75
531.194	10.93
531.389	10.75
531.585	10.69
531.78	10.75
531.975	10.39
532.171	10.41
532.366	10.14
532.561	10.2
532.757	10.05
532.952	10.05
533.147	9.68
533.342	9.73
533.538	9.56
533.733	9.67
533.928	9.16
534.123	9.33
534.318	9.29
534.513	9.05
534.709	9.13
534.904	8.94
535.099	8.93
535.294	8.86
535.489	8.74
535.684	8.54
535.879	8.42
536.074	8.41
536.269	8.32
536.464	8.27
536.659	8.06
536.854	8.04
537.049	8.06
537.244	7.82
537.439	7.79
537.634	7.67
537.828	7.67
538.023	7.52
538.218	7.42
538.413	7.33
538.608	7.31
538.803	7.18
538.997	7.09
539.192	7.03
539.387	6.94
539.582	6.88
539.776	6.78
539.971	6.83
540.166	6.71
540.36	6.56
540.555	6.66
540.75	6.53
540.944	6.43
541.139	6.37
541.334	6.27
541.528	6.25
541.723	6.17
541.917	6.12
542.112	5.94
542.306	5.77
542.501	5.78
542.695	5.75
542.89	5.66
543.084	5.67
543.279	5.6
543.473	5.6
543.668	5.51
543.862	5.36
544.056	5.34
544.251	5.35
544.445	5.32
544.64	5.27
544.834	4.98
545.028	4.85
545.222	5.05
545.417	5.07
545.611	4.91
545.805	4.83
546	4.63
546.194	4.76
546.388	4.65
546.582	4.58
546.776	4.56
546.97	4.46
547.165	4.43
547.359	4.36
547.553	4.29
547.747	4.21
547.941	4.32
548.135	4.17
548.329	4.15
548.523	4.04
548.717	4.03
548.911	3.91
549.105	3.87
549.299	3.89
549.493	3.85
549.687	3.75
549.881	3.79
550.075	3.69
550.269	3.53
550.463	3.6
550.657	3.52
550.85	3.46
551.044	3.39
551.238	3.42
551.432	3.34
551.626	3.31
551.82	3.32
552.013	3.15
552.207	3.22
552.401	3.19
552.594	3.11
552.788	3.03
552.982	2.99
553.176	3
553.369	3.04
553.563	2.93
553.756	2.85
553.95	2.82
554.144	2.81
554.337	2.83
554.531	2.68
554.724	2.72
554.918	2.64
555.111	2.61
555.305	2.56
555.498	2.57
555.692	2.54
555.885	2.48
556.079	2.46
556.272	2.38
556.466	2.4
556.659	2.35
556.852	2.35
557.046	2.29
557.239	2.23
557.432	2.19
557.626	2.2
557.819	2.2
558.012	2.18
558.206	2.21
558.399	2.07
558.592	2.04
558.785	2
558.979	2.02
559.172	1.96
559.365	1.97
559.558	1.92
559.751	1.91
559.944	1.9
560.138	1.86
560.331	1.82
560.524	1.84
560.717	1.77
560.91	1.76
561.103	1.78
561.296	1.7
561.489	1.73
561.682	1.73
561.875	1.7
562.068	1.68
562.261	1.61
562.454	1.65
562.647	1.55
562.84	1.57
563.032	1.55
563.225	1.53
563.418	1.49
563.611	1.49
563.804	1.45
563.997	1.41
564.19	1.36
564.382	1.44
564.575	1.36
564.768	1.38
564.961	1.34
565.153	1.3
565.346	1.32
565.539	1.35
565.731	1.29
565.924	1.3
566.117	1.29
566.309	1.24
566.502	1.19
566.695	1.18
566.887	1.2
567.08	1.15
567.272	1.16
567.465	1.1
567.657	1.12
567.85	1.12
568.042	1.12
568.235	1.14
568.427	1.07
568.62	1.06
568.812	1.08
569.005	1.05
569.197	1.01
569.389	1.04
569.582	1.03
569.774	1.02
569.966	0.95
570.159	0.96
570.351	0.95
570.543	0.95
570.736	0.94
570.928	0.89
571.12	0.91
571.312	0.85
571.505	0.84
571.697	0.92
571.889	0.85
572.081	0.85
572.273	0.82
572.465	0.89
572.658	0.81
572.85	0.84
573.042	0.78
573.234	0.78
573.426	0.8
573.618	0.76
573.81	0.78
574.002	0.75
574.194	0.78
574.386	0.71
574.578	0.64
574.77	0.72
574.962	0.71
575.154	0.64
575.346	0.67
575.538	0.68
575.729	0.64
575.921	0.67
576.113	0.65
576.305	0.68
576.497	0.62
576.689	0.62
576.88	0.62
577.072	0.64
577.264	0.56
577.456	0.61
577.647	0.52
577.839	0.58
578.031	0.6
578.223	0.53
578.414	0.51
578.606	0.58
578.798	0.54
578.989	0.53
579.181	0.54
579.372	0.53
579.564	0.5
579.755	0.51
579.947	0.5
580.139	0.54
580.33	0.46
580.522	0.47
580.713	0.44
580.905	0.45
581.096	0.5
581.287	0.46
581.479	0.47
581.67	0.49
581.862	0.45
582.053	0.44
582.244	0.39
582.436	0.45
582.627	0.42
582.818	0.4
583.01	0.39
583.201	0.44
583.392	0.43
583.583	0.42
583.775	0.37
583.966	0.37
584.157	0.42
584.348	0.39
584.54	0.34
584.731	0.4
584.922	0.38
585.113	0.35
585.304	0.41
585.495	0.41
585.686	0.39
585.877	0.38
586.068	0.37
586.259	0.39
586.45	0.36
586.641	0.32
586.832	0.29
587.023	0.37
587.214	0.33
587.405	0.35
587.596	0.3
587.787	0.39
587.978	0.35
588.169	0.29
588.36	0.27
588.551	0.36
588.742	0.32
588.932	0.33
589.123	0.29
589.314	0.32
589.505	0.31
589.696	0.31
589.886	0.27
590.077	0.24
590.268	0.27
590.458	0.24
590.649	0.23
590.84	0.31
591.03	0.28
591.221	0.23
591.412	0.22
591.602	0.28
591.793	0.3
591.984	0.21
592.174	0.26
592.365	0.32
592.555	0.24
592.746	0.29
592.936	0.27
593.127	0.26
593.317	0.25
593.508	0.24
593.698	0.23
593.889	0.23
594.079	0.23
594.269	0.22
594.46	0.25
594.65	0.22
594.84	0.23
595.031	0.19
595.221	0.2
595.411	0.18
595.602	0.25
595.792	0.23
595.982	0.21
596.172	0.28
596.363	0.25
596.553	0.23
596.743	0.19
596.933	0.23
597.123	0.24
597.314	0.16
597.504	0.2
597.694	0.23
597.884	0.22
598.074	0.18
598.264	0.18
598.454	0.22
598.644	0.2
598.834	0.2
599.024	0.12
599.214	0.18
599.404	0.21
599.594	0.19
599.784	0.19
599.974	0.22
600.164	0.21
600.354	0.13
600.544	0.13
600.734	0.21
600.924	0.22
601.114	0.13
601.303	0.16
601.493	0.19
601.683	0.16
601.873	0.19
602.063	0.13
602.252	0.21
602.442	0.11
602.632	0.17
602.821	0.12
603.011	0.19
603.201	0.16
603.39	0.15
603.58	0.13
603.77	0.2
603.959	0.19
604.149	0.18
604.339	0.17
604.528	0.15
604.718	0.17
604.907	0.16
605.097	0.12
605.286	0.11
605.476	0.2
605.665	0.18
605.855	0.15
606.044	0.19
606.234	0.16
606.423	0.14
606.612	0.12
606.802	0.16
606.991	0.16
607.181	0.15
607.37	0.11
607.559	0.13
607.749	0.1
607.938	0.14
608.127	0.12
608.316	0.09
608.506	0.14
608.695	0.13
608.884	0.13
609.073	0.17
609.263	0.14
609.452	0.15
609.641	0.14
609.83	0.13
610.019	0.12
610.208	0.13
610.397	0.14
610.586	0.15
610.775	0.11
610.965	0.1
611.154	0.09
611.343	0.15
611.532	0.14
611.721	0.1
611.91	0.1
612.099	0.16
612.287	0.11
612.476	0.08
612.665	0.12
612.854	0.12
613.043	0.14
613.232	0.12
613.421	0.08
613.61	0.16
613.798	0.11
613.987	0.14
614.176	0.13
614.365	0.14
614.554	0.13
614.742	0.14
614.931	0.11
615.12	0.15
615.309	0.09
615.497	0.15
615.686	0.1
615.875	0.13
616.063	0.1
616.252	0.11
616.44	0.1
616.629	0.12
616.818	0.16
617.006	0.1
617.195	0.09
617.383	0.12
617.572	0.11
617.76	0.08
617.949	0.1
618.137	0.14
618.326	0.14
618.514	0.09
618.703	0.08
618.891	0.17
619.079	0.03
619.268	0.12
619.456	0.11
619.644	0.15
619.833	0.13
620.021	0.11
620.209	0.06
620.398	0.16
620.586	0.14
620.774	0.14
620.962	0.1
621.151	0.13
621.339	0.13
621.527	0.09
621.715	0.08
621.903	0.09
622.092	0.04
622.28	0.13
622.468	0.12
622.656	0.13
622.844	0.15
623.032	0.11
623.22	0.02
623.408	0.1
623.596	0.13
623.784	0.14
623.972	0.09
624.16	0.09
624.348	0.17
624.536	0.11
624.724	0.09
624.912	0.14
625.1	0.12
625.288	0.07
625.476	0.09
625.664	0.12
625.851	0.08
626.039	0.09
626.227	0.13
626.415	0.12
626.603	0.05
626.79	0.1
626.978	0.06
627.166	0.15
627.354	0.08
627.541	0.11
627.729	0.02
627.917	0.11
628.104	0.13
628.292	0.09
628.48	0.1
628.667	0.13
628.855	0.12
629.042	0.11
629.23	0.11
629.418	0.1
629.605	0.08
629.793	0.07
629.98	0.08
630.168	0.1
630.355	0.09
630.543	0.1
630.73	0.07
630.917	0.11
631.105	0.17
631.292	0.12
631.48	0.09
631.667	0.18
631.854	0.09
632.042	0.1
632.229	0.05
632.416	0.08
632.604	0.09
632.791	0.07
632.978	0.1
633.165	0.12
633.353	0.15
633.54	0.14
633.727	0.05
633.914	0.06
634.101	0.02
634.289	0.12
634.476	0.06
634.663	0.06
634.85	0.1
635.037	0.05
635.224	0.05
635.411	0.12
635.598	0.13
635.785	0.07
635.972	0.08
636.159	0.12
636.346	0.07
636.533	0.07
636.72	0.09
636.907	0.07
637.094	0.09
637.281	0.07
637.468	0.1
637.655	0.1
637.842	0.07
638.029	0.07
638.215	0.1
638.402	0.08
638.589	0.07
638.776	0.08
638.963	0.05
639.149	0.11
639.336	0.16
639.523	0.08
639.709	0.11
639.896	0.07
640.083	0.13
640.27	0.07
640.456	0.07
640.643	0.08
640.829	0.03
641.016	0.09
641.203	0.04
641.389	0.11
641.576	0.12
641.762	0.08
641.949	0.06
642.135	0.11
642.322	0.09
642.508	0.02
642.695	0.09
642.881	0.1
643.068	0.06
643.254	0.08
643.441	0.12
643.627	0.07
643.813	0.08
644	0.13
644.186	0.05
644.372	0.03
644.559	0.14
644.745	0.07
644.931	0.07
645.118	0.11
645.304	0.08
645.49	0.06
645.676	0.06
645.862	0.06
646.049	0.13
646.235	0.07
646.421	0.12
646.607	0.16
646.793	0.08
646.979	0.08
647.165	0.12
647.352	0.06
647.538	0.12
647.724	0.12
647.91	0.09
648.096	0.11
648.282	0.1
648.468	0.05
648.654	0.07
648.84	0.06
649.026	0.09
649.212	0.08
649.397	0.07
649.583	0.05
649.769	0.13
649.955	0.09
650.141	0.08
650.327	0.12
650.513	0.06
650.698	0.11
650.884	0.05
651.07	0.09
651.256	0.1
651.442	0.07
651.627	0.06
651.813	0.14
651.999	0.08
652.184	0.06
652.37	0.07
652.556	0.06
652.741	0.16
652.927	0.02
653.113	0.05
653.298	0.1
653.484	0.09
653.669	0.03
653.855	0.07
654.04	0.11
654.226	0.13
654.412	0.05
654.597	0.04
654.782	0.09
654.968	0.12
655.153	0.11
655.339	0.08
655.524	0.05
655.71	0.11
655.895	0.06
656.08	0.08
656.266	0.1
656.451	0.11
656.636	0.05
656.822	0.07
657.007	0.05
657.192	0.06
657.378	0.04
657.563	0.07
657.748	0.1
657.933	0.11
658.118	0.06
658.304	0.09
658.489	0.1
658.674	0.13
658.859	0.03
659.044	0.13
659.229	0.12
659.414	0.09
659.599	0.05
659.785	0.02
659.97	0.07
660.155	0.12
660.34	0.11
660.525	0.12
660.71	0.07
660.895	0.13
661.08	0.08
661.264	0.07
661.449	0.12
661.634	0.11
661.819	0.09
662.004	0.12
662.189	0.07
662.374	0.09
662.559	0.05
662.743	0.05
662.928	0.07
663.113	0.03
663.298	0.03
663.483	0.07
663.667	0.12
663.852	0.06
664.037	0.13
664.221	0.07
664.406	0.12
664.591	0.1
664.775	0.12
664.96	0.05
665.145	0.11
665.329	0.12
665.514	0.09
665.698	0.06
665.883	0.03
666.068	0.15
666.252	0.11
666.437	0.05
666.621	0.09
666.806	0.11
666.99	0.08
667.174	0.03
667.359	0.16
667.543	0.08
667.728	0.04
667.912	0.05
668.096	0.13
668.281	0.08
668.465	0.1
668.649	0.12
668.834	0.09
669.018	0.07
669.202	0.11
669.387	0.04
669.571	0.15
669.755	0.08
669.939	0.1
670.124	0.09
670.308	0.15
670.492	0.14
670.676	0.12
670.86	0.07
671.044	0.07
671.228	0.14
671.413	0.09
671.597	0.09
671.781	0.09
671.965	0.13
672.149	0.14
672.333	0.08
672.517	0.07
672.701	0.14
672.885	0.08
673.069	0.06
673.253	0.12
673.437	0.12
673.621	0.06
673.804	0.08
673.988	0.13
674.172	0.09
674.356	0.05
674.54	0.07
674.724	0.18
674.908	0.12
675.091	0.16
675.275	0.09
675.459	0.15
675.643	0.14
675.826	0.14
676.01	0.11
676.194	0.13
676.377	0.15
676.561	0.13
676.745	0.16
676.928	0.11
677.112	0.15
677.296	0.12
677.479	0.1
677.663	0.11
677.846	0.14
678.03	0.09
678.213	0.13
678.397	0.12
678.58	0.14
678.764	0.09
678.947	0.06
679.131	0.07
679.314	0.13
679.498	0.12
679.681	0.12
679.865	0.19
680.048	0.12
680.231	0.1
680.415	0.09
680.598	0.07
680.781	0.1
680.965	0.11
681.148	0.12
681.331	0.11
681.514	0.14
681.698	0.09
681.881	0.12
682.064	0.13
682.247	0.09
682.43	-0
682.614	0.13
682.797	0.19
682.98	0.17
683.163	0.09
683.346	0.12
683.529	0.06
683.712	0.07
683.895	0.13
684.078	0.04
684.261	0.1
684.444	0.12
684.627	0.1
684.81	0.06
684.993	0.14
685.176	0.12
685.359	0.07
685.542	0.05
685.725	0.18
685.908	0.11
686.091	0.09
686.274	0.14
686.457	0.14
686.639	0.09
686.822	0.18
687.005	0.08
687.188	0.13
687.371	0.17
687.553	0.13
687.736	0.15
687.919	0.15
688.102	0.18
688.284	0.1
688.467	0.11
688.65	0.08
688.832	0.06
689.015	0.07
689.197	0.08
689.38	0.2
689.563	0.2
689.745	0.08
689.928	0.1
690.11	0.06
690.293	0.12
690.475	0.03
690.658	0.14
690.84	0.11
691.023	0.14
691.205	0.08
691.388	0.11
691.57	0.16
691.752	0.15
691.935	-0
692.117	0.1
692.3	0.12
692.482	0.06
692.664	0.05
692.847	0.09
693.029	0.14
693.211	0.1
693.393	0.08
693.576	0.1
693.758	0.08
693.94	0.07
694.122	0.11
694.304	0.11
694.487	0.11
694.669	0.2
694.851	0.06
695.033	0.12
695.215	0.13
695.397	0.07
695.579	0.13
695.761	0.02
695.943	0.07
696.125	0.21
696.308	0.14
696.49	-0.02
696.671	0.2
696.853	0.14
697.035	0.25
697.217	0.05
697.399	0.14
697.581	0.06
697.763	0.1
697.945	0.07
698.127	0.09
698.309	0.17
698.491	0.09
698.672	0.13
698.854	0.16
699.036	0.18
699.218	0.07
699.399	0.14
699.581	0.15
699.763	0.1
699.945	0.07
700.126	0.07
700.308	0.11
700.49	0.11
700.671	0.03
700.853	0.09
701.035	0.08
701.216	0.11
701.398	0.05
701.579	0.07
701.761	0.19
701.943	0.05
702.124	0.08
702.306	0.14
702.487	0.23
702.669	0.09
702.85	0.11
703.031	0.07
703.213	0.23
703.394	0.17
703.576	0.1
703.757	0.21
703.938	0.2
704.12	0.31
704.301	0.1
704.483	0.03
704.664	0.14
704.845	0.2
705.026	0.15
705.208	0.17
705.389	0.1
705.57	0.18
705.751	0.11
705.933	0.1
706.114	0.23
706.295	0.12
706.476	0.11
706.657	0.2
706.838	0.12
707.02	0.18
707.201	0.1
707.382	0.08
707.563	0.17
707.744	0.13
707.925	0.06
708.106	0.13
708.287	0.12
708.468	0.15
708.649	0.1
708.83	0.15
709.011	0.12
709.192	0.16
709.373	0.03
709.554	0.12
709.734	0.15
709.915	0.17
710.096	0.14
710.277	-0.01
710.458	0.11
710.639	0.15
710.819	0.03
711	0.1
711.181	0.17
711.362	0.16
711.542	0.12
711.723	0.1
711.904	0.19
712.085	0.14
712.265	0.12
712.446	0.04
712.627	0.1
712.807	0.17
712.988	0.12
713.168	0.02
713.349	0.23
713.53	0.01
713.71	0.08
713.891	0.05
714.071	0.15
714.252	0.03
714.432	0.04
714.613	-0.06
714.793	0.08
714.974	0.18
715.154	0.16
715.334	0.2
715.515	0.22
715.695	0.01
715.876	0.09
716.056	0.12
716.236	0.11
716.417	0.11
716.597	0.06
716.777	0.25
716.957	0.08
717.138	0.11
717.318	0.08
717.498	0.08
717.678	0.18
717.859	0.16
718.039	0.1
718.219	0.13
718.399	0.14
718.579	0.1
718.759	0.03
718.939	0.21
719.12	0.14
719.3	0.17
719.48	-0.02
719.66	-0.01
719.84	0.21
720.02	0.1
720.2	0.02
720.38	0.1
720.56	0.24
720.74	0.12
720.92	0.16
721.1	0.22
721.279	0.1
721.459	0.18
721.639	-0.01
721.819	0.12
721.999	0.06
722.179	0.11
722.359	0.04
722.538	0.15
722.718	0.17
722.898	0.04
723.078	0.06
723.257	0.06
723.437	0.18
723.617	0.12
723.797	0.06
723.976	0.16
724.156	0.07
724.336	0.22
724.515	0.22
724.695	-0.02
724.874	0.13
725.054	0.2
725.234	0.05
725.413	0.12
725.593	0.17
725.772	0.08
725.952	0.09
726.131	0.12
726.311	0.14
726.49	0.16
726.67	0.07
726.849	0.09
727.028	0.13
727.208	0.08
727.387	0.2
727.567	0.1
727.746	0.14
727.925	0.05
728.105	-0
728.284	0.14
728.463	0.01
728.643	0.11
728.822	0.01
729.001	0.1
729.18	0.14
729.359	0.21
729.539	0.09
729.718	0.2
729.897	0.17
730.076	0.14
730.255	0.07
730.434	0.07
730.614	0.24
730.793	0.18
730.972	0.08
731.151	0.03
731.33	0.23
731.509	0.15
731.688	0.07
731.867	0.12
732.046	0.09
732.225	0.33
732.404	0.03
732.583	0.01
732.762	0.08
732.941	0.23
733.12	0.14
733.298	0.1
733.477	0.2
733.656	0
733.835	0.09
734.014	0.17
734.193	0.07
734.371	0.15
734.55	0.2
734.729	0.05
734.908	0.2
735.086	0.11
735.265	0.15
735.444	0.01
735.623	0.05
735.801	0.05
735.98	0.13
736.159	0.06
736.337	0.18
736.516	0.16
736.694	0.12
736.873	0.12
737.052	0.26
737.23	0.2
737.409	0.08
737.587	0.22
737.766	0.01
737.944	0.07
738.123	0.27
738.301	0.18
738.479	0.14
738.658	0.19
738.836	0.02
739.015	0.11
739.193	0.21
739.371	0.08
739.55	0.22
739.728	0.01
739.906	0.19
740.085	0.24
740.263	0.21
740.441	-0.08
740.62	0.31
740.798	0.18
740.976	0.1
741.154	0.01
741.332	0.23
741.511	0.22
741.689	0.2
741.867	0.23
742.045	0.09
742.223	0.11
742.401	0.1
742.579	0.12
742.757	0.17
742.935	-0.01
743.114	0.08
743.292	0.11
743.47	0.09
743.648	0.06
743.826	0.14
744.004	0.24
744.181	0.16
744.359	0.08
744.537	0.15
744.715	0.09
744.893	0.23
745.071	0.12
745.249	-0.01
745.427	0.18
745.605	0.23
745.782	0.19
745.96	0.17
746.138	0.16
746.316	0.16
746.493	0.11
746.671	0.14
746.849	0.21
747.027	0.23
747.204	0.04
747.382	0.27
747.56	0.05
747.737	0.13
747.915	0.07
748.093	0.25
748.27	0.11
748.448	0.15
748.625	0.02
748.803	0.07
748.98	0.04
749.158	0.23
749.335	0.25
749.513	0.13
749.69	0.17
749.868	0.1
750.045	0.17
750.223	0.1
750.4	-0.13
750.578	0.32
750.755	0.08
750.932	0.05
751.11	0.25
751.287	-0.02
751.464	0.18
751.642	0.01
751.819	0.11
751.996	0.17
752.173	0.2
752.351	0.05
752.528	0.13
752.705	0.06
752.882	0.16
753.06	0.09
753.237	0.22
753.414	0.29
753.591	0.33
753.768	0.13
753.945	0.07
754.122	0.08
754.299	0.2
754.476	0.03
754.654	0.15
754.831	0.19
755.008	0.21
755.185	0.15
755.362	-0.11
755.539	0.08
755.716	0.11
755.892	0.14
756.069	0.09
756.246	0.12
756.423	0.09
756.6	0.28
756.777	0.17
756.954	0.2
757.131	0.11
757.307	0.07
757.484	-0.01
757.661	0.21
757.838	0.1
758.015	-0.04
758.191	0.28
758.368	0.19
758.545	0.24
758.721	0.21
758.898	0.06
759.075	0.2
759.251	0.33
759.428	0.22
759.605	-0.07
759.781	0.07
759.958	0.07
760.134	0.22
760.311	0.09
760.488	0.22
760.664	0.29
760.841	0.2
761.017	0.08
761.194	0.12
761.37	0.14
761.547	0.11
761.723	0.16
761.899	0.24
762.076	-0.02
762.252	-0.04
762.429	0.12
762.605	0.3
762.781	0.06
762.958	0.26
763.134	0.06
763.31	0.22
763.486	0.25
763.663	-0.03
763.839	0.19
764.015	-0.05
764.191	0.02
764.368	0.05
764.544	0.1
764.72	0.15
764.896	0.13
765.072	0.09
765.248	0.11
765.425	0.01
765.601	0.1
765.777	0.15
765.953	-0.13
766.129	-0.03
766.305	0.06
766.481	0.17
766.657	0.16
766.833	0.23
767.009	-0.02
767.185	0.1
767.361	0.06
767.537	0.02
767.713	0.24
767.889	0.06
768.065	0.2
768.24	-0.08
768.416	0.22
768.592	0.01
768.768	0.11
768.944	0.22
769.12	-0.02
769.295	0.07
769.471	0.11
769.647	0.15
769.823	0.26
769.998	-0.01
770.174	-0.01
770.35	0.48
770.525	0.32
770.701	0.16
770.877	0.22
771.052	0.1
771.228	0.31
771.403	0.21
771.579	0.3
771.755	0.42
771.93	0.12
772.106	-0.13
772.281	-0.02
772.457	0.26
772.632	0.23
772.808	-0.04
772.983	-0.02
773.159	0.01
773.334	0.29
773.509	0.08
773.685	0.02
773.86	0.39
774.036	0.3
774.211	0.11
774.386	0.13
774.562	0.03
774.737	0.07
774.912	0.05
775.087	0.19
775.263	0.12
775.438	0.11
775.613	0.16
775.788	-0.05
775.964	0.27
776.139	0.45
776.314	-0.14
776.489	0.29
776.664	0.15
776.839	0.08
777.014	0.31
777.19	0.31
777.365	0.3
777.54	0.41
777.715	-0.09
777.89	-0
778.065	-0.1
778.24	0.14
778.415	0.35
778.59	0.07
778.765	0.17
778.94	0.02
779.115	0
779.289	0.01
779.464	0.03
779.639	0.11
779.814	-0.09
779.989	-0.07
780.164	0.25
780.339	0.27
780.513	0.04
780.688	-0
780.863	0.05
781.038	0.34
781.212	0.03
781.387	0.18
781.562	0.29
781.737	-0.01
781.911	0.33
782.086	-0.11
782.261	0.03
782.435	0.37
782.61	0.09
782.784	0.19
782.959	0.45
783.134	0.2
783.308	-0.08
783.483	0.12
783.657	0.36
783.832	0.33
784.006	-0.19
784.181	0.28
784.355	0.22
784.53	0
784.704	0.11
784.878	0.37
785.053	0.23
785.227	0.15
785.402	0.39
785.576	0.02
785.75	0.16
785.925	-0.03
786.099	0.06
786.273	0.29
786.448	0.26
786.622	0.31
786.796	0.11
786.97	0.15
787.145	0.5
787.319	-0.11
787.493	-0
787.667	-0.17
787.841	0.05
788.015	0.39
788.19	0.13
788.364	0.3
788.538	0.44
788.712	0.31
788.886	0.09
789.06	0.29
789.234	0.3
789.408	0.08
789.582	0.13
789.756	0.14
789.93	-0.11
790.104	0.17
790.278	0.04
790.452	0.02
790.626	0.41
790.8	0.01
790.973	0.24
791.147	0.31
791.321	0.31
791.495	0.38
791.669	0.31
791.843	0.5
792.016	0.41
792.19	0.67
792.364	-0.03
792.538	0.62
792.711	0.58
792.885	0.12
793.059	-0.1
793.233	-0.29
793.406	0.41
793.58	0.33
793.754	0.24
793.927	0.01
794.101	0.31
794.274	0.15
794.448	0.35
794.622	-0.08
794.795	0.4
794.969	0.01
795.142	0.58
795.316	0.34
795.489	0.23
795.663	0.61
795.836	-0.01
796.009	-0.22
796.183	0.37
796.356	0.35
796.53	0.34
796.703	0.12
796.876	0.83
797.05	-0.01
797.223	0.23
797.396	0.21
797.57	0.35
797.743	0.28
797.916	0.32
798.09	0.18
798.263	0.2
798.436	0.35
798.609	0.13
798.782	0.2
798.956	0.18
799.129	0.37
799.302	0.04
799.475	0.08
799.648	0.27
799.821	0.05
799.994	0.27
800.167	-0.07
800.34	0.24
800.514	0.31
800.687	0.16
800.86	0.14
801.033	0.29
801.206	0.24
801.379	-0.13
801.551	0.22
801.724	0.39
801.897	0.65
802.07	0.11
802.243	0.01
802.416	0.14
802.589	0.12
802.762	0.24
802.935	0.18
803.107	0.54
803.28	0.14
803.453	0.45
803.626	-0.01
803.798	0.07
803.971	0.17
804.144	0.46
804.317	0.57
804.489	0.34
804.662	0.12
804.835	0.46
805.007	-0.03
805.18	0.64
805.353	0.43
805.525	-0.01
805.698	0.02
805.87	0.3
806.043	0.34
806.215	-0.15
806.388	0.17
806.56	0.3
806.733	0.52
806.905	0.21
807.078	0.02
807.25	-0.06
807.423	0.29
807.595	0.24
807.768	0.33
807.94	0.45
808.112	0.12
808.285	0.34
808.457	0.22
808.629	-0.09
808.802	0.05
808.974	0.2
809.146	-0.05
809.318	0.16
809.491	0.37
809.663	0.58
809.835	-0.04
810.007	0.37
810.18	0.26
810.352	-0.1
810.524	0.08
810.696	0.37
810.868	0.57
811.04	-0.05
811.212	0.05
811.384	0.51
811.556	0.31
811.728	0
811.901	0.81
812.073	0.21
812.245	0.35
812.417	0.27
812.589	-0.48
812.76	0.45
812.932	0.2
813.104	0.58
813.276	-0.05
813.448	0.71
813.62	0.4
813.792	0.46
813.964	0.46
814.136	0.46
814.307	-0.1
814.479	0.04
814.651	0.32
814.823	1.2
814.995	0.11
815.166	0.09
815.338	0.18
815.51	-0.32
815.681	0.89
815.853	0.74
816.025	0.22
816.196	0.99
816.368	0.94
816.54	-0.02
816.711	0.06
816.883	0.51
817.054	1.41
817.226	-0.36
817.398	-0.12
817.569	-0.02
817.741	-0.06
817.912	0.46
818.084	0.07
818.255	0.66
818.426	-0.23
818.598	0.45
818.769	0.02
818.941	1.11
819.112	0.74
819.283	0.39
819.455	-0.01
819.626	0.28
819.798	0.35
819.969	0.5
820.14	0.27
820.311	0.4
820.483	0.43
820.654	0.3
820.825	0.45
820.996	-0.16
821.168	0.08
821.339	-0.2
821.51	0.21
821.681	0.02
821.852	0.25
822.023	-0.46
822.195	-0.66
822.366	0.81
822.537	0.52
822.708	0.82
822.879	-0.01
823.05	0.86
823.221	0.36
823.392	0.68
823.563	-0.04
823.734	0.14
823.905	0.25
824.076	0.19
824.247	-0.4
824.418	-0.12
824.589	0.94
824.759	0.04
824.93	0.3
825.101	-0.85
825.272	0.55
825.443	1.01
825.614	1.03
825.784	-0.78
825.955	0.92
826.126	1.4
826.297	0.34
826.467	0.88
826.638	0.95
826.809	-0.27
826.98	-0.34
827.15	0.54
827.321	0.32
827.492	0.9
827.662	0.04
827.833	1.14
828.003	0.83
828.174	-0.14
828.345	-0.02
828.515	0.79
828.686	0.62
828.856	0.22
829.027	0.28
829.197	-0.12
829.368	0.52
829.538	-0.01
829.709	-0.12
829.879	0.66
830.049	0.31
830.22	0.23
830.39	0.28
830.56	0.76
830.731	0.41
830.901	0.31
831.072	0.27
831.242	0.94
831.412	0.28
831.582	0.62
831.753	-0.19
831.923	0.81
832.093	0.47
832.263	0.95
832.434	-0.09
832.604	-0.05
832.774	0.63
832.944	0.17
833.114	0.2
833.284	0.46
833.454	-0.61
833.624	-0.08
833.795	-0.91
833.965	1
834.135	1.1
834.305	-0.15
834.475	-0.12
834.645	0.37
834.815	-0.24
834.985	-0.27
835.155	0.23
835.325	1
835.494	0.29
835.664	0.19
835.834	-0.4
836.004	1
836.174	0.94
836.344	-0.07
836.514	0
836.684	0.23
836.853	0.3
837.023	0.94
837.193	0.71
837.363	0.82
837.532	1.52
837.702	0.24
837.872	-0.19
838.041	0.77
838.211	1.86
838.381	-0.35
838.55	0.54
838.72	2.12
838.89	1.4
839.059	0.1
839.229	-0.24
839.398	1.17
839.568	0.83
839.738	0.53
839.907	1.06
840.077	1.06
840.246	0.62
840.416	0.04
840.585	-0.56
840.755	1.61
840.924	0.87
841.093	-0.25
841.263	-0.23
841.432	1.23
841.602	-0.28
841.771	-0.53
841.94	0.49
842.11	2.42
842.279	0.96
842.448	0.24
842.617	-0.29
842.787	0.77
842.956	-0.06
843.125	0.86
843.294	-0.05
843.464	0.95
843.633	0.41
843.802	-0.57
843.971	1.14
844.14	0.89
844.309	1.94
844.479	-0.31
844.648	0.23
844.817	0.08
844.986	0.92
845.155	0.35
845.324	0.02
845.493	0.59
845.662	0.46
845.831	0.96
846	0.87
846.169	0.31
846.338	2.23
846.507	0.78
846.676	1.2
846.844	0.15
847.013	1.91
847.182	0.25
847.351	0.14
847.52	-0.63
847.689	1.04
847.858	0.42
848.026	-0.81
848.195	-0.37
848.364	-0.21
848.533	-0.24
848.701	0.01
848.87	0.57
849.039	0.77
849.207	0.93
849.376	1.4
849.545	1.28
849.713	-0.63
849.882	-0.17
850.051	-0.15
850.219	1.07
850.388	1.32
850.556	-0.46
850.725	0.86
850.893	0.24
851.062	1.02
851.23	1.17
851.399	-1.07
851.567	-0.4
851.736	0.08
851.904	-0.84
852.073	0.97
852.241	1.54
852.41	0.53
852.578	0.96
852.746	0.01
852.915	0.46
853.083	0.5
853.251	-0.12
853.42	0.11
853.588	0.95
853.756	1.95
853.924	0.91
854.093	0.22
854.261	-0.57
854.429	-1.71
854.597	1.15
854.765	0.45
854.934	0.45
855.102	1.89
855.27	0.41
855.438	1.87
855.606	2.16
855.774	2.44
855.942	-0.43
856.11	-0.31
856.278	0.83
856.446	1.19
856.614	0.68
856.782	0.35
856.95	2.43
857.118	1.47
857.286	0.52
857.454	-0.36
857.622	1.86
857.79	1.68
857.958	0.3
858.126	-0.1
858.294	-2.79
858.462	0.35
858.629	-0.1
858.797	-1.09
858.965	1.53
859.133	0.87
859.301	0.03
859.468	1.16
859.636	0.59
859.804	1.76
859.971	0.81
860.139	-0.48
860.307	1.71
860.474	0.14
860.642	-0.15
860.81	-0.54
860.977	0.22
861.145	2.52
861.313	0.66
861.48	0.74
861.648	0.74
861.815	-0.39
861.983	-0.45
862.15	-0.06
862.318	1.4
862.485	1.22
862.653	-0.42
862.82	-1
862.988	2.11
863.155	0.47
863.322	-0.59
863.49	-0.92
863.657	-0.91
863.824	2.34
863.992	1.69
864.159	1.34
864.326	2.48
864.494	0.43
864.661	1.99
864.828	-0.14
864.996	1.01
865.163	3.16
865.33	0.22
865.497	-0.9
865.664	-0.14
865.832	-0.27
865.999	0.19
866.166	-0.72
866.333	-0.89
866.5	0.45
866.667	1.17
866.834	-0.57
867.001	2.43
867.168	0.51
867.335	1.32
867.502	-1.46
867.669	1.26
867.836	3.19
868.003	0.92
868.17	1.85
868.337	3.14
868.504	4.61
868.671	-1.21
868.838	-0.07
869.005	0.56
869.172	1
869.339	0.43
869.505	-1.27
869.672	0.81
869.839	4.12
870.006	-0.06
870.173	0.57
870.339	2.02
870.506	2.13
870.673	1.2
870.84	2.26
871.006	1.24
871.173	-0.52
871.34	1.28
871.506	0.4
871.673	2.5
871.839	-0.78
872.006	0.59
872.173	-0.01
872.339	1.14
872.506	2.42
872.672	-0.08
872.839	-1.25
873.005	0.42
873.172	4.34
873.338	3.74
873.505	0.47
873.671	0.51
873.838	2.37
874.004	-1.1
874.171	0.31
874.337	2.86
874.503	2.92
874.67	1.48
874.836	0.28
875.002	3.18
875.169	1.39
875.335	0.67
875.501	-0.79
875.668	2.08
875.834	0.78
876	1.6
876.166	2.17
876.332	1.39
876.499	3.95
876.665	-0.98
876.831	0.88
876.997	1.32
877.163	3.2
877.329	-0.64
877.495	1.85
877.662	2.46
877.828	-0.24
877.994	2.18
878.16	-0.74
878.326	-0.75
878.492	1.6
878.658	1.69
878.824	-0.57
878.99	2.55
879.156	-0.41
879.322	4.35
879.487	1.11
879.653	2.47
879.819	0.79
879.985	0.75
880.151	0.12
880.317	0.45
880.483	0.34
880.648	1.68
880.814	-1.4
880.98	1.43
881.146	-3.49
881.312	1.48
881.477	-1.07
881.643	1.28
881.809	2.77
881.974	2.2
882.14	-0.8
882.306	0.91
882.471	3.71
882.637	0.04
882.803	2.06
882.968	4.44
883.134	4.02
883.299	0.36
883.465	1.68
883.63	3.58
883.796	1.48
883.961	3
884.127	1.58
884.292	-3.47
884.458	-1.25
884.623	-1.25
