Data from Apollo_Calib_20240827__AbsoluteIrradiance__650__09-59-00-878.txt Node

Date: Wed Aug 28 09:59:00 BST 2024
User: biology
Spectrometer: FLMT08252
Trigger mode: 0
Integration Time (sec): 5.000000E-1
Scans to average: 5
Electric dark correction enabled: true
Nonlinearity correction enabled: false
Boxcar width: 0
XAxis mode: Wavelengths
Number of Pixels in Spectrum: 3648
>>>>>Begin Spectral Data<<<<<
179.588	-0
179.809	-0
180.03	-0
180.251	-0
180.473	-0
180.694	0
180.915	0
181.136	-0
181.357	0
181.578	-0
181.799	-0
182.02	-0
182.241	0
182.462	-0
182.683	0
182.904	-0
183.125	-0
183.346	0
183.567	0
183.788	-0
184.009	-0
184.23	0
184.451	0
184.672	-0
184.892	-0
185.113	0
185.334	0
185.555	-0
185.776	-0
185.996	0
186.217	0
186.438	-0
186.659	-0
186.879	0
187.1	-0
187.321	-0
187.541	-0
187.762	0
187.983	0
188.203	0
188.424	0
188.644	-0
188.865	-0
189.086	-0
189.306	0
189.527	-0
189.747	-0
189.968	-0
190.188	0
190.409	-0
190.629	0
190.849	-0
191.07	-0
191.29	0
191.511	-0
191.731	-0
191.951	-0
192.172	-0
192.392	-0
192.612	-0
192.833	-0
193.053	-0
193.273	0
193.493	0
193.714	-0
193.934	0
194.154	0
194.374	0
194.594	0
194.815	0
195.035	-0
195.255	0
195.475	-0
195.695	0
195.915	0
196.135	-0
196.355	0
196.575	0
196.795	0
197.015	-0
197.235	-0
197.455	-0
197.675	0
197.895	-0
198.115	-0
198.335	0
198.555	-0
198.775	0
198.995	0
199.214	0
199.434	0
199.654	-0
199.874	0
200.094	0.57
200.313	-0.07
200.533	-0.33
200.753	-0.48
200.973	1.12
201.192	0.65
201.412	-0.95
201.632	-0.1
201.851	0.44
202.071	-0.5
202.291	-0.77
202.51	-0.37
202.73	0.4
202.95	-0.02
203.169	-0.73
203.389	0.22
203.608	-0.42
203.828	-0.46
204.047	-0.09
204.267	0.27
204.486	-0.25
204.706	-0.11
204.925	0.14
205.145	-0.25
205.364	0.29
205.583	0.84
205.803	-0.33
206.022	-0.33
206.242	0.14
206.461	-0.19
206.68	-0.3
206.9	0.13
207.119	0.34
207.338	0.37
207.557	-0.13
207.777	0.2
207.996	-0.28
208.215	0.32
208.434	0.15
208.654	-0.34
208.873	0.07
209.092	0.57
209.311	-0.26
209.53	-0.03
209.749	-0.25
209.968	-0.16
210.187	-0.09
210.407	-0.44
210.626	-0.25
210.845	0.29
211.064	0.11
211.283	-0.3
211.502	0.16
211.721	-0.03
211.94	-0.15
212.159	0.23
212.377	0.31
212.596	0.47
212.815	-0.12
213.034	0.08
213.253	0.16
213.472	0.23
213.691	-0.04
213.91	-0.15
214.128	-0.32
214.347	0.36
214.566	-0.36
214.785	-0.34
215.003	0.22
215.222	-0.01
215.441	0.06
215.66	-0.23
215.878	0.04
216.097	0.2
216.316	-0.34
216.534	-0.17
216.753	0.07
216.972	-0.07
217.19	0.07
217.409	-0.12
217.627	-0.18
217.846	-0.05
218.064	0.02
218.283	-0.19
218.501	0.41
218.72	0.11
218.938	-0.12
219.157	-0.01
219.375	0.12
219.594	0.06
219.812	-0.24
220.031	-0.23
220.249	0.34
220.467	0.18
220.686	-0.1
220.904	-0.22
221.122	-0.09
221.341	0.37
221.559	0.01
221.777	-0.05
221.995	0.09
222.214	0.04
222.432	-0.09
222.65	0.12
222.868	-0.04
223.086	0.07
223.305	0.11
223.523	-0.02
223.741	0.4
223.959	-0.08
224.177	-0.15
224.395	-0.1
224.613	-0.03
224.831	0.16
225.049	-0.25
225.267	-0.07
225.485	-0.02
225.703	0.01
225.921	-0.04
226.139	-0.05
226.357	0.18
226.575	-0.07
226.793	-0.12
227.011	0.47
227.229	0.02
227.447	0.14
227.665	-0.18
227.883	-0.25
228.1	-0.02
228.318	0.03
228.536	-0.25
228.754	-0.06
228.972	0.17
229.189	0.13
229.407	-0.02
229.625	-0.23
229.843	0.14
230.06	-0.02
230.278	0.01
230.496	0.04
230.713	-0.03
230.931	0.13
231.149	-0.09
231.366	-0.19
231.584	0.02
231.801	0.3
232.019	0.01
232.236	-0.12
232.454	-0.17
232.671	-0.01
232.889	-0.11
233.106	-0.16
233.324	-0.06
233.541	-0.01
233.759	-0.04
233.976	-0.1
234.194	-0.05
234.411	-0.04
234.628	0.04
234.846	0
235.063	-0.02
235.28	-0.02
235.498	-0.06
235.715	-0.04
235.932	0.18
236.149	0.01
236.367	-0.11
236.584	0.07
236.801	-0.12
237.018	0.09
237.236	-0.01
237.453	-0.18
237.67	0.16
237.887	-0.04
238.104	0.01
238.321	-0.15
238.538	-0.12
238.755	0.02
238.973	-0.13
239.19	0
239.407	0.02
239.624	-0.06
239.841	-0.05
240.058	-0.17
240.275	0.07
240.492	-0.03
240.709	-0.01
240.925	-0.04
241.142	0.01
241.359	-0.13
241.576	-0.08
241.793	-0.05
242.01	-0
242.227	0.14
242.444	0.05
242.66	0.12
242.877	0.06
243.094	-0.08
243.311	0.14
243.527	-0.01
243.744	0.05
243.961	0.02
244.178	-0.13
244.394	0.04
244.611	0.14
244.828	0.15
245.044	-0.13
245.261	-0.06
245.477	-0.04
245.694	0.12
245.911	-0.07
246.127	0.01
246.344	0.16
246.56	0.1
246.777	-0.02
246.993	0.06
247.21	0.06
247.426	-0.08
247.643	-0.03
247.859	-0
248.076	0
248.292	0.2
248.508	-0.12
248.725	-0.06
248.941	0.08
249.157	0.09
249.374	0.01
249.59	0.01
249.806	0.07
250.023	0.04
250.239	-0.04
250.455	-0.14
250.671	-0.03
250.888	0.08
251.104	0.12
251.32	-0.07
251.536	-0.01
251.752	0.07
251.969	-0
252.185	-0.03
252.401	0.19
252.617	0
252.833	-0.06
253.049	0.02
253.265	0
253.481	0.05
253.697	-0.01
253.913	-0.08
254.129	0.03
254.345	0.07
254.561	-0.02
254.777	0.06
254.993	0.08
255.209	0.05
255.425	0
255.641	-0.05
255.857	0.1
256.073	0.09
256.288	-0.09
256.504	-0.02
256.72	0
256.936	0.1
257.152	-0.02
257.367	-0.1
257.583	0.02
257.799	0.08
258.015	-0.04
258.23	-0.04
258.446	0.14
258.662	-0.03
258.877	-0.05
259.093	-0.01
259.309	0.08
259.524	0.07
259.74	-0.05
259.955	-0.11
260.171	0.03
260.387	0.07
260.602	0.1
260.818	0.1
261.033	-0.09
261.249	-0.01
261.464	-0.03
261.68	-0.1
261.895	-0.04
262.11	0.04
262.326	-0.07
262.541	-0.14
262.757	0.03
262.972	-0.03
263.187	0.05
263.403	0
263.618	0.07
263.833	0.02
264.049	-0.07
264.264	-0.03
264.479	0.04
264.694	0.11
264.91	-0.04
265.125	-0.05
265.34	0.06
265.555	0.09
265.77	0.04
265.986	-0.03
266.201	0.07
266.416	0.09
266.631	0.02
266.846	-0.04
267.061	0.02
267.276	-0
267.491	-0.08
267.706	0.02
267.921	0.01
268.136	-0.03
268.351	-0.01
268.566	-0.07
268.781	0.14
268.996	0.08
269.211	0.02
269.426	-0.07
269.641	0.01
269.856	0.02
270.071	-0.03
270.285	-0.11
270.5	0.04
270.715	0.01
270.93	-0.03
271.145	0.02
271.359	0.08
271.574	-0.03
271.789	0.04
272.004	-0.03
272.218	-0.02
272.433	0.08
272.648	-0.08
272.862	0.11
273.077	0.02
273.292	0.06
273.506	-0.09
273.721	-0.05
273.936	0.07
274.15	0.05
274.365	-0.02
274.579	0.05
274.794	0.07
275.008	0.1
275.223	-0.08
275.437	-0.01
275.652	-0.02
275.866	0.03
276.081	-0.01
276.295	0.12
276.509	0.01
276.724	-0.04
276.938	0.01
277.153	-0
277.367	0.06
277.581	-0.03
277.796	0
278.01	-0.08
278.224	0.11
278.438	0.16
278.653	-0.1
278.867	-0.03
279.081	0.06
279.295	-0.01
279.51	-0.01
279.724	-0.06
279.938	0.04
280.152	0.02
280.366	-0.02
280.58	-0.02
280.794	0.06
281.008	0.08
281.222	0.05
281.437	0.1
281.651	0.01
281.865	0.07
282.079	0.02
282.293	-0.1
282.507	-0.04
282.721	-0.01
282.935	-0.01
283.148	-0.06
283.362	-0.05
283.576	-0.04
283.79	0.04
284.004	-0.03
284.218	0.08
284.432	-0
284.646	0.01
284.859	-0
285.073	0
285.287	-0.03
285.501	-0.03
285.714	-0.04
285.928	0.06
286.142	-0
286.356	0.03
286.569	-0.02
286.783	0.05
286.997	0.06
287.21	0.03
287.424	0.06
287.637	0.02
287.851	-0.01
288.065	0.02
288.278	-0.01
288.492	-0
288.705	0.02
288.919	0.04
289.132	-0.06
289.346	0.03
289.559	-0.07
289.773	-0.1
289.986	-0
290.2	-0.01
290.413	0.02
290.626	-0.04
290.84	0.03
291.053	0.05
291.267	0.11
291.48	-0.06
291.693	-0
291.906	-0.03
292.12	-0.06
292.333	-0.04
292.546	-0.01
292.76	0.05
292.973	-0.01
293.186	0.02
293.399	-0.06
293.612	0.06
293.826	-0.02
294.039	0.01
294.252	-0.05
294.465	0.02
294.678	0.01
294.891	0
295.104	-0.06
295.317	-0.04
295.53	0.03
295.743	-0.01
295.956	-0.01
296.169	0.06
296.382	0.05
296.595	0.06
296.808	-0.05
297.021	0.08
297.234	0.05
297.447	-0.02
297.66	0.04
297.873	-0.01
298.086	0.04
298.299	-0.03
298.511	-0.05
298.724	-0.05
298.937	-0.09
299.15	-0.04
299.363	0
299.575	0.05
299.788	-0.01
300.001	-0.01
300.213	0
300.426	-0.02
300.639	-0.02
300.852	-0.05
301.064	0.03
301.277	0.06
301.489	0.03
301.702	0.03
301.915	0.03
302.127	-0.01
302.34	0.05
302.552	0.03
302.765	-0.04
302.977	0.05
303.19	-0.04
303.402	-0
303.615	0.03
303.827	-0.04
304.04	-0.06
304.252	0.05
304.464	-0.01
304.677	0.14
304.889	0.03
305.102	-0.01
305.314	-0.01
305.526	0.06
305.739	0
305.951	-0.02
306.163	-0
306.375	0.08
306.588	-0.03
306.8	-0.03
307.012	-0.08
307.224	0.01
307.436	0.06
307.649	-0.02
307.861	0.02
308.073	0.03
308.285	0.01
308.497	-0.02
308.709	-0.03
308.921	-0.01
309.133	0.03
309.346	0.01
309.558	-0.02
309.77	0.07
309.982	0.06
310.194	0.05
310.406	-0.01
310.617	0.06
310.829	0.01
311.041	0.06
311.253	-0.01
311.465	-0.01
311.677	0
311.889	-0
312.101	-0.04
312.313	0.06
312.524	0.05
312.736	-0.06
312.948	0
313.16	0.08
313.372	0.01
313.583	0.01
313.795	0
314.007	0.01
314.218	0.05
314.43	0
314.642	-0.05
314.853	-0.03
315.065	0.02
315.277	-0.01
315.488	0
315.7	0.02
315.912	0.02
316.123	0.01
316.335	-0.01
316.546	0.06
316.758	0.02
316.969	-0.01
317.181	0.01
317.392	0.01
317.604	0.09
317.815	0
318.026	-0.02
318.238	-0.03
318.449	0.08
318.661	-0.12
318.872	-0.03
319.083	-0.05
319.295	-0.01
319.506	-0.05
319.717	0.04
319.929	0.04
320.14	0.03
320.351	0.03
320.562	-0.03
320.774	-0
320.985	0.01
321.196	-0.05
321.407	-0.04
321.618	0.08
321.829	0.03
322.041	0.07
322.252	0.02
322.463	-0.02
322.674	0.02
322.885	-0.04
323.096	-0.05
323.307	-0.04
323.518	-0
323.729	-0.02
323.94	-0.03
324.151	-0.02
324.362	0
324.573	-0.01
324.784	-0.04
324.995	0.04
325.206	0.02
325.417	0.03
325.628	-0
325.838	-0
326.049	-0
326.26	-0.02
326.471	0.02
326.682	0.01
326.892	0.02
327.103	-0.06
327.314	-0.03
327.525	0.07
327.735	-0.03
327.946	0.05
328.157	-0.02
328.368	0.03
328.578	0
328.789	0.04
328.999	0.02
329.21	0
329.421	0.05
329.631	-0.07
329.842	0.01
330.052	0.05
330.263	0.01
330.473	0.05
330.684	0
330.894	-0.03
331.105	0.01
331.315	0.01
331.526	-0.04
331.736	0.07
331.947	-0.01
332.157	0.04
332.367	-0.04
332.578	-0.02
332.788	0.06
332.999	0.02
333.209	-0.01
333.419	-0.01
333.629	0.02
333.84	0.01
334.05	0
334.26	0.04
334.47	0.01
334.681	0.06
334.891	-0.07
335.101	0.03
335.311	0.09
335.521	-0.02
335.732	-0.07
335.942	0.07
336.152	0.04
336.362	0.02
336.572	0.01
336.782	0.07
336.992	-0.02
337.202	-0.01
337.412	-0.07
337.622	0.04
337.832	0.01
338.042	-0.02
338.252	0
338.462	0.01
338.672	0.01
338.882	0.02
339.092	0.03
339.302	0.03
339.511	0.05
339.721	-0.04
339.931	-0.02
340.141	0.05
340.351	0.05
340.561	0.06
340.77	-0.01
340.98	-0.01
341.19	0.03
341.4	-0.01
341.609	-0.01
341.819	-0.01
342.029	-0.06
342.238	-0.03
342.448	0
342.658	0.03
342.867	0
343.077	0
343.286	-0.02
343.496	0
343.706	0.04
343.915	-0.06
344.125	-0.01
344.334	0.04
344.544	-0.06
344.753	0.02
344.963	0.03
345.172	-0
345.381	-0.02
345.591	-0.02
345.8	0.01
346.01	0.04
346.219	0.07
346.428	-0.14
346.638	-0
346.847	-0.01
347.056	0.06
347.266	-0.03
347.475	0.01
347.684	0.03
347.893	-0.01
348.103	0
348.312	-0.01
348.521	-0.03
348.73	0
348.94	-0.02
349.149	-0.03
349.358	-0.01
349.567	-0.02
349.776	-0.03
349.985	-0.03
350.194	0.06
350.403	0.02
350.612	-0.06
350.821	-0.04
351.03	-0
351.239	-0.06
351.448	-0.01
351.657	-0.03
351.866	0.09
352.075	0.01
352.284	0.02
352.493	-0
352.702	0.04
352.911	-0.03
353.12	0.03
353.329	-0.03
353.538	0.02
353.746	0
353.955	-0.01
354.164	0.01
354.373	-0
354.582	-0.01
354.79	-0
354.999	0.02
355.208	-0.03
355.416	0.02
355.625	-0.03
355.834	0.02
356.042	-0
356.251	-0.02
356.46	-0.02
356.668	0.03
356.877	0.07
357.085	0.05
357.294	-0.08
357.503	0.04
357.711	-0.02
357.92	0.07
358.128	-0.03
358.337	-0.01
358.545	0.02
358.754	-0.02
358.962	-0
359.17	0.01
359.379	-0
359.587	0.01
359.796	-0
360.004	0.04
360.212	-0.01
360.421	0.07
360.629	-0
360.837	0.05
361.046	0.02
361.254	0.07
361.462	0.03
361.67	-0.07
361.879	0.01
362.087	0.05
362.295	0.03
362.503	-0.03
362.711	-0.03
362.92	-0.02
363.128	-0.03
363.336	-0.04
363.544	-0.03
363.752	-0.03
363.96	-0
364.168	-0.04
364.376	0.01
364.584	0.02
364.792	0.05
365	0.04
365.208	-0.01
365.416	0
365.624	0
365.832	-0
366.04	0
366.248	0.03
366.456	0.01
366.664	0.02
366.872	0.01
367.079	-0.01
367.287	0.01
367.495	0.01
367.703	0.02
367.911	-0
368.118	-0.01
368.326	0.02
368.534	-0.02
368.742	0.09
368.949	-0.08
369.157	-0.06
369.365	0.02
369.572	-0.01
369.78	-0
369.988	0.04
370.195	0.03
370.403	0.06
370.61	-0.04
370.818	0.01
371.026	0.07
371.233	-0.06
371.441	0.01
371.648	-0.03
371.856	0.04
372.063	0.02
372.271	-0.03
372.478	-0
372.685	-0.04
372.893	0.06
373.1	-0.01
373.308	-0.06
373.515	0.11
373.722	0.02
373.93	0.01
374.137	0.05
374.344	0.08
374.552	0.06
374.759	0.05
374.966	0.01
375.173	-0.02
375.381	0.04
375.588	-0.05
375.795	-0.05
376.002	-0.01
376.209	-0.02
376.417	-0.03
376.624	-0.01
376.831	0.04
377.038	0
377.245	-0.1
377.452	-0.01
377.659	0.02
377.866	-0.04
378.073	-0.04
378.28	-0.01
378.487	0.02
378.694	0.02
378.901	0.05
379.108	-0.03
379.315	-0.02
379.522	0.06
379.729	0.02
379.936	-0
380.143	-0.01
380.35	0
380.557	0
380.763	-0
380.97	0.01
381.177	-0.01
381.384	0.03
381.591	-0.03
381.797	0.04
382.004	0
382.211	0
382.418	-0.03
382.624	0.07
382.831	0.07
383.038	-0.01
383.244	0.01
383.451	-0
383.658	-0.03
383.864	0.01
384.071	-0.01
384.277	0.05
384.484	-0.02
384.69	0.03
384.897	-0.03
385.103	0.01
385.31	-0.02
385.516	-0.03
385.723	-0.05
385.929	-0.03
386.136	-0.04
386.342	0.03
386.549	-0.01
386.755	0.06
386.961	0.01
387.168	-0.04
387.374	-0.02
387.58	0.04
387.787	-0.01
387.993	-0
388.199	0.01
388.406	-0.02
388.612	0.02
388.818	-0.01
389.024	-0.02
389.231	-0.02
389.437	0.06
389.643	0.03
389.849	-0.01
390.055	0.02
390.261	0.02
390.467	-0.02
390.674	-0.08
390.88	0.02
391.086	0.04
391.292	-0.03
391.498	0.06
391.704	0
391.91	-0
392.116	-0.01
392.322	-0.07
392.528	-0.01
392.734	-0
392.94	0.02
393.146	-0.01
393.352	0.05
393.557	-0.03
393.763	0.01
393.969	-0
394.175	0.01
394.381	0.01
394.587	-0.05
394.792	-0.02
394.998	0.02
395.204	0.07
395.41	-0.03
395.615	-0.01
395.821	0.03
396.027	0.03
396.233	-0.05
396.438	0.02
396.644	0.03
396.85	0.07
397.055	-0.01
397.261	0
397.466	0.07
397.672	-0.02
397.878	0.02
398.083	0.03
398.289	-0.07
398.494	0.03
398.7	0.01
398.905	-0.1
399.111	0.06
399.316	-0.06
399.522	-0.02
399.727	-0.02
399.932	0.01
400.138	0.02
400.343	0.07
400.549	0.02
400.754	-0.02
400.959	0.01
401.165	-0
401.37	0.01
401.575	0.02
401.78	0
401.986	-0.04
402.191	-0.02
402.396	-0
402.601	0.03
402.807	0.02
403.012	0.03
403.217	-0.02
403.422	-0.04
403.627	-0.02
403.832	-0.05
404.037	0.1
404.243	0
404.448	-0.01
404.653	-0.01
404.858	0.02
405.063	0.04
405.268	0
405.473	-0.03
405.678	-0.03
405.883	0.11
406.088	0
406.293	-0.04
406.498	-0.06
406.703	0.01
406.907	-0.02
407.112	-0.03
407.317	0.01
407.522	0.03
407.727	-0.07
407.932	0.03
408.136	0.07
408.341	-0.03
408.546	0.02
408.751	0.02
408.956	-0.04
409.16	0.01
409.365	0.04
409.57	-0
409.774	0
409.979	0.02
410.184	0.01
410.388	-0.05
410.593	0.06
410.798	0.01
411.002	-0.01
411.207	0.06
411.411	0.01
411.616	-0.02
411.82	0.03
412.025	0.01
412.229	-0.05
412.434	0.06
412.638	0.01
412.843	-0.05
413.047	0.06
413.252	-0.06
413.456	0.03
413.66	0.03
413.865	-0.08
414.069	0.04
414.273	-0.01
414.478	-0.03
414.682	-0.01
414.886	-0.02
415.091	-0.06
415.295	-0.08
415.499	0
415.703	-0.04
415.908	0.01
416.112	-0.07
416.316	0.06
416.52	0
416.724	-0.05
416.929	0.01
417.133	0.07
417.337	-0.06
417.541	-0.01
417.745	-0.01
417.949	0.02
418.153	0.01
418.357	-0.05
418.561	0.1
418.765	0
418.969	0.09
419.173	0.05
419.377	-0.06
419.581	0.09
419.785	-0.01
419.989	-0.04
420.193	-0.04
420.397	-0.02
420.601	0.08
420.804	0.03
421.008	-0
421.212	-0.02
421.416	0.08
421.62	-0.03
421.823	-0.04
422.027	0.07
422.231	0
422.435	-0.02
422.638	0.02
422.842	-0.02
423.046	-0.03
423.249	0.07
423.453	0.05
423.657	-0.01
423.86	-0.06
424.064	0
424.268	0.05
424.471	-0.05
424.675	0.06
424.878	0.02
425.082	-0.01
425.285	0.06
425.489	-0.02
425.692	-0
425.896	-0.04
426.099	0.03
426.303	0.02
426.506	-0.04
426.71	0
426.913	0.01
427.116	0.02
427.32	0
427.523	0.06
427.726	0.08
427.93	-0.07
428.133	-0.01
428.336	-0.05
428.54	-0.08
428.743	0.02
428.946	0.06
429.149	-0.02
429.353	0.02
429.556	-0.01
429.759	-0.02
429.962	-0.05
430.165	-0.03
430.368	-0.01
430.571	-0.06
430.775	-0
430.978	-0.02
431.181	-0.03
431.384	0
431.587	-0.01
431.79	0.01
431.993	0.02
432.196	-0
432.399	-0.06
432.602	0.06
432.805	-0.06
433.008	-0.03
433.211	-0.04
433.414	-0
433.616	-0.01
433.819	-0.03
434.022	-0.04
434.225	0
434.428	0.02
434.631	0.08
434.833	-0.06
435.036	0.02
435.239	0.04
435.442	-0.04
435.645	-0.01
435.847	-0.03
436.05	0.02
436.253	-0.01
436.455	-0.05
436.658	0
436.861	0.02
437.063	-0.04
437.266	-0.04
437.468	-0.01
437.671	0.14
437.874	-0
438.076	-0.1
438.279	-0.08
438.481	0
438.684	-0.07
438.886	0.05
439.089	-0.08
439.291	-0.06
439.494	0.01
439.696	-0.05
439.899	0
440.101	-0
440.303	-0.05
440.506	0.01
440.708	0
440.91	0.03
441.113	-0.05
441.315	0.04
441.517	-0.06
441.72	0.06
441.922	-0.07
442.124	-0.02
442.326	0
442.529	0.07
442.731	-0.07
442.933	0.06
443.135	-0.04
443.337	-0.05
443.539	-0.03
443.742	-0.02
443.944	0.05
444.146	-0.01
444.348	-0.05
444.55	-0.01
444.752	-0.05
444.954	-0.06
445.156	0.05
445.358	-0.05
445.56	0.02
445.762	-0
445.964	-0.01
446.166	-0.03
446.368	-0.03
446.57	0.06
446.772	-0.01
446.974	0.01
447.175	-0.03
447.377	-0.02
447.579	-0.06
447.781	-0.08
447.983	0.12
448.184	-0.02
448.386	0.02
448.588	-0.07
448.79	0.01
448.991	-0.05
449.193	-0.04
449.395	-0.01
449.597	0.02
449.798	-0.01
450	-0.04
450.202	0.01
450.403	0
450.605	0
450.806	0.02
451.008	-0.07
451.21	-0.01
451.411	-0.04
451.613	-0.04
451.814	0
452.016	0.03
452.217	-0.01
452.419	0.05
452.62	-0.03
452.821	-0
453.023	0.06
453.224	0.02
453.426	-0
453.627	0.03
453.828	0.04
454.03	0.03
454.231	0.02
454.432	-0.07
454.634	0.05
454.835	-0.05
455.036	-0.04
455.238	0.04
455.439	0.08
455.64	-0.05
455.841	-0.05
456.042	0.1
456.244	0.06
456.445	-0
456.646	-0.09
456.847	-0.04
457.048	0.03
457.249	0.05
457.45	0.2
457.651	-0.06
457.852	0.05
458.054	0.01
458.255	-0
458.456	-0
458.657	0.02
458.858	-0.06
459.058	0.02
459.259	0.05
459.46	0
459.661	-0.04
459.862	0.11
460.063	-0.03
460.264	0.1
460.465	-0.05
460.666	0.1
460.866	0.01
461.067	0.04
461.268	0.02
461.469	-0.04
461.67	-0.03
461.87	-0.02
462.071	-0.02
462.272	-0.04
462.473	0.01
462.673	0.06
462.874	-0.05
463.075	-0
463.275	-0.02
463.476	0.02
463.676	0
463.877	0
464.078	0.01
464.278	0.04
464.479	-0.05
464.679	-0.01
464.88	-0.03
465.08	0.1
465.281	-0.06
465.481	-0.02
465.682	-0.03
465.882	0.02
466.083	0.01
466.283	-0.01
466.483	0.01
466.684	-0.07
466.884	-0.03
467.085	0.02
467.285	0
467.485	-0.03
467.686	-0.02
467.886	-0.11
468.086	0
468.286	0.03
468.487	0.04
468.687	-0.06
468.887	-0.01
469.087	0.05
469.287	-0
469.488	-0.09
469.688	0.02
469.888	0.05
470.088	0.04
470.288	0.08
470.488	0.04
470.688	-0.07
470.888	-0.04
471.088	-0.04
471.288	0.07
471.488	0.02
471.688	0.04
471.888	-0.03
472.088	0.04
472.288	0.02
472.488	-0.04
472.688	-0.03
472.888	-0.03
473.088	-0
473.288	0
473.488	0.02
473.688	0.07
473.887	0.01
474.087	-0.07
474.287	0.01
474.487	-0.04
474.687	0.01
474.886	-0.01
475.086	0.02
475.286	0.03
475.486	0.01
475.685	-0.02
475.885	0.01
476.085	-0.01
476.284	-0
476.484	-0.04
476.684	0.03
476.883	0.05
477.083	0.04
477.282	-0.06
477.482	0.05
477.681	0.04
477.881	0.03
478.08	-0.06
478.28	-0.01
478.479	0.02
478.679	0.07
478.878	-0.03
479.078	-0.03
479.277	-0.04
479.477	0.03
479.676	0.06
479.875	-0.01
480.075	-0.07
480.274	0.01
480.473	0.02
480.673	-0.07
480.872	0.05
481.071	-0.02
481.271	-0.02
481.47	0.01
481.669	-0.01
481.868	-0.03
482.067	-0.05
482.267	-0.03
482.466	-0
482.665	-0.04
482.864	-0.04
483.063	-0.01
483.262	0.02
483.461	0.03
483.661	0.04
483.86	0
484.059	-0
484.258	-0
484.457	0.01
484.656	0.01
484.855	0.03
485.054	-0.04
485.253	-0.02
485.452	-0.03
485.651	0
485.849	-0.01
486.048	-0.01
486.247	0
486.446	-0
486.645	-0.04
486.844	-0.05
487.043	-0.01
487.241	0.01
487.44	-0.05
487.639	-0.02
487.838	-0
488.037	-0.01
488.235	0.03
488.434	0.01
488.633	0
488.831	0.02
489.03	0.02
489.229	0.02
489.427	-0.02
489.626	0.01
489.825	0.03
490.023	-0.01
490.222	-0.01
490.42	0
490.619	0.03
490.817	-0
491.016	-0.03
491.214	0.04
491.413	-0.01
491.611	-0.01
491.81	-0.01
492.008	0
492.207	0.02
492.405	-0.01
492.604	-0.04
492.802	-0.01
493	-0.01
493.199	-0.02
493.397	0.01
493.595	-0.01
493.794	-0.03
493.992	0.04
494.19	-0
494.388	0.02
494.587	-0.02
494.785	0.02
494.983	-0.06
495.181	-0
495.379	-0.02
495.578	-0.01
495.776	0.02
495.974	0.02
496.172	-0.02
496.37	-0.02
496.568	-0.03
496.766	-0.01
496.964	0.02
497.162	-0
497.36	-0.03
497.558	0.01
497.756	0.01
497.954	-0.01
498.152	-0.02
498.35	0.01
498.548	-0.03
498.746	-0
498.944	-0.03
499.142	0
499.34	-0.02
499.538	-0.01
499.736	-0.01
499.933	0.03
500.131	0.04
500.329	-0.01
500.527	0.02
500.725	0.02
500.922	0.02
501.12	-0
501.318	0.01
501.516	-0.03
501.713	-0.01
501.911	-0.02
502.109	-0.05
502.306	0.02
502.504	-0.01
502.701	-0.03
502.899	-0.01
503.097	0.04
503.294	0.01
503.492	-0.02
503.689	0.01
503.887	-0
504.084	0.03
504.282	0.01
504.479	-0.04
504.677	0.01
504.874	-0.02
505.072	-0.01
505.269	-0.01
505.466	0.03
505.664	-0.01
505.861	-0.05
506.059	-0.05
506.256	0.02
506.453	-0.02
506.651	0.02
506.848	0.03
507.045	0
507.242	0
507.44	-0.03
507.637	-0.01
507.834	-0.01
508.031	0.01
508.229	-0.05
508.426	-0.01
508.623	0.03
508.82	-0.01
509.017	-0.02
509.214	-0.01
509.411	-0.01
509.608	-0.02
509.805	-0.01
510.003	-0.03
510.2	-0.01
510.397	0.02
510.594	-0.01
510.791	-0.01
510.988	-0.02
511.184	0.01
511.381	-0.03
511.578	-0.04
511.775	0.02
511.972	-0
512.169	-0.02
512.366	0
512.563	-0
512.76	-0.01
512.956	0
513.153	-0.02
513.35	0.01
513.547	-0.02
513.744	-0.02
513.94	-0.04
514.137	0.02
514.334	0.02
514.53	-0
514.727	0
514.924	0.03
515.12	-0.02
515.317	-0.02
515.514	-0.01
515.71	-0.05
515.907	-0.01
516.103	-0.01
516.3	0.01
516.497	0.03
516.693	0.02
516.89	-0.01
517.086	-0.03
517.283	0.06
517.479	-0.01
517.676	-0.02
517.872	-0.01
518.068	-0.01
518.265	-0.03
518.461	-0.01
518.658	-0.05
518.854	0
519.05	-0.03
519.247	-0.02
519.443	0.01
519.639	0.02
519.836	0.01
520.032	-0
520.228	-0
520.424	0.04
520.621	0.01
520.817	0
521.013	0
521.209	0.02
521.405	0.05
521.601	-0.01
521.798	0
521.994	0.01
522.19	-0.01
522.386	-0.03
522.582	0
522.778	0.01
522.974	-0.02
523.17	-0.01
523.366	-0.02
523.562	0.04
523.758	0.01
523.954	-0.02
524.15	-0.01
524.346	0.02
524.542	-0.01
524.738	-0.01
524.934	-0
525.129	-0.08
525.325	0
525.521	-0.01
525.717	0.01
525.913	-0.02
526.109	-0.02
526.304	-0
526.5	0.01
526.696	0
526.892	-0.02
527.087	0
527.283	-0.03
527.479	0.01
527.674	-0.02
527.87	-0.01
528.066	-0
528.261	0.03
528.457	0.03
528.653	-0.01
528.848	-0.02
529.044	0
529.239	-0.01
529.435	0.01
529.63	-0
529.826	0.06
530.021	0.01
530.217	0.02
530.412	-0.01
530.608	-0
530.803	-0.01
530.999	-0
531.194	-0.05
531.389	0.02
531.585	-0.05
531.78	-0.01
531.975	-0.02
532.171	0.01
532.366	-0.02
532.561	-0.02
532.757	-0.03
532.952	-0.01
533.147	0
533.342	-0
533.538	-0.02
533.733	0.02
533.928	0
534.123	-0.01
534.318	-0.02
534.513	0
534.709	0.01
534.904	-0.01
535.099	-0.01
535.294	0
535.489	0.01
535.684	0
535.879	-0.05
536.074	0
536.269	-0.01
536.464	0
536.659	-0.02
536.854	0
537.049	-0
537.244	0.01
537.439	-0.01
537.634	0.04
537.828	0
538.023	-0.02
538.218	-0.04
538.413	-0.01
538.608	-0.02
538.803	-0
538.997	-0.02
539.192	0.03
539.387	0.01
539.582	-0
539.776	0
539.971	-0.03
540.166	0.01
540.36	-0.01
540.555	-0.03
540.75	-0.01
540.944	-0
541.139	-0.03
541.334	-0
541.528	0
541.723	-0
541.917	-0.02
542.112	-0.04
542.306	-0.01
542.501	-0.02
542.695	0
542.89	-0.01
543.084	-0.01
543.279	-0.02
543.473	-0.02
543.668	-0.02
543.862	-0.01
544.056	0.01
544.251	-0.01
544.445	-0.01
544.64	-0.02
544.834	-0.02
545.028	0
545.222	0.01
545.417	0.01
545.611	0.01
545.805	-0.01
546	0
546.194	-0.01
546.388	-0.01
546.582	0.02
546.776	0.01
546.97	-0.01
547.165	0.01
547.359	0.04
547.553	-0.03
547.747	-0
547.941	0.01
548.135	0
548.329	0.02
548.523	0.01
548.717	0
548.911	-0.03
549.105	-0.02
549.299	0.01
549.493	0.02
549.687	-0
549.881	0.01
550.075	-0
550.269	-0.03
550.463	0.04
550.657	-0.01
550.85	-0.01
551.044	-0.01
551.238	0.02
551.432	-0.03
551.626	-0.03
551.82	0.01
552.013	-0.02
552.207	-0
552.401	-0.02
552.594	0
552.788	0.01
552.982	-0
553.176	-0.02
553.369	0.01
553.563	0.01
553.756	-0.05
553.95	-0.01
554.144	-0
554.337	0
554.531	0.01
554.724	0
554.918	0
555.111	0.01
555.305	-0.01
555.498	0.05
555.692	0.01
555.885	-0.02
556.079	0
556.272	-0
556.466	0.01
556.659	-0
556.852	-0.01
557.046	-0.02
557.239	0.03
557.432	-0.02
557.626	-0.04
557.819	0
558.012	0.02
558.206	0
558.399	0
558.592	0.03
558.785	-0.01
558.979	0.03
559.172	-0.01
559.365	0.02
559.558	0.01
559.751	-0
559.944	0.01
560.138	0
560.331	-0
560.524	-0.02
560.717	-0.01
560.91	0.01
561.103	0.01
561.296	0
561.489	0.01
561.682	-0.01
561.875	0.02
562.068	0.01
562.261	0.01
562.454	0.02
562.647	0.01
562.84	-0.01
563.032	0
563.225	0
563.418	0.01
563.611	-0
563.804	-0.01
563.997	-0.02
564.19	-0.02
564.382	-0.06
564.575	0.01
564.768	-0.02
564.961	-0.02
565.153	-0.02
565.346	0.03
565.539	0.02
565.731	0
565.924	0.01
566.117	0.01
566.309	0.03
566.502	-0.01
566.695	0.02
566.887	-0.01
567.08	-0.03
567.272	-0.02
567.465	-0.01
567.657	0.03
567.85	-0.01
568.042	0.01
568.235	0.03
568.427	-0.02
568.62	0
568.812	0.02
569.005	0
569.197	-0.04
569.389	0.02
569.582	-0.01
569.774	-0
569.966	-0.04
570.159	-0.02
570.351	-0
570.543	-0.02
570.736	-0
570.928	-0.02
571.12	0.01
571.312	-0.02
571.505	-0.02
571.697	0.04
571.889	-0.04
572.081	-0
572.273	-0.04
572.465	0.01
572.658	-0.02
572.85	0
573.042	-0.02
573.234	-0
573.426	0.04
573.618	-0.04
573.81	0
574.002	0.02
574.194	0.05
574.386	-0.04
574.578	-0.08
574.77	-0.03
574.962	-0.02
575.154	-0.04
575.346	-0.01
575.538	-0.01
575.729	-0.03
575.921	-0.02
576.113	-0.02
576.305	0.03
576.497	-0.04
576.689	-0.01
576.88	-0.05
577.072	0
577.264	-0.03
577.456	-0.04
577.647	-0.07
577.839	-0.02
578.031	0.06
578.223	-0.03
578.414	-0.03
578.606	0.01
578.798	0.01
578.989	-0.01
579.181	-0.02
579.372	0.01
579.564	-0.02
579.755	-0.01
579.947	0.01
580.139	0.03
580.33	-0.03
580.522	-0
580.713	-0.08
580.905	-0.01
581.096	0.03
581.287	-0.01
581.479	0
581.67	0.01
581.862	0.01
582.053	-0.01
582.244	-0.04
582.436	-0.01
582.627	0.01
582.818	-0.04
583.01	-0.03
583.201	0
583.392	0.02
583.583	0.01
583.775	-0.04
583.966	-0.03
584.157	-0.02
584.348	-0.03
584.54	-0.04
584.731	-0.01
584.922	-0.01
585.113	-0.02
585.304	0
585.495	-0.01
585.686	-0
585.877	-0
586.068	0
586.259	-0
586.45	-0
586.641	-0.01
586.832	-0.05
587.023	-0
587.214	-0.02
587.405	0
587.596	-0.04
587.787	0.05
587.978	-0.01
588.169	-0.05
588.36	-0.03
588.551	0.01
588.742	-0.03
588.932	-0.01
589.123	-0.03
589.314	0.03
589.505	0.01
589.696	0
589.886	-0.03
590.077	-0.03
590.268	0.01
590.458	-0.03
590.649	-0.03
590.84	0.01
591.03	-0.03
591.221	-0.06
591.412	-0.06
591.602	0
591.793	0.01
591.984	-0.03
592.174	-0.02
592.365	0.04
592.555	-0.03
592.746	0.01
592.936	0.02
593.127	-0.01
593.317	0.02
593.508	0
593.698	-0.03
593.889	-0
594.079	-0.04
594.269	-0.03
594.46	-0.01
594.65	-0.01
594.84	-0
595.031	-0.03
595.221	-0.02
595.411	-0.04
595.602	0.03
595.792	-0
595.982	-0
596.172	0.03
596.363	0
596.553	-0.01
596.743	-0.01
596.933	-0.01
597.123	0.03
597.314	-0.03
597.504	-0.02
597.694	0.01
597.884	0.02
598.074	-0.02
598.264	-0.03
598.454	0
598.644	-0
598.834	0
599.024	-0.03
599.214	-0.02
599.404	-0.01
599.594	-0.02
599.784	-0.03
599.974	0.01
600.164	0.03
600.354	-0.03
600.544	-0.05
600.734	0.01
600.924	0.02
601.114	-0.02
601.303	0
601.493	-0.01
601.683	-0.04
601.873	0
602.063	-0.04
602.252	0.02
602.442	-0.08
602.632	-0.01
602.821	-0.06
603.011	0.02
603.201	-0.03
603.39	-0.03
603.58	-0.04
603.77	0
603.959	0.03
604.149	0
604.339	-0.01
604.528	0
604.718	0.01
604.907	-0.02
605.097	-0
605.286	-0.05
605.476	0.02
605.665	0.04
605.855	-0.02
606.044	0.03
606.234	0.02
606.423	0.01
606.612	-0.04
606.802	0
606.991	0.02
607.181	-0.01
607.37	-0.05
607.559	-0.01
607.749	-0.05
607.938	-0
608.127	-0.01
608.316	-0.02
608.506	-0
608.695	-0.02
608.884	-0.01
609.073	0
609.263	0.01
609.452	-0.01
609.641	-0.01
609.83	-0.03
610.019	0.01
610.208	-0.03
610.397	-0.01
610.586	0.01
610.775	-0.03
610.965	-0.01
611.154	-0.03
611.343	-0
611.532	0.01
611.721	-0.03
611.91	-0.06
612.099	0.01
612.287	-0.02
612.476	-0.05
612.665	-0
612.854	-0.03
613.043	0.03
613.232	-0.01
613.421	-0.05
613.61	0.02
613.798	-0.04
613.987	0.02
614.176	-0
614.365	0.02
614.554	-0
614.742	0.02
614.931	-0.02
615.12	0.02
615.309	0.01
615.497	0.04
615.686	-0.07
615.875	-0.04
616.063	0.01
616.252	-0.06
616.44	-0.03
616.629	-0.02
616.818	-0
617.006	0
617.195	-0
617.383	0.01
617.572	-0.01
617.76	-0.03
617.949	-0.04
618.137	0
618.326	0.02
618.514	-0.05
618.703	-0.04
618.891	0.04
619.079	-0.05
619.268	0.03
619.456	-0.02
619.644	0.03
619.833	-0.01
620.021	0
620.209	-0.05
620.398	0
620.586	-0.01
620.774	0.01
620.962	0.02
621.151	0.05
621.339	-0.02
621.527	-0.04
621.715	-0.06
621.903	-0.03
622.092	-0.05
622.28	0
622.468	0.02
622.656	-0.06
622.844	0.02
623.032	-0.04
623.22	-0.05
623.408	0.02
623.596	0.02
623.784	0.01
623.972	-0.04
624.16	-0.03
624.348	0.06
624.536	-0.01
624.724	-0.03
624.912	0.05
625.1	0.02
625.288	-0.03
625.476	-0.01
625.664	0.05
625.851	-0.05
626.039	-0.04
626.227	0.01
626.415	0.01
626.603	-0.05
626.79	-0.01
626.978	-0.01
627.166	0.02
627.354	-0.03
627.541	-0.02
627.729	-0.08
627.917	-0.03
628.104	0.04
628.292	0
628.48	-0.01
628.667	0
628.855	0.02
629.042	0.01
629.23	-0.04
629.418	-0.01
629.605	-0.04
629.793	-0.02
629.98	-0.02
630.168	0.02
630.355	0.01
630.543	0.01
630.73	-0.04
630.917	0.02
631.105	0.02
631.292	-0.02
631.48	-0.02
631.667	0.02
631.854	-0
632.042	0
632.229	-0.06
632.416	0
632.604	-0.01
632.791	-0.03
632.978	0.02
633.165	0.02
633.353	0.07
633.54	-0.01
633.727	-0.06
633.914	-0.06
634.101	-0.02
634.289	-0
634.476	0.01
634.663	-0.02
634.85	-0.02
635.037	-0.05
635.224	-0.05
635.411	0.04
635.598	0.01
635.785	-0.02
635.972	-0.01
636.159	0.04
636.346	-0.04
636.533	-0
636.72	-0
636.907	0
637.094	0.04
637.281	-0
637.468	-0.02
637.655	-0.03
637.842	-0.02
638.029	-0.04
638.215	0.03
638.402	0.02
638.589	-0.03
638.776	-0.02
638.963	-0.02
639.149	0.05
639.336	0.06
639.523	-0.02
639.709	-0.01
639.896	-0.03
640.083	0
640.27	0.01
640.456	-0.02
640.643	0.01
640.829	-0.05
641.016	0
641.203	-0.05
641.389	0.01
641.576	-0.01
641.762	-0.02
641.949	-0.03
642.135	0.03
642.322	0.01
642.508	-0.04
642.695	-0
642.881	-0.01
643.068	0.01
643.254	-0
643.441	0.03
643.627	-0.03
643.813	-0.06
644	0.05
644.186	-0.03
644.372	-0.04
644.559	0.03
644.745	-0
644.931	-0.04
645.118	-0
645.304	0.01
645.49	-0.01
645.676	-0.01
645.862	0
646.049	0.04
646.235	-0.02
646.421	0.06
646.607	0.05
646.793	0.01
646.979	-0.02
647.165	0.03
647.352	-0.02
647.538	0.06
647.724	-0.01
647.91	0.01
648.096	0.04
648.282	0.06
648.468	-0.01
648.654	-0
648.84	-0
649.026	-0.03
649.212	-0
649.397	-0.01
649.583	-0.02
649.769	0.04
649.955	-0.03
650.141	-0
650.327	0.05
650.513	-0.05
650.698	0.01
650.884	-0.07
651.07	0.02
651.256	0.04
651.442	-0.01
651.627	-0.05
651.813	0.01
651.999	0.01
652.184	0.01
652.37	-0.01
652.556	-0.05
652.741	0.04
652.927	-0.07
653.113	-0.02
653.298	0
653.484	-0.02
653.669	-0.04
653.855	-0.01
654.04	0.02
654.226	-0.01
654.412	0
654.597	-0.07
654.782	-0
654.968	0.03
655.153	-0.01
655.339	-0.02
655.524	-0.03
655.71	0.04
655.895	-0.02
656.08	0.01
656.266	0.02
656.451	0.01
656.636	-0.04
656.822	-0.03
657.007	-0.03
657.192	-0.05
657.378	-0.03
657.563	-0.02
657.748	0.05
657.933	0.02
658.118	-0.04
658.304	-0.01
658.489	0.03
658.674	0.02
658.859	-0.03
659.044	0.02
659.229	-0.01
659.414	-0.01
659.599	-0.03
659.785	-0.05
659.97	0.01
660.155	0.07
660.34	0.01
660.525	-0.02
660.71	0.02
660.895	0.02
661.08	-0.03
661.264	0.01
661.449	0.03
661.634	0.01
661.819	0.02
662.004	0.03
662.189	-0.06
662.374	-0.01
662.559	-0.02
662.743	-0.06
662.928	-0
663.113	-0.03
663.298	-0.05
663.483	0.01
663.667	0.02
663.852	-0.03
664.037	0.02
664.221	0.02
664.406	0.03
664.591	0.01
664.775	-0.01
664.96	0.06
665.145	-0
665.329	0.02
665.514	-0
665.698	-0
665.883	-0.04
666.068	0.06
666.252	0.02
666.437	-0.06
666.621	0.02
666.806	0.03
666.99	0
667.174	0
667.359	0.06
667.543	0.01
667.728	0.03
667.912	-0.02
668.096	0.05
668.281	-0.02
668.465	0
668.649	-0
668.834	-0.06
669.018	0.01
669.202	0.01
669.387	-0.03
669.571	0.07
669.755	0
669.939	0.01
670.124	0
670.308	0.07
670.492	0.07
670.676	0.07
670.86	0.01
671.044	-0.01
671.228	0.08
671.413	-0.01
671.597	-0.02
671.781	0.01
671.965	0.06
672.149	-0.01
672.333	-0.02
672.517	-0.01
672.701	0.05
672.885	-0
673.069	-0
673.253	0.08
673.437	-0.01
673.621	0
673.804	0.03
673.988	0.04
674.172	0.04
674.356	-0.02
674.54	-0
674.724	0.11
674.908	0
675.091	0.08
675.275	0.02
675.459	0.05
675.643	0.1
675.826	0.05
676.01	0.05
676.194	0.01
676.377	0.09
676.561	0.06
676.745	0.07
676.928	0.02
677.112	0.07
677.296	-0.02
677.479	0.05
677.663	0.04
677.846	0.09
678.03	0.03
678.213	0.03
678.397	0.08
678.58	0.05
678.764	0.06
678.947	0.01
679.131	0
679.314	0.1
679.498	0.04
679.681	0.08
679.865	0.09
680.048	0.06
680.231	0.02
680.415	0.07
680.598	0.01
680.781	0.03
680.965	0.04
681.148	0.12
681.331	0.02
681.514	0.05
681.698	0.06
681.881	0.08
682.064	0.05
682.247	0.13
682.43	-0.01
682.614	0.07
682.797	0.11
682.98	0.09
683.163	0.04
683.346	0.13
683.529	0.08
683.712	0.07
683.895	0.12
684.078	0.06
684.261	0.06
684.444	0.08
684.627	0.13
684.81	0.1
684.993	0.08
685.176	0.1
685.359	0.06
685.542	0.08
685.725	0.18
685.908	0.07
686.091	0.13
686.274	0.14
686.457	0.11
686.639	0.09
686.822	0.12
687.005	0.14
687.188	0.15
687.371	0.21
687.553	0.13
687.736	0.13
687.919	0.21
688.102	0.19
688.284	0.1
688.467	0.15
688.65	0.1
688.832	0.13
689.015	0.11
689.197	0.06
689.38	0.2
689.563	0.23
689.745	0.09
689.928	0.09
690.11	0.17
690.293	0.16
690.475	0.09
690.658	0.2
690.84	0.14
691.023	0.14
691.205	0.12
691.388	0.12
691.57	0.22
691.752	0.22
691.935	0.07
692.117	0.11
692.3	0.21
692.482	0.17
692.664	0.15
692.847	0.2
693.029	0.25
693.211	0.22
693.393	0.2
693.576	0.21
693.758	0.15
693.94	0.2
694.122	0.2
694.304	0.2
694.487	0.27
694.669	0.28
694.851	0.15
695.033	0.2
695.215	0.2
695.397	0.17
695.579	0.27
695.761	0.24
695.943	0.2
696.125	0.32
696.308	0.3
696.49	0.16
696.671	0.33
696.853	0.28
697.035	0.4
697.217	0.23
697.399	0.33
697.581	0.24
697.763	0.29
697.945	0.27
698.127	0.31
698.309	0.36
698.491	0.29
698.672	0.38
698.854	0.33
699.036	0.47
699.218	0.33
699.399	0.42
699.581	0.32
699.763	0.32
699.945	0.4
700.126	0.3
700.308	0.41
700.49	0.37
700.671	0.32
700.853	0.36
701.035	0.42
701.216	0.39
701.398	0.38
701.579	0.44
701.761	0.49
701.943	0.38
702.124	0.38
702.306	0.43
702.487	0.62
702.669	0.46
702.85	0.46
703.031	0.37
703.213	0.62
703.394	0.59
703.576	0.44
703.757	0.59
703.938	0.61
704.12	0.7
704.301	0.55
704.483	0.51
704.664	0.58
704.845	0.64
705.026	0.61
705.208	0.58
705.389	0.66
705.57	0.62
705.751	0.63
705.933	0.69
706.114	0.75
706.295	0.66
706.476	0.62
706.657	0.81
706.838	0.73
707.02	0.77
707.201	0.62
707.382	0.7
707.563	0.74
707.744	0.7
707.925	0.64
708.106	0.71
708.287	0.82
708.468	0.9
708.649	0.86
708.83	0.87
709.011	0.88
709.192	0.9
709.373	0.82
709.554	0.85
709.734	0.97
709.915	0.99
710.096	0.95
710.277	0.87
710.458	0.98
710.639	1.03
710.819	0.94
711	0.99
711.181	1.13
711.362	1.1
711.542	1.11
711.723	1.03
711.904	1.12
712.085	1.09
712.265	1.15
712.446	1.09
712.627	1.13
712.807	1.25
712.988	1.3
713.168	1.06
713.349	1.3
713.53	1.13
713.71	1.25
713.891	1.3
714.071	1.35
714.252	1.37
714.432	1.37
714.613	1.29
714.793	1.44
714.974	1.59
715.154	1.62
715.334	1.58
715.515	1.63
715.695	1.42
715.876	1.58
716.056	1.63
716.236	1.58
716.417	1.7
716.597	1.62
716.777	1.89
716.957	1.76
717.138	1.9
717.318	1.68
717.498	1.79
717.678	1.89
717.859	1.95
718.039	1.8
718.219	2.01
718.399	1.97
718.579	2.04
718.759	2.06
718.939	2.06
719.12	2.14
719.3	2.11
719.48	2.1
719.66	2.18
719.84	2.35
720.02	2.3
720.2	2.28
720.38	2.46
720.56	2.58
720.74	2.44
720.92	2.54
721.1	2.62
721.279	2.69
721.459	2.54
721.639	2.58
721.819	2.75
721.999	2.76
722.179	2.79
722.359	2.67
722.538	2.95
722.718	2.82
722.898	2.93
723.078	3.02
723.257	2.91
723.437	3.16
723.617	3.18
723.797	3.18
723.976	3.12
724.156	3.43
724.336	3.29
724.515	3.5
724.695	3.28
724.874	3.44
725.054	3.62
725.234	3.59
725.413	3.71
725.593	3.54
725.772	3.77
725.952	3.75
726.131	3.76
726.311	3.76
726.49	3.81
726.67	3.96
726.849	3.89
727.028	4.04
727.208	3.87
727.387	4.22
727.567	4.17
727.746	4.22
727.925	4.19
728.105	4.27
728.284	4.33
728.463	4.26
728.643	4.48
728.822	4.46
729.001	4.46
729.18	4.7
729.359	4.74
729.539	4.87
729.718	4.84
729.897	4.91
730.076	4.99
730.255	4.97
730.434	5.09
730.614	5.27
730.793	5.28
730.972	5.27
731.151	5.45
731.33	5.55
731.509	5.56
731.688	5.52
731.867	5.65
732.046	5.39
732.225	5.79
732.404	5.56
732.583	5.75
732.762	5.97
732.941	6.03
733.12	6.1
733.298	6.08
733.477	6.24
733.656	6.29
733.835	6.14
734.014	6.25
734.193	6.23
734.371	6.4
734.55	6.6
734.729	6.35
734.908	6.65
735.086	6.53
735.265	6.58
735.444	6.37
735.623	6.62
735.801	6.58
735.98	6.64
736.159	6.61
736.337	6.59
736.516	6.66
736.694	6.62
736.873	6.42
737.052	6.95
737.23	6.6
737.409	6.34
737.587	6.72
737.766	6.29
737.944	6.37
738.123	6.51
738.301	6.24
738.479	6.12
738.658	6.07
738.836	5.81
739.015	6
739.193	5.89
739.371	5.6
739.55	5.56
739.728	5.43
739.906	5.5
740.085	5.51
740.263	5.17
740.441	4.88
740.62	5.17
740.798	4.84
740.976	4.69
741.154	4.32
741.332	4.58
741.511	4.17
741.689	4.26
741.867	4.05
742.045	3.92
742.223	3.61
742.401	3.59
742.579	3.5
742.757	3.58
742.935	3.21
743.114	3.11
743.292	3.22
743.47	2.95
743.648	2.92
743.826	2.85
744.004	2.87
744.181	2.73
744.359	2.41
744.537	2.5
744.715	2.3
744.893	2.3
745.071	2.17
745.249	2.17
745.427	2.13
745.605	2.08
745.782	1.86
745.96	2.03
746.138	1.91
746.316	1.87
746.493	1.7
746.671	1.74
746.849	1.51
747.027	1.7
747.204	1.42
747.382	1.57
747.56	1.4
747.737	1.43
747.915	1.31
748.093	1.37
748.27	1.13
748.448	1.21
748.625	1.03
748.803	1.07
748.98	1.02
749.158	1.13
749.335	1.14
749.513	0.9
749.69	0.87
749.868	0.86
750.045	0.93
750.223	0.74
750.4	0.67
750.578	0.89
750.755	0.65
750.932	0.71
751.11	0.83
751.287	0.58
751.464	0.85
751.642	0.63
751.819	0.73
751.996	0.68
752.173	0.62
752.351	0.53
752.528	0.58
752.705	0.49
752.882	0.39
753.06	0.57
753.237	0.65
753.414	0.68
753.591	0.59
753.768	0.5
753.945	0.37
754.122	0.37
754.299	0.51
754.476	0.38
754.654	0.47
754.831	0.32
755.008	0.47
755.185	0.39
755.362	0.26
755.539	0.34
755.716	0.28
755.892	0.26
756.069	0.32
756.246	0.37
756.423	0.33
756.6	0.43
756.777	0.26
756.954	0.3
757.131	0.23
757.307	0.15
757.484	0.07
757.661	0.26
757.838	0.26
758.015	0.13
758.191	0.29
758.368	0.25
758.545	0.37
758.721	0.24
758.898	0.18
759.075	0.25
759.251	0.23
759.428	0.28
759.605	-0.01
759.781	0.09
759.958	0.09
760.134	0.22
760.311	0.14
760.488	0.28
760.664	0.29
760.841	0.11
761.017	0.13
761.194	0.19
761.37	0.16
761.547	0.15
761.723	0.12
761.899	0.2
762.076	-0.1
762.252	-0.07
762.429	0.09
762.605	0.15
762.781	0.04
762.958	0.1
763.134	-0.01
763.31	-0.01
763.486	0.2
763.663	0
763.839	0.17
764.015	-0.11
764.191	0.01
764.368	-0
764.544	-0.01
764.72	0.16
764.896	0.1
765.072	0.07
765.248	0.1
765.425	0.05
765.601	0.11
765.777	0.09
765.953	-0.14
766.129	0.01
766.305	-0.05
766.481	0.14
766.657	0.14
766.833	0.21
767.009	-0.03
767.185	0.08
767.361	-0.09
767.537	0.01
767.713	0.15
767.889	0.02
768.065	0.07
768.24	0.13
768.416	0.24
768.592	-0.09
768.768	0.17
768.944	0.1
769.12	-0.03
769.295	0.01
769.471	0.06
769.647	0.12
769.823	0.2
769.998	-0.1
770.174	-0.04
770.35	0.36
770.525	0.29
770.701	0.08
770.877	0.02
771.052	-0
771.228	0.12
771.403	0.1
771.579	0.18
771.755	0.4
771.93	0.05
772.106	-0.15
772.281	-0.06
772.457	0.11
772.632	0.07
772.808	-0.12
772.983	-0.06
773.159	-0.03
773.334	0.12
773.509	0.05
773.685	-0.11
773.86	0.36
774.036	0.15
774.211	0.04
774.386	-0.02
774.562	-0.15
774.737	0.03
774.912	-0.07
775.087	0.2
775.263	0.08
775.438	-0.03
775.613	0.08
775.788	-0.14
775.964	0.16
776.139	0.38
776.314	-0.21
776.489	0.14
776.664	-0.05
776.839	0
777.014	0.15
777.19	0.16
777.365	0.23
777.54	0.11
777.715	-0.04
777.89	0.03
778.065	-0.06
778.24	0.09
778.415	0.07
778.59	-0.18
778.765	-0.03
778.94	0.13
779.115	-0.06
779.289	0.09
779.464	-0.01
779.639	0.06
779.814	-0.2
779.989	-0.2
780.164	0.16
780.339	0.21
780.513	-0.02
780.688	-0.07
780.863	0.08
781.038	0.26
781.212	-0.19
781.387	-0.02
781.562	0.21
781.737	-0.03
781.911	0.08
782.086	-0.07
782.261	-0.06
782.435	0.26
782.61	-0.1
782.784	-0
782.959	0.19
783.134	-0.28
783.308	-0.18
783.483	-0.09
783.657	0.65
783.832	0.23
784.006	-0.34
784.181	0.07
784.355	-0.03
784.53	-0.3
784.704	0.01
784.878	0.36
785.053	0.1
785.227	0.21
785.402	0.26
785.576	-0.06
785.75	-0.09
785.925	-0.07
786.099	-0.01
786.273	0.07
786.448	0.12
786.622	0
786.796	0.18
786.97	-0.09
787.145	0.16
787.319	-0.41
787.493	-0.17
787.667	-0.28
787.841	-0.1
788.015	0.18
788.19	0.02
788.364	0.04
788.538	0.14
788.712	0.23
788.886	-0.04
789.06	0.14
789.234	0.1
789.408	-0.27
789.582	-0.14
789.756	-0.02
789.93	-0.25
790.104	-0.17
790.278	-0.16
790.452	-0.01
790.626	0.25
790.8	-0.17
790.973	0.22
791.147	-0.07
791.321	0.15
791.495	-0.02
791.669	0.12
791.843	0.28
792.016	-0.09
792.19	0.33
792.364	-0.26
792.538	0.37
792.711	0.22
792.885	-0.12
793.059	-0.14
793.233	-0.41
793.406	0.1
793.58	0.08
793.754	0.22
793.927	-0.03
794.101	0.17
794.274	-0.11
794.448	0.13
794.622	-0.06
794.795	0.23
794.969	-0.13
795.142	0.17
795.316	-0.16
795.489	-0.03
795.663	0.36
795.836	-0.03
796.009	-0.09
796.183	0.33
796.356	0.06
796.53	0.05
796.703	-0.11
796.876	0.61
797.05	-0.18
797.223	-0.01
797.396	0.13
797.57	0.13
797.743	0.24
797.916	0.1
798.09	-0.18
798.263	0.28
798.436	0.01
798.609	0.12
798.782	-0.1
798.956	0.26
799.129	-0.08
799.302	-0.16
799.475	-0.16
799.648	-0.22
799.821	-0.26
799.994	0.18
800.167	-0.29
800.34	-0.1
800.514	-0.02
800.687	-0.11
800.86	-0.16
801.033	-0.17
801.206	0.03
801.379	-0.35
801.551	0.13
801.724	0.03
801.897	0.26
802.07	-0.12
802.243	-0.38
802.416	-0.29
802.589	-0.15
802.762	0.13
802.935	0.04
803.107	0.34
803.28	0.19
803.453	0.01
803.626	-0.21
803.798	0.19
803.971	-0.17
804.144	0.33
804.317	0.16
804.489	0.1
804.662	-0.04
804.835	0.28
805.007	-0.16
805.18	0.21
805.353	0.14
805.525	-0.25
805.698	-0.04
805.87	0.23
806.043	0.21
806.215	-0.57
806.388	-0.31
806.56	-0.05
806.733	0.45
806.905	0.04
807.078	-0.35
807.25	-0.33
807.423	0.24
807.595	0
807.768	0.12
807.94	0.28
808.112	0.41
808.285	-0.21
808.457	-0.26
808.629	-0.11
808.802	0
808.974	0.21
809.146	-0.14
809.318	-0.54
809.491	0.39
809.663	-0.05
809.835	-0.24
810.007	-0.5
810.18	-0.35
810.352	-0.59
810.524	-0.15
810.696	-0.1
810.868	0.49
811.04	0.08
811.212	-0.08
811.384	-0.12
811.556	0.31
811.728	0.03
811.901	0.45
812.073	-0.24
812.245	-0.01
812.417	0.09
812.589	-0.83
812.76	0.11
812.932	0.13
813.104	-0.15
813.276	0.06
813.448	0.06
813.62	0.03
813.792	0.14
813.964	-0.04
814.136	0.29
814.307	-0.02
814.479	-0.19
814.651	-0.17
814.823	0.44
814.995	-0.45
815.166	0.21
815.338	-0.39
815.51	-0.5
815.681	0.81
815.853	0.53
816.025	-0.07
816.196	0.46
816.368	0.14
816.54	-0.48
816.711	-0.41
816.883	0.48
817.054	0.88
817.226	-0.59
817.398	0.07
817.569	0.15
817.741	-0.18
817.912	0.02
818.084	-0.06
818.255	0.36
818.426	-0.33
818.598	0.24
818.769	-0.36
818.941	0.3
819.112	0.25
819.283	0.22
819.455	-0.37
819.626	0.2
819.798	0.13
819.969	0.01
820.14	-0.04
820.311	0.09
820.483	-0.26
820.654	0.09
820.825	0.16
820.996	-0.35
821.168	-0.3
821.339	0.06
821.51	-0.3
821.681	-0.17
821.852	-0.01
822.023	-0.03
822.195	-0.18
822.366	0.57
822.537	-0.18
822.708	-0.1
822.879	-0.17
823.05	0.17
823.221	-0.23
823.392	-0.15
823.563	-0.34
823.734	-0.08
823.905	-0.05
824.076	-0.45
824.247	-0.28
824.418	-0.2
824.589	0.65
824.759	-0.08
824.93	-0.16
825.101	-0.36
825.272	0.47
825.443	0.91
825.614	0.08
825.784	-1.2
825.955	0.81
826.126	0.17
826.297	0.38
826.467	0.92
826.638	0.68
826.809	-0.73
826.98	-0.73
827.15	0.14
827.321	-0.09
827.492	0.65
827.662	-0.07
827.833	1.01
828.003	0.25
828.174	-0.28
828.345	-0.47
828.515	0.5
828.686	0.37
828.856	-0.16
829.027	-0.26
829.197	0
829.368	-0.02
829.538	-0.58
829.709	0.07
829.879	0.12
830.049	0.05
830.22	-0.67
830.39	0.13
830.56	0.54
830.731	-0.21
830.901	-0.51
831.072	-0.22
831.242	-0.3
831.412	-0.34
831.582	-0.23
831.753	-0.52
831.923	0.41
832.093	-0.2
832.263	-0.5
832.434	-0.56
832.604	-0.43
832.774	0.05
832.944	-0.35
833.114	-0.54
833.284	0.25
833.454	-0.97
833.624	-0.29
833.795	-0.06
833.965	0.78
834.135	0.69
834.305	-1.19
834.475	-0.49
834.645	-0.27
834.815	-0.62
834.985	-0.53
835.155	-0.15
835.325	-0.24
835.494	0.01
835.664	-0.09
835.834	-0.67
836.004	0.35
836.174	0.03
836.344	-0.05
836.514	-1.01
836.684	0.16
836.853	-0.01
837.023	0.35
837.193	-0.58
837.363	0.15
837.532	0.74
837.702	0.25
837.872	-0.26
838.041	1.01
838.211	1
838.381	-0.37
838.55	-0.21
838.72	1.09
838.89	0.95
839.059	-0.11
839.229	-0.4
839.398	0.89
839.568	0.03
839.738	-0.22
839.907	1.2
840.077	0.44
840.246	-0.08
840.416	-1.02
840.585	-0.43
840.755	0.59
840.924	0.71
841.093	-0.6
841.263	-0.53
841.432	0.34
841.602	-0.7
841.771	-0.31
841.94	0.03
842.11	1.86
842.279	0.89
842.448	-0.63
842.617	-0.88
842.787	0.7
842.956	-1.11
843.125	0.21
843.294	0.28
843.464	0.74
843.633	0.17
843.802	-0.47
843.971	0.49
844.14	0.85
844.309	-0.24
844.479	-0.71
844.648	-0.65
844.817	0.01
844.986	0.45
845.155	-0.37
845.324	-0.66
845.493	0.48
845.662	-0.55
845.831	0.87
846	0.57
846.169	-0.16
846.338	0.82
846.507	0.58
846.676	0.07
846.844	-0.68
847.013	0.87
847.182	0.22
847.351	-0.46
847.52	-0.08
847.689	0.7
847.858	-0.32
848.026	-1.02
848.195	-0.19
848.364	-0.95
848.533	-0.1
848.701	-0.62
848.87	0.03
849.039	0.97
849.207	0.97
849.376	0.17
849.545	1.38
849.713	-0.63
849.882	0.01
850.051	1.05
850.219	0.49
850.388	1.03
850.556	-0.65
850.725	-0.21
850.893	0.34
851.062	-0.61
851.23	0.91
851.399	-1.1
851.567	-1.38
851.736	-0.12
851.904	-1.88
852.073	-0.27
852.241	0.66
852.41	0.85
852.578	-0.31
852.746	-0.97
852.915	0.5
853.083	0.83
853.251	-1.78
853.42	-0.22
853.588	-0.03
853.756	1.29
853.924	1.27
854.093	0.79
854.261	-0.79
854.429	-0.33
854.597	0.82
854.765	-0.14
854.934	0.38
855.102	0.41
855.27	0.37
855.438	-0.02
855.606	0.98
855.774	0.89
855.942	-1.44
856.11	-1.42
856.278	0.55
856.446	0.99
856.614	-0.23
856.782	-0.99
856.95	0.95
857.118	0.64
857.286	0.21
857.454	-1.4
857.622	0.59
857.79	-0.13
857.958	-0.22
858.126	-0.37
858.294	-2.38
858.462	-0.39
858.629	0.06
858.797	-1.31
858.965	-0.28
859.133	-0.02
859.301	-1.24
859.468	1.06
859.636	-0.37
859.804	1.93
859.971	0.66
860.139	-1.41
860.307	1.35
860.474	0.79
860.642	-1.36
860.81	-0.07
860.977	-0.29
861.145	1.53
861.313	-0.28
861.48	-0.05
861.648	-0.06
861.815	0.6
861.983	-0.54
862.15	0.72
862.318	-0.02
862.485	0.44
862.653	-0.34
862.82	-0.85
862.988	0.96
863.155	-0.6
863.322	-0.31
863.49	-1.11
863.657	-0.77
863.824	1.28
863.992	0.65
864.159	1.14
864.326	1.37
864.494	-0.44
864.661	2.52
864.828	-0.5
864.996	0.86
865.163	-0.17
865.33	-1.05
865.497	-2.4
865.664	0.42
865.832	-3.19
865.999	0.75
866.166	-0.75
866.333	-1.04
866.5	0.05
866.667	0.54
866.834	-1.24
867.001	1.76
867.168	-0.98
867.335	0
867.502	-1.45
867.669	2.6
867.836	2.66
868.003	0.21
868.17	1.09
868.337	1.23
868.504	2.91
868.671	-1.53
868.838	-1.28
869.005	2.01
869.172	1.83
869.339	0.68
869.505	-0.93
869.672	-0.99
869.839	0.1
870.006	-0.01
870.173	-2.55
870.339	0.37
870.506	1.88
870.673	0.43
870.84	0.92
871.006	0.08
871.173	1.25
871.34	0.21
871.506	-0.59
871.673	-0.06
871.839	-0.71
872.006	-0.18
872.173	-0.44
872.339	-0.66
872.506	1.16
872.672	0.39
872.839	-1.83
873.005	-0.91
873.172	4.29
873.338	1.71
873.505	1.26
873.671	3.03
873.838	0.02
874.004	-3.18
874.171	0
874.337	0.91
874.503	2.15
874.67	0.35
874.836	-1.39
875.002	2.23
875.169	2.09
875.335	0.07
875.501	0.2
875.668	-1.44
875.834	0.62
876	-0.21
876.166	2.24
876.332	0.72
876.499	2.68
876.665	-1.79
876.831	0.33
876.997	3.12
877.163	1.25
877.329	0.61
877.495	-0.01
877.662	0.08
877.828	0.33
877.994	0.63
878.16	-2.14
878.326	-0.73
878.492	0
878.658	-0.03
878.824	0.3
878.99	1.92
879.156	-1.78
879.322	2.21
879.487	-0.8
879.653	0.55
879.819	-0.91
879.985	-1.98
880.151	1.09
880.317	2.32
880.483	1.57
880.648	2.1
880.814	-2.89
880.98	-0.01
881.146	-1.89
881.312	-1.35
881.477	-0.39
881.643	1.41
881.809	2
881.974	3.35
882.14	-2.78
882.306	-0.26
882.471	2.11
882.637	-1.03
882.803	1.95
882.968	1.95
883.134	3.37
883.299	-0.01
883.465	1.07
883.63	1.61
883.796	0.17
883.961	1.64
884.127	0.8
884.292	-2.96
884.458	-0.12
884.623	-0.12
