Data from Apollo_Calib_20240827__AbsoluteIrradiance__670__10-19-00-834.txt Node

Date: Wed Aug 28 10:19:00 BST 2024
User: biology
Spectrometer: FLMT08252
Trigger mode: 0
Integration Time (sec): 5.000000E-1
Scans to average: 5
Electric dark correction enabled: true
Nonlinearity correction enabled: false
Boxcar width: 0
XAxis mode: Wavelengths
Number of Pixels in Spectrum: 3648
>>>>>Begin Spectral Data<<<<<
179.588	-0
179.809	-0
180.03	-0
180.251	-0
180.473	-0
180.694	0
180.915	0
181.136	-0
181.357	0
181.578	-0
181.799	-0
182.02	-0
182.241	0
182.462	-0
182.683	0
182.904	-0
183.125	-0
183.346	0
183.567	0
183.788	0
184.009	-0
184.23	0
184.451	0
184.672	-0
184.892	-0
185.113	0
185.334	0
185.555	-0
185.776	0
185.996	0
186.217	0
186.438	0
186.659	-0
186.879	0
187.1	-0
187.321	0
187.541	-0
187.762	0
187.983	0
188.203	0
188.424	0
188.644	-0
188.865	0
189.086	0
189.306	0
189.527	0
189.747	0
189.968	-0
190.188	0
190.409	0
190.629	0
190.849	0
191.07	0
191.29	0
191.511	0
191.731	-0
191.951	0
192.172	0
192.392	0
192.612	0
192.833	-0
193.053	0
193.273	0
193.493	-0
193.714	0
193.934	0
194.154	0
194.374	0
194.594	0
194.815	0
195.035	0
195.255	0
195.475	0
195.695	0
195.915	0
196.135	0
196.355	0
196.575	0
196.795	0
197.015	-0
197.235	0
197.455	-0
197.675	0
197.895	-0
198.115	-0
198.335	0
198.555	0
198.775	0
198.995	0
199.214	0
199.434	0
199.654	-0
199.874	0
200.094	1.32
200.313	0.63
200.533	-0.05
200.753	-0.31
200.973	0.92
201.192	1.27
201.412	-0.08
201.632	-0.39
201.851	1.6
202.071	-0.57
202.291	0.06
202.51	-0.4
202.73	0.71
202.95	-0.09
203.169	-0.01
203.389	0.52
203.608	0.54
203.828	-0.5
204.047	0.07
204.267	0.52
204.486	0.32
204.706	0.28
204.925	0.61
205.145	-0.19
205.364	0.87
205.583	0.74
205.803	0.17
206.022	-0.37
206.242	-0.02
206.461	-0.13
206.68	0.28
206.9	0.41
207.119	0.52
207.338	0.77
207.557	0.11
207.777	0.35
207.996	0.05
208.215	0.64
208.434	0.01
208.654	-0.19
208.873	0.24
209.092	0.83
209.311	0.11
209.53	0.29
209.749	-0.08
209.968	-0.09
210.187	0.31
210.407	-0.12
210.626	-0.15
210.845	0.22
211.064	0.36
211.283	-0.12
211.502	0.39
211.721	0.01
211.94	0.3
212.159	0.19
212.377	0.53
212.596	0.61
212.815	0.19
213.034	0.44
213.253	0.54
213.472	0.25
213.691	0.2
213.91	-0.01
214.128	0.08
214.347	0.67
214.566	-0.11
214.785	-0.25
215.003	0.21
215.222	0.19
215.441	0.12
215.66	-0.1
215.878	0.07
216.097	0.28
216.316	-0.18
216.534	0.14
216.753	0.16
216.972	-0.1
217.19	0.1
217.409	0.03
217.627	-0.27
217.846	0.09
218.064	-0
218.283	-0.03
218.501	0.51
218.72	0.41
218.938	0
219.157	-0
219.375	0.21
219.594	0.21
219.812	-0.13
220.031	-0.04
220.249	0.37
220.467	0.56
220.686	0.04
220.904	0.05
221.122	0.01
221.341	0.42
221.559	0.21
221.777	-0.08
221.995	0.18
222.214	0.06
222.432	-0.02
222.65	0.21
222.868	0.31
223.086	0.22
223.305	0.2
223.523	-0.03
223.741	0.33
223.959	0.06
224.177	-0.17
224.395	0.05
224.613	0.17
224.831	0.14
225.049	0.04
225.267	0.02
225.485	0.15
225.703	0.03
225.921	0.04
226.139	0.02
226.357	0.13
226.575	0.04
226.793	0.01
227.011	0.53
227.229	0.16
227.447	0.21
227.665	-0.08
227.883	0.03
228.1	0.07
228.318	0.17
228.536	-0.1
228.754	-0.19
228.972	0.07
229.189	0.06
229.407	0.1
229.625	0.06
229.843	0.15
230.06	0.17
230.278	-0.01
230.496	0.06
230.713	0.15
230.931	0.34
231.149	-0.04
231.366	-0.19
231.584	0.15
231.801	0.45
232.019	0.03
232.236	-0.04
232.454	-0.05
232.671	0.19
232.889	0.03
233.106	-0.02
233.324	0.17
233.541	0.03
233.759	0.06
233.976	0.01
234.194	0.04
234.411	0.01
234.628	0.05
234.846	0.01
235.063	0.05
235.28	0.11
235.498	0.13
235.715	0
235.932	0.24
236.149	0.16
236.367	-0.04
236.584	0.17
236.801	0.06
237.018	0.11
237.236	-0.01
237.453	-0.02
237.67	0.18
237.887	-0.05
238.104	0.02
238.321	-0.02
238.538	0.07
238.755	0.17
238.973	-0.09
239.19	0.1
239.407	0.04
239.624	0.14
239.841	-0.1
240.058	0.02
240.275	0.14
240.492	0
240.709	0.04
240.925	0.02
241.142	0.06
241.359	-0.07
241.576	0.02
241.793	-0.05
242.01	0.08
242.227	0.15
242.444	0.08
242.66	0.17
242.877	0.12
243.094	0.06
243.311	0.07
243.527	0.1
243.744	0.13
243.961	0.16
244.178	0.02
244.394	0
244.611	0.2
244.828	0.19
245.044	-0.08
245.261	-0
245.477	0.01
245.694	0.07
245.911	-0.07
246.127	0.1
246.344	0.23
246.56	0.06
246.777	0.06
246.993	0.04
247.21	0.08
247.426	0.17
247.643	0.04
247.859	-0.07
248.076	0.05
248.292	0.2
248.508	-0.02
248.725	0.09
248.941	0.06
249.157	0.15
249.374	0.03
249.59	0.02
249.806	0.12
250.023	0.17
250.239	-0.07
250.455	0.03
250.671	0.12
250.888	0.13
251.104	0.14
251.32	-0.02
251.536	0.07
251.752	0.06
251.969	0.09
252.185	0.06
252.401	0.17
252.617	0.14
252.833	-0.02
253.049	0.06
253.265	-0.02
253.481	0.09
253.697	-0.03
253.913	-0.04
254.129	0.11
254.345	0.08
254.561	0
254.777	0.08
254.993	0.12
255.209	0.08
255.425	0.02
255.641	-0.05
255.857	0.15
256.073	0.03
256.288	-0
256.504	-0.03
256.72	0.05
256.936	0.06
257.152	0.04
257.367	0.04
257.583	0.05
257.799	0.08
258.015	-0.03
258.23	0.03
258.446	0.08
258.662	0.04
258.877	-0.07
259.093	0.04
259.309	0.11
259.524	0.1
259.74	0.04
259.955	-0.02
260.171	0.06
260.387	0.04
260.602	0.09
260.818	0.09
261.033	-0.03
261.249	-0.01
261.464	-0.06
261.68	-0.05
261.895	0.1
262.11	0.13
262.326	-0.03
262.541	-0.1
262.757	0.06
262.972	0.07
263.187	0.06
263.403	-0.01
263.618	0.08
263.833	0.01
264.049	-0.03
264.264	0.03
264.479	0.11
264.694	0.21
264.91	-0.01
265.125	0.05
265.34	0.05
265.555	0.2
265.77	0.14
265.986	-0.01
266.201	0.08
266.416	0.13
266.631	0.02
266.846	0.04
267.061	0.09
267.276	0.09
267.491	-0.11
267.706	0.09
267.921	0.08
268.136	0.12
268.351	0.03
268.566	-0.06
268.781	0.16
268.996	0.08
269.211	0.05
269.426	0.04
269.641	0.02
269.856	0.07
270.071	-0.03
270.285	-0.02
270.5	0.11
270.715	0.07
270.93	0.04
271.145	0.08
271.359	0.09
271.574	0
271.789	0.08
272.004	-0.04
272.218	0
272.433	0.1
272.648	-0.03
272.862	0.1
273.077	0.01
273.292	0.06
273.506	0.01
273.721	0.08
273.936	0.1
274.15	0.1
274.365	0.02
274.579	0.08
274.794	0.06
275.008	0.1
275.223	-0.05
275.437	0.03
275.652	0.04
275.866	0.02
276.081	-0.02
276.295	0.08
276.509	0.05
276.724	0.06
276.938	0.01
277.153	0.04
277.367	0.12
277.581	-0
277.796	-0
278.01	0.03
278.224	0.1
278.438	0.18
278.653	-0.03
278.867	0.01
279.081	0.09
279.295	0.03
279.51	0.14
279.724	-0.09
279.938	0.1
280.152	0.13
280.366	0.02
280.58	0.03
280.794	0.09
281.008	0.08
281.222	0.04
281.437	0.11
281.651	0.08
281.865	0.08
282.079	0.03
282.293	-0.05
282.507	-0.02
282.721	0.01
282.935	0.06
283.148	-0.08
283.362	0.02
283.576	-0.03
283.79	0.02
284.004	0.02
284.218	0.08
284.432	0.01
284.646	0.05
284.859	0.01
285.073	-0.01
285.287	0.02
285.501	0.04
285.714	0.02
285.928	0.07
286.142	0.04
286.356	0.02
286.569	0.03
286.783	0.08
286.997	0.09
287.21	0.03
287.424	0.09
287.637	0.06
287.851	0.01
288.065	0.07
288.278	0.03
288.492	0.03
288.705	0.02
288.919	0.07
289.132	-0.07
289.346	0.12
289.559	-0.05
289.773	-0.04
289.986	0.02
290.2	0.04
290.413	0.09
290.626	-0.01
290.84	0.08
291.053	0.05
291.267	0.12
291.48	0.03
291.693	0.05
291.906	0
292.12	-0.01
292.333	-0.02
292.546	0.02
292.76	0.11
292.973	0.06
293.186	0.07
293.399	0.02
293.612	0.08
293.826	0.03
294.039	0.01
294.252	0.06
294.465	0.02
294.678	0.06
294.891	0.02
295.104	-0.04
295.317	0.04
295.53	0.05
295.743	0.03
295.956	0.03
296.169	0.1
296.382	0.1
296.595	0.04
296.808	0.02
297.021	0.05
297.234	0.1
297.447	0.04
297.66	0.07
297.873	0.1
298.086	0.04
298.299	-0.01
298.511	-0.02
298.724	0.03
298.937	-0.01
299.15	0
299.363	0.04
299.575	0.06
299.788	0.05
300.001	-0.02
300.213	-0.03
300.426	0.03
300.639	-0.01
300.852	-0.02
301.064	0.13
301.277	0.11
301.489	0.06
301.702	0.09
301.915	0.01
302.127	0.03
302.34	0.06
302.552	0.02
302.765	0.02
302.977	0.09
303.19	0.03
303.402	0.03
303.615	0.01
303.827	0.02
304.04	0.01
304.252	0.07
304.464	-0.01
304.677	0.11
304.889	0.08
305.102	0.02
305.314	0.03
305.526	0.09
305.739	0.04
305.951	-0.02
306.163	-0.02
306.375	0.09
306.588	0.02
306.8	-0.01
307.012	-0.02
307.224	0.08
307.436	0.1
307.649	-0.06
307.861	0.02
308.073	0.07
308.285	0
308.497	0.01
308.709	0.01
308.921	0.07
309.133	0.07
309.346	0
309.558	0.01
309.77	0.06
309.982	0.07
310.194	0.05
310.406	0.01
310.617	0.08
310.829	0.09
311.041	0.09
311.253	0
311.465	0.02
311.677	0.03
311.889	0.01
312.101	0.01
312.313	0.09
312.524	0.05
312.736	0
312.948	0.01
313.16	0.09
313.372	0.08
313.583	0.06
313.795	-0.01
314.007	0.01
314.218	0.08
314.43	0.05
314.642	-0.03
314.853	-0.03
315.065	0.04
315.277	0.03
315.488	0.05
315.7	0.04
315.912	0
316.123	0.01
316.335	0.01
316.546	0.08
316.758	0.02
316.969	0
317.181	0.07
317.392	0.01
317.604	0.12
317.815	-0.01
318.026	-0.01
318.238	0.02
318.449	0.03
318.661	-0.02
318.872	0.01
319.083	0.02
319.295	0.05
319.506	0.01
319.717	0.04
319.929	0.06
320.14	0.04
320.351	0.09
320.562	0.02
320.774	0.04
320.985	0.04
321.196	0
321.407	-0.05
321.618	0.06
321.829	0.05
322.041	0.1
322.252	0.03
322.463	0.06
322.674	0.04
322.885	0
323.096	0.02
323.307	0.07
323.518	0.05
323.729	-0.02
323.94	-0.02
324.151	-0
324.362	0.04
324.573	0.06
324.784	-0.04
324.995	0.09
325.206	0.04
325.417	-0.01
325.628	0.03
325.838	0.01
326.049	0.03
326.26	0.09
326.471	-0.01
326.682	0
326.892	0.05
327.103	-0.04
327.314	-0.03
327.525	0.05
327.735	-0.02
327.946	0.01
328.157	-0.02
328.368	0.08
328.578	-0
328.789	0.01
328.999	0.02
329.21	0.05
329.421	0.05
329.631	-0.01
329.842	0.03
330.052	0.06
330.263	0.07
330.473	0.09
330.684	0.06
330.894	0.05
331.105	0.03
331.315	-0
331.526	-0.02
331.736	0.09
331.947	0.05
332.157	0.06
332.367	-0.02
332.578	0.03
332.788	0.07
332.999	0.06
333.209	0.05
333.419	0.01
333.629	0.07
333.84	0.07
334.05	0.01
334.26	0.09
334.47	0.04
334.681	0.09
334.891	0.03
335.101	0.06
335.311	0.11
335.521	0.02
335.732	-0.01
335.942	0.1
336.152	0.07
336.362	0
336.572	0.04
336.782	0.08
336.992	0.03
337.202	0.04
337.412	0.04
337.622	0.03
337.832	0.02
338.042	-0.01
338.252	-0.02
338.462	0.04
338.672	0.01
338.882	-0.06
339.092	0.04
339.302	0.05
339.511	-0
339.721	-0.03
339.931	0.02
340.141	0.08
340.351	0.1
340.561	0.03
340.77	0.03
340.98	0.03
341.19	0.06
341.4	0.03
341.609	-0.02
341.819	0.03
342.029	-0.05
342.238	0.05
342.448	0.02
342.658	0.06
342.867	0.05
343.077	0.07
343.286	0.04
343.496	0.03
343.706	0.08
343.915	0.01
344.125	0.01
344.334	0.05
344.544	-0.04
344.753	0.02
344.963	0
345.172	-0.02
345.381	-0.02
345.591	0
345.8	0.04
346.01	0.02
346.219	0.08
346.428	-0.11
346.638	0.03
346.847	0.01
347.056	0.08
347.266	-0.02
347.475	0.03
347.684	0.04
347.893	0.05
348.103	0
348.312	0
348.521	-0.02
348.73	0.04
348.94	0.05
349.149	0.03
349.358	-0.02
349.567	0.02
349.776	-0.02
349.985	-0.01
350.194	0.06
350.403	0.06
350.612	-0.05
350.821	0.03
351.03	0.04
351.239	-0.05
351.448	-0.01
351.657	-0.02
351.866	0.11
352.075	0.04
352.284	0.07
352.493	-0.03
352.702	0.04
352.911	0.05
353.12	0.01
353.329	-0.01
353.538	0.06
353.746	0.04
353.955	-0
354.164	0.04
354.373	0.03
354.582	0.07
354.79	0.09
354.999	0.05
355.208	-0.02
355.416	0.12
355.625	-0.05
355.834	0.05
356.042	0.04
356.251	-0.04
356.46	0.01
356.668	0.04
356.877	0.07
357.085	0.07
357.294	0.01
357.503	0.02
357.711	-0.01
357.92	0.14
358.128	0.05
358.337	0.03
358.545	0.06
358.754	-0
358.962	0.08
359.17	-0.01
359.379	0
359.587	0.06
359.796	0.01
360.004	0.04
360.212	0.06
360.421	0.06
360.629	0.04
360.837	-0.02
361.046	0.04
361.254	0.11
361.462	0.05
361.67	0.03
361.879	0.03
362.087	0.08
362.295	0.03
362.503	0.01
362.711	0.01
362.92	-0.02
363.128	0
363.336	0.02
363.544	-0.04
363.752	-0.01
363.96	0.03
364.168	0.01
364.376	0.04
364.584	0.01
364.792	0.06
365	0.04
365.208	0.08
365.416	0.04
365.624	0.09
365.832	-0.01
366.04	0.08
366.248	0.04
366.456	0.03
366.664	0.03
366.872	0.03
367.079	0
367.287	0.01
367.495	0.04
367.703	0.03
367.911	-0.01
368.118	0.02
368.326	0.01
368.534	-0.02
368.742	0.1
368.949	-0.01
369.157	-0.01
369.365	0.05
369.572	-0.03
369.78	-0.02
369.988	0.08
370.195	0.08
370.403	0.04
370.61	-0.01
370.818	0.07
371.026	0.06
371.233	-0
371.441	-0
371.648	0.01
371.856	0.02
372.063	0.04
372.271	0.01
372.478	0.04
372.685	0.01
372.893	0.05
373.1	0.02
373.308	0.02
373.515	0.1
373.722	-0.01
373.93	0.06
374.137	0.04
374.344	0.1
374.552	0.07
374.759	0.06
374.966	0.03
375.173	0.05
375.381	0.04
375.588	0.04
375.795	-0.07
376.002	0.03
376.209	0
376.417	0.01
376.624	0
376.831	0.07
377.038	0.02
377.245	-0.06
377.452	0.02
377.659	-0
377.866	0.01
378.073	-0.01
378.28	0.03
378.487	0.07
378.694	0.04
378.901	0.02
379.108	0.02
379.315	0.07
379.522	0.08
379.729	0.03
379.936	-0.02
380.143	-0
380.35	0.03
380.557	0.05
380.763	0.06
380.97	0.01
381.177	0.04
381.384	0.06
381.591	-0.02
381.797	0.06
382.004	0.09
382.211	0.07
382.418	0.03
382.624	0.05
382.831	0.04
383.038	-0
383.244	0.06
383.451	0.02
383.658	0.04
383.864	0.01
384.071	0.02
384.277	0.06
384.484	-0.01
384.69	0.07
384.897	-0.03
385.103	-0.02
385.31	0.01
385.516	0.01
385.723	-0.03
385.929	0.04
386.136	0.02
386.342	0.02
386.549	0.03
386.755	0.06
386.961	0.02
387.168	0
387.374	0.04
387.58	0.07
387.787	0.06
387.993	0.03
388.199	0.04
388.406	-0.04
388.612	0.03
388.818	-0
389.024	0.05
389.231	0.08
389.437	0.09
389.643	0.06
389.849	0
390.055	0.06
390.261	0.06
390.467	0.02
390.674	-0
390.88	-0
391.086	0.09
391.292	-0.01
391.498	0.08
391.704	0
391.91	-0.01
392.116	-0.01
392.322	-0.05
392.528	0.05
392.734	0.02
392.94	0.05
393.146	0.02
393.352	0.01
393.557	-0
393.763	0.06
393.969	0.04
394.175	0.06
394.381	0.08
394.587	0.01
394.792	-0.01
394.998	0.09
395.204	0.07
395.41	-0.01
395.615	0.07
395.821	0.04
396.027	0.03
396.233	-0.04
396.438	0.01
396.644	0.12
396.85	0.09
397.055	0.03
397.261	0.06
397.466	0.05
397.672	-0.01
397.878	0.04
398.083	0.01
398.289	0
398.494	0.05
398.7	0.04
398.905	-0.04
399.111	0.12
399.316	-0.03
399.522	-0.01
399.727	0.02
399.932	-0.02
400.138	-0.03
400.343	0.04
400.549	0.05
400.754	0.01
400.959	0.03
401.165	0
401.37	0.02
401.575	0.1
401.78	0.03
401.986	0.04
402.191	-0.01
402.396	-0
402.601	0.02
402.807	0.03
403.012	0.05
403.217	0.11
403.422	0.07
403.627	0.06
403.832	0.01
404.037	0.03
404.243	0.06
404.448	-0.01
404.653	0.02
404.858	0.02
405.063	0.06
405.268	-0.01
405.473	-0.04
405.678	-0.03
405.883	0.18
406.088	0.09
406.293	-0.02
406.498	-0
406.703	0.07
406.907	0.04
407.112	-0.02
407.317	0.02
407.522	0.07
407.727	-0.01
407.932	0.03
408.136	0.08
408.341	0.02
408.546	0.02
408.751	0.03
408.956	-0.01
409.16	0.05
409.365	0.05
409.57	0.03
409.774	0.03
409.979	0.09
410.184	0.06
410.388	0
410.593	0.09
410.798	0.01
411.002	-0.03
411.207	0.04
411.411	0.01
411.616	-0.03
411.82	0.02
412.025	0.05
412.229	0.02
412.434	0.06
412.638	0.05
412.843	-0.01
413.047	0.07
413.252	-0.06
413.456	0.01
413.66	0.08
413.865	0.03
414.069	0.08
414.273	0.04
414.478	-0.02
414.682	0.02
414.886	0.01
415.091	-0.05
415.295	-0.05
415.499	0.01
415.703	0
415.908	0.07
416.112	-0.08
416.316	0.1
416.52	-0
416.724	0.03
416.929	-0.03
417.133	0.11
417.337	-0.02
417.541	0.03
417.745	0.03
417.949	0.03
418.153	-0.01
418.357	-0.05
418.561	0.08
418.765	0.07
418.969	0.11
419.173	0.06
419.377	0.02
419.581	0.09
419.785	-0.01
419.989	0.01
420.193	-0
420.397	-0.01
420.601	0.1
420.804	0.04
421.008	0.04
421.212	0.02
421.416	0.02
421.62	0.04
421.823	0.05
422.027	0.11
422.231	0.06
422.435	-0.03
422.638	0.06
422.842	0.06
423.046	-0.02
423.249	0.05
423.453	0.02
423.657	0.04
423.86	0
424.064	-0.01
424.268	0.04
424.471	0
424.675	0.11
424.878	0.08
425.082	0.04
425.285	0.05
425.489	-0.01
425.692	0.04
425.896	-0.02
426.099	0.05
426.303	0.03
426.506	-0.02
426.71	0.02
426.913	0.11
427.116	0.02
427.32	-0
427.523	0.02
427.726	0.09
427.93	-0.02
428.133	0.03
428.336	-0.02
428.54	-0.04
428.743	0.03
428.946	0.07
429.149	0.02
429.353	0.03
429.556	0.01
429.759	0.01
429.962	-0.03
430.165	-0.01
430.368	0.02
430.571	-0.04
430.775	0.02
430.978	-0.02
431.181	0.03
431.384	0.05
431.587	-0.03
431.79	-0.02
431.993	-0.03
432.196	-0.02
432.399	0.01
432.602	0.05
432.805	0.05
433.008	0.08
433.211	-0.02
433.414	0.01
433.616	0
433.819	0.03
434.022	-0.06
434.225	0.08
434.428	0.1
434.631	0.08
434.833	0.02
435.036	0.01
435.239	0.03
435.442	0.02
435.645	0.02
435.847	0.03
436.05	0.04
436.253	-0
436.455	-0.03
436.658	0.01
436.861	0.07
437.063	-0.02
437.266	0.03
437.468	0.04
437.671	0.14
437.874	0.02
438.076	-0.03
438.279	-0.05
438.481	0.03
438.684	-0.01
438.886	0.05
439.089	-0.06
439.291	0.04
439.494	-0
439.696	0.02
439.899	-0.02
440.101	-0.01
440.303	-0.04
440.506	0.05
440.708	-0.06
440.91	0.04
441.113	-0.03
441.315	0
441.517	-0.05
441.72	0.03
441.922	-0.02
442.124	-0.06
442.326	0.02
442.529	0.12
442.731	-0.04
442.933	0.11
443.135	0.02
443.337	-0
443.539	-0.06
443.742	-0.03
443.944	0.09
444.146	-0
444.348	-0.04
444.55	-0.02
444.752	-0.04
444.954	-0.03
445.156	0.03
445.358	-0.02
445.56	0.06
445.762	0.03
445.964	-0.02
446.166	0.02
446.368	-0.01
446.57	0.05
446.772	0.03
446.974	0
447.175	0.05
447.377	-0.02
447.579	-0.02
447.781	-0.06
447.983	0.08
448.184	0.01
448.386	-0
448.588	-0.08
448.79	-0.02
448.991	-0.03
449.193	0.02
449.395	0.04
449.597	0.08
449.798	0.06
450	0.06
450.202	-0.02
450.403	0.02
450.605	0.05
450.806	0.07
451.008	-0.08
451.21	0.04
451.411	0
451.613	0.05
451.814	-0.02
452.016	0.08
452.217	0.03
452.419	0.05
452.62	0.01
452.821	0.13
453.023	0.1
453.224	0.06
453.426	-0.01
453.627	0.08
453.828	0.09
454.03	0.06
454.231	0
454.432	-0.04
454.634	0.11
454.835	0
455.036	-0.04
455.238	0.12
455.439	0.09
455.64	-0.04
455.841	-0.03
456.042	0.11
456.244	0.05
456.445	-0.01
456.646	-0.06
456.847	0.03
457.048	0.04
457.249	0.05
457.45	0.24
457.651	-0.03
457.852	0.05
458.054	0.03
458.255	0
458.456	0.08
458.657	0.03
458.858	-0.01
459.058	0.02
459.259	0.06
459.46	0.03
459.661	-0.03
459.862	0.13
460.063	0.01
460.264	0.09
460.465	-0.05
460.666	0.09
460.866	0.02
461.067	0.04
461.268	-0.01
461.469	0.02
461.67	0.02
461.87	-0.02
462.071	-0.02
462.272	-0.02
462.473	0.02
462.673	0.05
462.874	-0.04
463.075	0.03
463.275	-0.05
463.476	-0.02
463.676	0.05
463.877	0.02
464.078	0.02
464.278	0.06
464.479	-0.03
464.679	0.01
464.88	0
465.08	0.07
465.281	0.01
465.481	0.01
465.682	0.02
465.882	0.08
466.083	0.03
466.283	0.01
466.483	0.03
466.684	-0.05
466.884	0.02
467.085	0.03
467.285	0.01
467.485	0.03
467.686	0.02
467.886	-0.03
468.086	0.01
468.286	0.07
468.487	0.01
468.687	-0.04
468.887	0.01
469.087	0.04
469.287	0.03
469.488	-0.04
469.688	0.02
469.888	0.03
470.088	0.09
470.288	0.09
470.488	0.07
470.688	0
470.888	-0.01
471.088	-0.01
471.288	0.06
471.488	0.03
471.688	0.04
471.888	0
472.088	0.08
472.288	0.05
472.488	-0.03
472.688	-0.01
472.888	0.02
473.088	0.02
473.288	0.06
473.488	0.01
473.688	0.09
473.887	0.01
474.087	-0.03
474.287	0.01
474.487	-0.02
474.687	0.05
474.886	-0.02
475.086	-0.01
475.286	-0
475.486	0.06
475.685	0.03
475.885	0
476.085	0.01
476.284	0.04
476.484	-0.01
476.684	-0
476.883	0.07
477.083	0.02
477.282	-0.02
477.482	0.07
477.681	0.05
477.881	0.05
478.08	-0.04
478.28	0.02
478.479	0.05
478.679	0.08
478.878	-0.03
479.078	-0.02
479.277	-0
479.477	-0.01
479.676	0.04
479.875	0.03
480.075	-0.02
480.274	0.03
480.473	0.06
480.673	-0.03
480.872	0.04
481.071	0
481.271	0
481.47	0
481.669	0.01
481.868	-0.03
482.067	0.01
482.267	-0.02
482.466	-0.02
482.665	-0.01
482.864	-0.02
483.063	-0.01
483.262	0.03
483.461	0.07
483.661	0.02
483.86	0.02
484.059	0.02
484.258	-0
484.457	-0.01
484.656	0.02
484.855	0.05
485.054	-0.04
485.253	-0.02
485.452	-0.02
485.651	-0.01
485.849	0
486.048	0.02
486.247	-0.02
486.446	0.01
486.645	-0.01
486.844	0.01
487.043	-0.02
487.241	0.03
487.44	-0.03
487.639	-0.01
487.838	0.04
488.037	0.02
488.235	0.06
488.434	0.01
488.633	-0.02
488.831	0.03
489.03	0.04
489.229	0.03
489.427	-0.01
489.626	0.04
489.825	0.04
490.023	0.03
490.222	0.01
490.42	0.03
490.619	0.03
490.817	0.01
491.016	0.01
491.214	0.03
491.413	0.02
491.611	0.01
491.81	0
492.008	0.04
492.207	0.02
492.405	0.02
492.604	-0.05
492.802	-0
493	0.01
493.199	-0
493.397	0.02
493.595	0.01
493.794	-0.01
493.992	0.04
494.19	-0
494.388	-0
494.587	-0.01
494.785	0.02
494.983	-0.01
495.181	-0.01
495.379	0
495.578	0
495.776	0
495.974	0.05
496.172	-0.01
496.37	-0.01
496.568	-0.02
496.766	-0.01
496.964	0.03
497.162	0.03
497.36	0
497.558	0.02
497.756	0.02
497.954	0.01
498.152	-0.02
498.35	0.01
498.548	0
498.746	-0.01
498.944	-0.02
499.142	0.02
499.34	-0.01
499.538	0.02
499.736	-0.02
499.933	0.03
500.131	0.04
500.329	0.01
500.527	0.02
500.725	0.03
500.922	0.03
501.12	0.02
501.318	0
501.516	-0.02
501.713	0.02
501.911	0
502.109	-0.02
502.306	-0.01
502.504	0.01
502.701	-0.01
502.899	0.01
503.097	0.05
503.294	0.02
503.492	0.01
503.689	0.03
503.887	0.02
504.084	0.04
504.282	0
504.479	-0.01
504.677	0.02
504.874	-0.02
505.072	0.03
505.269	0.01
505.466	0.02
505.664	0.01
505.861	-0.02
506.059	-0.03
506.256	0.03
506.453	0.01
506.651	0.05
506.848	0.03
507.045	0.02
507.242	0.03
507.44	-0.01
507.637	0.01
507.834	0
508.031	0.02
508.229	-0.01
508.426	0
508.623	0.03
508.82	-0.02
509.017	0
509.214	0.01
509.411	0.02
509.608	-0.02
509.805	0.02
510.003	0.02
510.2	0
510.397	0.03
510.594	-0.02
510.791	-0.01
510.988	-0.01
511.184	0.02
511.381	-0.01
511.578	-0
511.775	0.02
511.972	-0
512.169	0.01
512.366	-0
512.563	0.02
512.76	0.01
512.956	0.01
513.153	-0.02
513.35	0.01
513.547	-0.01
513.744	-0.02
513.94	-0.01
514.137	0.02
514.334	0.01
514.53	0.01
514.727	0.02
514.924	0.02
515.12	0.01
515.317	-0.01
515.514	-0.02
515.71	-0.01
515.907	-0.01
516.103	0
516.3	0.01
516.497	0.02
516.693	0.04
516.89	-0.01
517.086	-0.01
517.283	0.06
517.479	0.01
517.676	0
517.872	0.01
518.068	-0.01
518.265	-0.01
518.461	0.01
518.658	-0.02
518.854	0.01
519.05	-0
519.247	-0.02
519.443	0.02
519.639	0.03
519.836	0
520.032	-0.01
520.228	0.02
520.424	0.07
520.621	0.03
520.817	-0.01
521.013	0.02
521.209	0.02
521.405	0.04
521.601	0.01
521.798	0.02
521.994	0.04
522.19	-0.01
522.386	-0.01
522.582	0.03
522.778	0.02
522.974	-0.01
523.17	-0
523.366	-0
523.562	0.04
523.758	0.01
523.954	0
524.15	-0.01
524.346	0.01
524.542	0.01
524.738	-0.02
524.934	0
525.129	-0.07
525.325	-0.01
525.521	0
525.717	0.02
525.913	-0
526.109	0.02
526.304	-0.01
526.5	0.03
526.696	0.02
526.892	-0.01
527.087	0.01
527.283	-0.02
527.479	0.02
527.674	-0.01
527.87	-0
528.066	0.02
528.261	0.01
528.457	0.02
528.653	0
528.848	-0
529.044	-0
529.239	0
529.435	0.02
529.63	0.04
529.826	0.04
530.021	0.01
530.217	0.02
530.412	-0.01
530.608	-0.02
530.803	0.02
530.999	0.02
531.194	-0.04
531.389	0.02
531.585	-0.04
531.78	-0
531.975	0.02
532.171	0.04
532.366	-0
532.561	0.02
532.757	-0.02
532.952	-0.01
533.147	0.03
533.342	0
533.538	-0
533.733	0.01
533.928	0.02
534.123	0.02
534.318	-0.02
534.513	-0.01
534.709	0
534.904	-0
535.099	-0
535.294	0.01
535.489	0.03
535.684	-0
535.879	-0.01
536.074	0
536.269	-0.03
536.464	0.01
536.659	-0
536.854	-0
537.049	0.02
537.244	-0.01
537.439	-0.02
537.634	0.02
537.828	0.01
538.023	-0.01
538.218	-0.03
538.413	-0.01
538.608	-0.03
538.803	0.01
538.997	-0.02
539.192	0.03
539.387	0
539.582	0
539.776	0.01
539.971	-0.01
540.166	-0
540.36	-0.01
540.555	0.01
540.75	-0.01
540.944	0.02
541.139	-0.04
541.334	0
541.528	0.01
541.723	0.02
541.917	-0.01
542.112	-0.03
542.306	0.01
542.501	0
542.695	0.01
542.89	-0.01
543.084	0.01
543.279	0
543.473	0
543.668	0.01
543.862	0.01
544.056	0.01
544.251	0.02
544.445	0.01
544.64	-0.01
544.834	-0.02
545.028	0
545.222	0.02
545.417	0.03
545.611	0.01
545.805	0.03
546	0.01
546.194	0
546.388	0
546.582	0.01
546.776	0
546.97	-0
547.165	0.02
547.359	0.02
547.553	0
547.747	0
547.941	0
548.135	-0.01
548.329	0.02
548.523	0.01
548.717	-0
548.911	-0.01
549.105	0.02
549.299	0.02
549.493	0.02
549.687	0.02
549.881	0.01
550.075	0
550.269	-0.02
550.463	0.02
550.657	0
550.85	0.03
551.044	-0.03
551.238	0.02
551.432	-0
551.626	-0.02
551.82	-0
552.013	-0.02
552.207	-0.01
552.401	0
552.594	0.01
552.788	0
552.982	-0.01
553.176	-0.02
553.369	0.02
553.563	0.01
553.756	-0.03
553.95	-0.02
554.144	0.02
554.337	0.04
554.531	0.01
554.724	0.02
554.918	-0.01
555.111	0.03
555.305	0.01
555.498	0.06
555.692	0.03
555.885	-0
556.079	0.02
556.272	0.01
556.466	0.05
556.659	0.02
556.852	-0.01
557.046	0
557.239	0.05
557.432	-0.03
557.626	-0
557.819	0.02
558.012	0.02
558.206	0.01
558.399	0.01
558.592	0.02
558.785	-0.01
558.979	0.03
559.172	0.02
559.365	0.03
559.558	-0
559.751	0.02
559.944	0.01
560.138	-0.01
560.331	-0.02
560.524	0.01
560.717	-0.01
560.91	-0
561.103	0.01
561.296	0
561.489	-0.01
561.682	0.02
561.875	0.05
562.068	0.03
562.261	0
562.454	0.04
562.647	0.02
562.84	0.01
563.032	-0.01
563.225	0.02
563.418	-0.01
563.611	-0
563.804	0.01
563.997	-0.01
564.19	-0.01
564.382	-0.04
564.575	-0.01
564.768	-0.01
564.961	0.01
565.153	0
565.346	0.04
565.539	0.02
565.731	0.04
565.924	0.02
566.117	0.03
566.309	0.02
566.502	0
566.695	-0.01
566.887	0.01
567.08	-0
567.272	-0.01
567.465	-0
567.657	0.02
567.85	0.02
568.042	0.03
568.235	0.03
568.427	0.02
568.62	0.01
568.812	0.02
569.005	0
569.197	-0.03
569.389	0.02
569.582	0.02
569.774	0.03
569.966	-0.03
570.159	-0.03
570.351	0.02
570.543	-0.01
570.736	0.01
570.928	-0.01
571.12	0.03
571.312	0.01
571.505	-0.02
571.697	0.01
571.889	-0.01
572.081	0.01
572.273	-0.03
572.465	0.05
572.658	-0
572.85	-0.01
573.042	-0.03
573.234	-0.01
573.426	0.04
573.618	-0.01
573.81	0.04
574.002	0.05
574.194	0.05
574.386	-0.03
574.578	-0.07
574.77	-0.02
574.962	0
575.154	-0.01
575.346	-0.01
575.538	0.02
575.729	-0.02
575.921	-0
576.113	-0.01
576.305	0.04
576.497	-0.01
576.689	0.01
576.88	-0
577.072	0.04
577.264	0
577.456	-0.01
577.647	-0.05
577.839	0.01
578.031	0.04
578.223	-0.04
578.414	-0.02
578.606	0.02
578.798	0
578.989	-0.03
579.181	0.01
579.372	0.01
579.564	0.01
579.755	0.01
579.947	0.02
580.139	0.03
580.33	-0.02
580.522	-0.01
580.713	-0.06
580.905	-0.01
581.096	0.02
581.287	0.01
581.479	-0.02
581.67	0.02
581.862	-0
582.053	-0.01
582.244	-0.03
582.436	0.02
582.627	0.01
582.818	-0.01
583.01	-0.02
583.201	0.04
583.392	0.03
583.583	-0.01
583.775	0
583.966	-0.01
584.157	-0.02
584.348	-0.02
584.54	-0.02
584.731	0.01
584.922	0.01
585.113	-0.01
585.304	0.01
585.495	0.04
585.686	-0.01
585.877	0
586.068	0.01
586.259	0.03
586.45	0.03
586.641	-0.01
586.832	-0.05
587.023	0.02
587.214	0.01
587.405	0.01
587.596	-0.02
587.787	0.02
587.978	0
588.169	-0.01
588.36	-0.01
588.551	0.01
588.742	-0.02
588.932	0.02
589.123	0.01
589.314	0.03
589.505	0.01
589.696	0.03
589.886	-0.03
590.077	-0.01
590.268	0
590.458	-0.02
590.649	-0.04
590.84	0.05
591.03	-0.02
591.221	-0.05
591.412	-0.06
591.602	0.02
591.793	0.05
591.984	-0.03
592.174	0.01
592.365	0.05
592.555	-0.04
592.746	0.02
592.936	0.01
593.127	0.04
593.317	0.04
593.508	-0.02
593.698	-0.01
593.889	0.02
594.079	0.01
594.269	0
594.46	-0.01
594.65	-0.01
594.84	0.01
595.031	-0.02
595.221	-0.02
595.411	-0.03
595.602	0.03
595.792	-0.01
595.982	0.02
596.172	0.06
596.363	-0.01
596.553	0.02
596.743	-0.02
596.933	0
597.123	0.03
597.314	-0.01
597.504	-0.01
597.694	0.05
597.884	0.03
598.074	-0.02
598.264	-0.01
598.454	0.02
598.644	0.02
598.834	0.02
599.024	-0.04
599.214	0
599.404	0.03
599.594	-0.02
599.784	-0.02
599.974	0.08
600.164	0.02
600.354	0
600.544	-0.03
600.734	0.01
600.924	0.04
601.114	-0.02
601.303	0.01
601.493	0.01
601.683	-0
601.873	0.02
602.063	-0.03
602.252	-0
602.442	-0.04
602.632	-0.03
602.821	-0.01
603.011	0.03
603.201	-0
603.39	0
603.58	-0.03
603.77	0.03
603.959	0.04
604.149	0.01
604.339	0.02
604.528	0.01
604.718	0.03
604.907	0.01
605.097	-0.01
605.286	-0.04
605.476	0.03
605.665	0
605.855	0.02
606.044	0.06
606.234	0.04
606.423	-0
606.612	-0.03
606.802	0.01
606.991	0.03
607.181	0.02
607.37	-0.02
607.559	-0.02
607.749	-0.03
607.938	-0.01
608.127	0.02
608.316	-0.02
608.506	0.01
608.695	-0
608.884	-0
609.073	0.01
609.263	0.02
609.452	0.04
609.641	0.03
609.83	-0.03
610.019	0.01
610.208	-0.02
610.397	0.01
610.586	0.03
610.775	-0
610.965	0.03
611.154	-0.02
611.343	0.03
611.532	-0.03
611.721	-0.02
611.91	-0.02
612.099	0.02
612.287	-0.02
612.476	-0.04
612.665	0
612.854	0.01
613.043	0.03
613.232	-0
613.421	-0.02
613.61	0.01
613.798	-0
613.987	0.05
614.176	-0
614.365	0.02
614.554	0.03
614.742	0.03
614.931	0
615.12	0.04
615.309	-0.02
615.497	0.02
615.686	-0.01
615.875	0
616.063	0.01
616.252	-0.02
616.44	0.01
616.629	0.01
616.818	0.04
617.006	0.03
617.195	-0.02
617.383	-0
617.572	-0
617.76	-0
617.949	-0.01
618.137	0.02
618.326	0.03
618.514	-0.03
618.703	-0.01
618.891	0.06
619.079	-0.02
619.268	0.03
619.456	0
619.644	0.04
619.833	0.03
620.021	-0.03
620.209	-0.04
620.398	0.05
620.586	0.01
620.774	0.04
620.962	0
621.151	0.06
621.339	0.01
621.527	-0.03
621.715	-0.03
621.903	-0
622.092	-0.03
622.28	0.02
622.468	0.01
622.656	0.01
622.844	0.03
623.032	-0
623.22	-0.04
623.408	0.04
623.596	-0.01
623.784	0.05
623.972	0
624.16	0.01
624.348	0.08
624.536	-0.01
624.724	-0.01
624.912	0.03
625.1	0.05
625.288	-0.04
625.476	-0.02
625.664	0.07
625.851	-0.01
626.039	0.01
626.227	0
626.415	0.01
626.603	-0.03
626.79	0.02
626.978	-0
627.166	0
627.354	-0.02
627.541	-0.02
627.729	-0.05
627.917	0.05
628.104	0.04
628.292	0.01
628.48	0.01
628.667	0.01
628.855	-0
629.042	0.01
629.23	0.01
629.418	-0.02
629.605	-0.04
629.793	0
629.98	-0
630.168	0
630.355	-0.01
630.543	0.02
630.73	-0.02
630.917	0.05
631.105	0.07
631.292	-0
631.48	-0
631.667	0.05
631.854	0.01
632.042	-0.02
632.229	-0.01
632.416	0.03
632.604	0.01
632.791	-0.03
632.978	0.02
633.165	0.03
633.353	0.06
633.54	0.03
633.727	-0.05
633.914	-0.01
634.101	-0.07
634.289	0.04
634.476	0.03
634.663	0.01
634.85	0.01
635.037	-0.03
635.224	-0.05
635.411	0.05
635.598	0.05
635.785	0.01
635.972	-0
636.159	0.01
636.346	0.01
636.533	0.01
636.72	-0
636.907	0.01
637.094	0.05
637.281	-0
637.468	0.01
637.655	0
637.842	0.01
638.029	-0.02
638.215	0.06
638.402	-0.03
638.589	0.02
638.776	-0
638.963	0.02
639.149	0.06
639.336	0.09
639.523	-0.03
639.709	0.03
639.896	-0.02
640.083	0.07
640.27	0.04
640.456	-0.01
640.643	0.01
640.829	-0.02
641.016	0.01
641.203	-0.03
641.389	0.03
641.576	0.04
641.762	0.02
641.949	-0.03
642.135	0.05
642.322	0.04
642.508	-0.04
642.695	0.02
642.881	-0.01
643.068	0.03
643.254	0.03
643.441	0.05
643.627	0
643.813	-0.01
644	0.05
644.186	0.03
644.372	0
644.559	0.05
644.745	0.02
644.931	-0.02
645.118	0.02
645.304	0
645.49	-0.02
645.676	-0
645.862	0.01
646.049	0.05
646.235	0
646.421	0.09
646.607	0.07
646.793	-0.02
646.979	-0.02
647.165	0.03
647.352	0.04
647.538	0.06
647.724	0.02
647.91	0.04
648.096	0.04
648.282	0.08
648.468	0.03
648.654	0.02
648.84	0.04
649.026	0.03
649.212	-0.03
649.397	0.02
649.583	-0.03
649.769	0.04
649.955	0.01
650.141	0.04
650.327	0.09
650.513	-0.01
650.698	0.03
650.884	-0.04
651.07	0.03
651.256	-0
651.442	0.01
651.627	0
651.813	0.05
651.999	-0
652.184	0.06
652.37	-0.01
652.556	0
652.741	0.07
652.927	-0.05
653.113	0.01
653.298	0.01
653.484	-0
653.669	-0.03
653.855	0.02
654.04	0.04
654.226	-0
654.412	-0.03
654.597	-0.02
654.782	0.05
654.968	0.07
655.153	0.04
655.339	0.01
655.524	-0.01
655.71	0.06
655.895	0
656.08	0.02
656.266	0.06
656.451	0.02
656.636	-0.03
656.822	0.06
657.007	0
657.192	0.02
657.378	-0.06
657.563	0.03
657.748	0.04
657.933	0.02
658.118	0
658.304	0.02
658.489	0.04
658.674	0.01
658.859	-0.03
659.044	0.06
659.229	0.07
659.414	0.02
659.599	0.03
659.785	-0.01
659.97	-0
660.155	0.09
660.34	0.04
660.525	-0.01
660.71	0.06
660.895	0.06
661.08	0.01
661.264	0.03
661.449	0.09
661.634	0.1
661.819	0.04
662.004	0.08
662.189	-0.02
662.374	0.04
662.559	-0
662.743	-0.02
662.928	0.09
663.113	0.03
663.298	-0.02
663.483	0
663.667	0.08
663.852	0
664.037	0.1
664.221	0.01
664.406	0.07
664.591	0.06
664.775	0.06
664.96	0.01
665.145	0.03
665.329	0.08
665.514	0.01
665.698	0.06
665.883	-0.01
666.068	0.09
666.252	0.01
666.437	-0.03
666.621	0.08
666.806	0.08
666.99	0.1
667.174	0.02
667.359	0.1
667.543	0.02
667.728	0.05
667.912	-0.02
668.096	0.09
668.281	0.01
668.465	0.02
668.649	0.06
668.834	0.07
669.018	0.02
669.202	0.06
669.387	0.03
669.571	0.14
669.755	0.06
669.939	0.08
670.124	0.05
670.308	0.1
670.492	0.09
670.676	0.11
670.86	0.08
671.044	0.05
671.228	0.12
671.413	0.03
671.597	0.02
671.781	0.06
671.965	0.09
672.149	0.09
672.333	0.06
672.517	0.04
672.701	0.11
672.885	0.07
673.069	0.02
673.253	0.09
673.437	0.06
673.621	0.11
673.804	0.09
673.988	0.09
674.172	0.11
674.356	0.04
674.54	0.07
674.724	0.17
674.908	0.08
675.091	0.1
675.275	0.08
675.459	0.13
675.643	0.07
675.826	0.08
676.01	0.13
676.194	0.09
676.377	0.15
676.561	0.16
676.745	0.1
676.928	0.14
677.112	0.13
677.296	0.03
677.479	0.11
677.663	0.09
677.846	0.15
678.03	0.1
678.213	0.12
678.397	0.13
678.58	0.09
678.764	0.12
678.947	0.13
679.131	0.09
679.314	0.17
679.498	0.1
679.681	0.14
679.865	0.2
680.048	0.14
680.231	0.12
680.415	0.11
680.598	0.13
680.781	0.15
680.965	0.11
681.148	0.17
681.331	0.13
681.514	0.16
681.698	0.15
681.881	0.15
682.064	0.16
682.247	0.17
682.43	0.06
682.614	0.22
682.797	0.23
682.98	0.18
683.163	0.11
683.346	0.21
683.529	0.17
683.712	0.14
683.895	0.22
684.078	0.12
684.261	0.17
684.444	0.2
684.627	0.2
684.81	0.21
684.993	0.2
685.176	0.25
685.359	0.18
685.542	0.19
685.725	0.29
685.908	0.23
686.091	0.2
686.274	0.27
686.457	0.23
686.639	0.26
686.822	0.26
687.005	0.25
687.188	0.25
687.371	0.3
687.553	0.29
687.736	0.28
687.919	0.35
688.102	0.35
688.284	0.29
688.467	0.27
688.65	0.26
688.832	0.26
689.015	0.28
689.197	0.24
689.38	0.38
689.563	0.35
689.745	0.22
689.928	0.26
690.11	0.31
690.293	0.36
690.475	0.33
690.658	0.33
690.84	0.33
691.023	0.29
691.205	0.34
691.388	0.34
691.57	0.33
691.752	0.43
691.935	0.31
692.117	0.36
692.3	0.39
692.482	0.34
692.664	0.39
692.847	0.41
693.029	0.47
693.211	0.48
693.393	0.42
693.576	0.42
693.758	0.4
693.94	0.42
694.122	0.42
694.304	0.44
694.487	0.48
694.669	0.56
694.851	0.41
695.033	0.48
695.215	0.41
695.397	0.46
695.579	0.53
695.761	0.47
695.943	0.5
696.125	0.64
696.308	0.59
696.49	0.47
696.671	0.68
696.853	0.58
697.035	0.74
697.217	0.6
697.399	0.61
697.581	0.52
697.763	0.61
697.945	0.57
698.127	0.64
698.309	0.73
698.491	0.71
698.672	0.69
698.854	0.7
699.036	0.76
699.218	0.69
699.399	0.73
699.581	0.77
699.763	0.7
699.945	0.67
700.126	0.73
700.308	0.79
700.49	0.69
700.671	0.71
700.853	0.8
701.035	0.86
701.216	0.85
701.398	0.82
701.579	0.85
701.761	0.92
701.943	0.78
702.124	0.89
702.306	0.87
702.487	1.04
702.669	0.95
702.85	0.89
703.031	0.89
703.213	1.05
703.394	1.06
703.576	1.03
703.757	1.16
703.938	1.09
704.12	1.17
704.301	1.1
704.483	1.1
704.664	1.14
704.845	1.23
705.026	1.15
705.208	1.19
705.389	1.26
705.57	1.23
705.751	1.24
705.933	1.35
706.114	1.36
706.295	1.38
706.476	1.28
706.657	1.48
706.838	1.48
707.02	1.5
707.201	1.45
707.382	1.44
707.563	1.56
707.744	1.39
707.925	1.43
708.106	1.49
708.287	1.64
708.468	1.59
708.649	1.58
708.83	1.56
709.011	1.65
709.192	1.69
709.373	1.63
709.554	1.75
709.734	1.85
709.915	1.81
710.096	1.85
710.277	1.75
710.458	1.9
710.639	1.88
710.819	1.92
711	1.95
711.181	2.09
711.362	2.07
711.542	2.17
711.723	2.16
711.904	2.17
712.085	2.11
712.265	2.22
712.446	2.16
712.627	2.28
712.807	2.31
712.988	2.41
713.168	2.33
713.349	2.41
713.53	2.25
713.71	2.46
713.891	2.37
714.071	2.56
714.252	2.65
714.432	2.72
714.613	2.57
714.793	2.76
714.974	2.84
715.154	2.91
715.334	2.95
715.515	2.98
715.695	2.84
715.876	3
716.056	3.03
716.236	3.02
716.417	3.19
716.597	3.21
716.777	3.52
716.957	3.36
717.138	3.37
717.318	3.29
717.498	3.41
717.678	3.55
717.859	3.6
718.039	3.52
718.219	3.66
718.399	3.75
718.579	3.78
718.759	3.87
718.939	3.91
719.12	3.98
719.3	3.96
719.48	3.97
719.66	4.04
719.84	4.25
720.02	4.22
720.2	4.31
720.38	4.49
720.56	4.66
720.74	4.6
720.92	4.6
721.1	4.77
721.279	4.9
721.459	4.81
721.639	4.82
721.819	4.95
721.999	5.1
722.179	5.04
722.359	4.96
722.538	5.33
722.718	5.39
722.898	5.57
723.078	5.5
723.257	5.58
723.437	5.81
723.617	5.82
723.797	5.8
723.976	5.87
724.156	6.11
724.336	6.09
724.515	6.37
724.695	6.21
724.874	6.47
725.054	6.43
725.234	6.48
725.413	6.79
725.593	6.63
725.772	6.83
725.952	6.83
726.131	6.88
726.311	6.98
726.49	7.13
726.67	7.12
726.849	7.2
727.028	7.38
727.208	7.28
727.387	7.55
727.567	7.6
727.746	7.7
727.925	7.86
728.105	7.79
728.284	8.01
728.463	7.8
728.643	8.17
728.822	8.19
729.001	8.28
729.18	8.55
729.359	8.59
729.539	8.64
729.718	8.67
729.897	8.88
730.076	9.01
730.255	8.94
730.434	9.2
730.614	9.26
730.793	9.48
730.972	9.35
731.151	9.45
731.33	9.68
731.509	9.66
731.688	9.71
731.867	9.91
732.046	9.8
732.225	10.29
732.404	10
732.583	10.11
732.762	10.39
732.941	10.62
733.12	10.68
733.298	10.8
733.477	11.04
733.656	10.98
733.835	10.87
734.014	11.18
734.193	11.08
734.371	11.51
734.55	11.52
734.729	11.43
734.908	11.43
735.086	11.67
735.265	11.73
735.444	11.56
735.623	11.86
735.801	12.1
735.98	11.98
736.159	11.77
736.337	12.19
736.516	12.09
736.694	11.91
736.873	12.07
737.052	12.28
737.23	11.97
737.409	11.97
737.587	12.33
737.766	12
737.944	12
738.123	12.36
738.301	11.97
738.479	12.29
738.658	12.11
738.836	11.56
739.015	11.81
739.193	11.89
739.371	11.5
739.55	11.31
739.728	11.02
739.906	11.36
740.085	11.41
740.263	11.22
740.441	10.58
740.62	10.69
740.798	10.56
740.976	10.29
741.154	10.07
741.332	10.16
741.511	9.54
741.689	9.42
741.867	9.22
742.045	9.01
742.223	8.61
742.401	8.46
742.579	8.29
742.757	8.27
742.935	7.99
743.114	7.94
743.292	7.55
743.47	7.51
743.648	7.14
743.826	7.28
744.004	6.86
744.181	6.63
744.359	6.48
744.537	6.29
744.715	5.84
744.893	5.98
745.071	5.69
745.249	5.43
745.427	5.3
745.605	5.16
745.782	5.03
745.96	4.95
746.138	4.9
746.316	4.6
746.493	4.34
746.671	4.34
746.849	4.24
747.027	4.16
747.204	3.69
747.382	3.84
747.56	3.61
747.737	3.57
747.915	3.31
748.093	3.47
748.27	3.12
748.448	3.21
748.625	2.8
748.803	2.85
748.98	2.81
749.158	2.82
749.335	2.76
749.513	2.61
749.69	2.4
749.868	2.41
750.045	2.31
750.223	2.25
750.4	1.94
750.578	2.35
750.755	2.1
750.932	1.83
751.11	2.04
751.287	1.8
751.464	1.95
751.642	1.66
751.819	1.87
751.996	1.66
752.173	1.6
752.351	1.43
752.528	1.67
752.705	1.58
752.882	1.45
753.06	1.45
753.237	1.39
753.414	1.68
753.591	1.59
753.768	1.4
753.945	1.13
754.122	1.15
754.299	1.2
754.476	1.02
754.654	1.22
754.831	0.99
755.008	1.11
755.185	0.98
755.362	1.03
755.539	0.97
755.716	0.87
755.892	0.87
756.069	0.95
756.246	0.74
756.423	0.86
756.6	0.91
756.777	0.76
756.954	0.81
757.131	0.72
757.307	0.58
757.484	0.7
757.661	0.66
757.838	0.69
758.015	0.54
758.191	0.58
758.368	0.72
758.545	0.82
758.721	0.59
758.898	0.47
759.075	0.64
759.251	0.66
759.428	0.69
759.605	0.23
759.781	0.52
759.958	0.65
760.134	0.53
760.311	0.44
760.488	0.64
760.664	0.58
760.841	0.48
761.017	0.38
761.194	0.51
761.37	0.49
761.547	0.36
761.723	0.41
761.899	0.57
762.076	0.37
762.252	0.2
762.429	0.33
762.605	0.5
762.781	0.31
762.958	0.46
763.134	0.26
763.31	0.25
763.486	0.34
763.663	0.2
763.839	0.32
764.015	0.14
764.191	0.26
764.368	0.3
764.544	0.17
764.72	0.33
764.896	0.31
765.072	0.27
765.248	0.24
765.425	0.18
765.601	0.27
765.777	0.28
765.953	0.12
766.129	0.18
766.305	0.2
766.481	0.36
766.657	0.16
766.833	0.35
767.009	0.05
767.185	0.18
767.361	0.21
767.537	0.06
767.713	0.3
767.889	0.12
768.065	0.17
768.24	-0.08
768.416	0.07
768.592	0.19
768.768	0.18
768.944	0.18
769.12	0.04
769.295	0.16
769.471	0.2
769.647	0.2
769.823	0.35
769.998	0.11
770.174	-0.02
770.35	0.4
770.525	0.37
770.701	0.19
770.877	0.13
771.052	0.22
771.228	0.33
771.403	0.16
771.579	0.25
771.755	0.47
771.93	0.11
772.106	-0.05
772.281	-0.18
772.457	0.21
772.632	0.22
772.808	-0.06
772.983	0.08
773.159	-0.05
773.334	0.23
773.509	0.17
773.685	0.09
773.86	0.49
774.036	0.34
774.211	0.1
774.386	0.11
774.562	0.14
774.737	0.12
774.912	-0.03
775.087	0.17
775.263	0.15
775.438	0.16
775.613	-0.03
775.788	-0.02
775.964	0.23
776.139	0.37
776.314	-0.03
776.489	0.27
776.664	0.24
776.839	-0.08
777.014	0.28
777.19	0.24
777.365	0.33
777.54	0.31
777.715	0.03
777.89	0.05
778.065	0.15
778.24	0.06
778.415	0.3
778.59	0.07
778.765	-0.03
778.94	0.08
779.115	-0.02
779.289	0.05
779.464	0.06
779.639	0.06
779.814	-0.15
779.989	-0.16
780.164	0.37
780.339	0.16
780.513	0.02
780.688	0
780.863	0.05
781.038	0.15
781.212	-0.07
781.387	0.23
781.562	0.56
781.737	-0.11
781.911	0.26
782.086	-0.04
782.261	0.14
782.435	0.33
782.61	-0.04
782.784	0.06
782.959	0.2
783.134	-0.02
783.308	-0.25
783.483	0.17
783.657	0.42
783.832	0.28
784.006	-0.22
784.181	0.12
784.355	0.3
784.53	-0.13
784.704	-0.17
784.878	0.38
785.053	0.46
785.227	0.43
785.402	0.37
785.576	-0.1
785.75	0
785.925	-0.09
786.099	0.18
786.273	0.32
786.448	-0.06
786.622	0.32
786.796	0.06
786.97	0.02
787.145	0.58
787.319	-0.19
787.493	-0.05
787.667	-0.27
787.841	0.15
788.015	0.42
788.19	0.02
788.364	0.22
788.538	0.31
788.712	0.33
788.886	0.18
789.06	0.33
789.234	0.03
789.408	-0.13
789.582	-0.06
789.756	0.03
789.93	-0.07
790.104	0.05
790.278	0.19
790.452	0.01
790.626	0.31
790.8	0
790.973	0.29
791.147	0.22
791.321	0.65
791.495	0.21
791.669	0.01
791.843	0.19
792.016	0.3
792.19	0.52
792.364	-0.11
792.538	0.58
792.711	0.12
792.885	-0.04
793.059	-0.1
793.233	-0.55
793.406	0.46
793.58	0.08
793.754	0.4
793.927	0.05
794.101	0.44
794.274	0.02
794.448	0.29
794.622	0
794.795	0.27
794.969	-0.04
795.142	0.43
795.316	0.15
795.489	-0.12
795.663	0.36
795.836	-0.03
796.009	0.08
796.183	0.37
796.356	0.18
796.53	0.19
796.703	0.1
796.876	0.55
797.05	0.05
797.223	0.05
797.396	0.31
797.57	0.35
797.743	0.4
797.916	0.22
798.09	0.08
798.263	0.23
798.436	0.28
798.609	0.03
798.782	-0.21
798.956	0.42
799.129	0.1
799.302	0.25
799.475	0.05
799.648	-0.15
799.821	0.23
799.994	0.15
800.167	-0.34
800.34	0.23
800.514	0.34
800.687	-0.09
800.86	-0.19
801.033	0.35
801.206	0.24
801.379	-0.02
801.551	0.4
801.724	0.12
801.897	0.26
802.07	-0.15
802.243	-0.47
802.416	0.18
802.589	-0.01
802.762	0.23
802.935	0.36
803.107	0.16
803.28	0.55
803.453	0.6
803.626	-0.07
803.798	-0
803.971	-0.07
804.144	0.18
804.317	0.35
804.489	0.51
804.662	0.16
804.835	0.37
805.007	-0.29
805.18	0.26
805.353	0.26
805.525	-0.2
805.698	-0.17
805.87	0.28
806.043	0.43
806.215	-0.18
806.388	-0.16
806.56	0.21
806.733	0.4
806.905	0.22
807.078	-0.1
807.25	0.07
807.423	0.03
807.595	-0.11
807.768	0.11
807.94	0.15
808.112	0.44
808.285	0.39
808.457	0.01
808.629	0.24
808.802	0.25
808.974	-0.14
809.146	0.07
809.318	-0.15
809.491	0.26
809.663	0.19
809.835	-0.3
810.007	0.22
810.18	0.19
810.352	-0.29
810.524	0.2
810.696	0.16
810.868	0.35
811.04	-0.03
811.212	-0.14
811.384	0.27
811.556	-0.05
811.728	0.06
811.901	0.66
812.073	0.13
812.245	0.45
812.417	0.17
812.589	-0.63
812.76	0.32
812.932	0.52
813.104	0.24
813.276	0.18
813.448	1.01
813.62	0.02
813.792	0.38
813.964	0.39
814.136	0.14
814.307	-0.01
814.479	-0.31
814.651	0.17
814.823	0.92
814.995	0.01
815.166	0.24
815.338	-0.2
815.51	-0.38
815.681	0.9
815.853	-0.14
816.025	-0.02
816.196	0.76
816.368	0.4
816.54	-0.2
816.711	-0.17
816.883	-0.09
817.054	0.79
817.226	-0.29
817.398	0.31
817.569	0.15
817.741	0.19
817.912	0.21
818.084	-0.01
818.255	0.37
818.426	-0.04
818.598	0.06
818.769	-0.06
818.941	0.18
819.112	0.64
819.283	0.36
819.455	-0.54
819.626	0.27
819.798	0.27
819.969	0.36
820.14	0.06
820.311	0.37
820.483	0.71
820.654	0.29
820.825	-0.27
820.996	0.24
821.168	-0.09
821.339	0.19
821.51	-0.41
821.681	1.24
821.852	0.11
822.023	-0.08
822.195	-0.22
822.366	0.32
822.537	-0.15
822.708	-0.33
822.879	-0.26
823.05	0.72
823.221	0
823.392	0.14
823.563	0.37
823.734	-0.09
823.905	0.11
824.076	-0.28
824.247	0.1
824.418	-0.03
824.589	0.84
824.759	0.64
824.93	-0.15
825.101	-0.32
825.272	0.71
825.443	0.31
825.614	0.45
825.784	-0.21
825.955	1.26
826.126	1.08
826.297	-0.06
826.467	1.91
826.638	0.69
826.809	-0.9
826.98	-0.02
827.15	0.15
827.321	-0.01
827.492	0.82
827.662	0.1
827.833	0.96
828.003	0.46
828.174	-0.15
828.345	-0.02
828.515	1.03
828.686	0.45
828.856	0.35
829.027	0.11
829.197	0.25
829.368	0.35
829.538	0.03
829.709	-0.16
829.879	-0.05
830.049	0.39
830.22	-0.01
830.39	-0.18
830.56	0.97
830.731	-0.29
830.901	-0.09
831.072	0.88
831.242	0.61
831.412	0.06
831.582	0.41
831.753	-0.77
831.923	0.77
832.093	0.16
832.263	-0.04
832.434	0.22
832.604	-0.25
832.774	1.03
832.944	-0.06
833.114	-0.21
833.284	0.9
833.454	-0.13
833.624	-0.22
833.795	-0.42
833.965	0.89
834.135	1.05
834.305	-0.4
834.475	-0.09
834.645	0.83
834.815	-0.46
834.985	-0.31
835.155	-0.22
835.325	0.42
835.494	-0.28
835.664	0.06
835.834	-0.63
836.004	0.02
836.174	0.22
836.344	0
836.514	-1.15
836.684	0.07
836.853	0.57
837.023	0.35
837.193	0.14
837.363	0.86
837.532	1.83
837.702	0.58
837.872	0.11
838.041	1.14
838.211	1.14
838.381	-0.44
838.55	0.74
838.72	1.56
838.89	0.92
839.059	0.17
839.229	0.42
839.398	1.84
839.568	-0.09
839.738	0.29
839.907	1.39
840.077	0.99
840.246	0.03
840.416	-0.39
840.585	-0.42
840.755	1.53
840.924	1.1
841.093	-0.37
841.263	0.17
841.432	0.93
841.602	0.07
841.771	-0.44
841.94	0.68
842.11	1.75
842.279	1.6
842.448	-0.58
842.617	-0.3
842.787	0.93
842.956	-0.67
843.125	0.56
843.294	0.86
843.464	1.2
843.633	1.03
843.802	-0.82
843.971	0.01
844.14	0.61
844.309	1.23
844.479	-0.32
844.648	-0.22
844.817	0.36
844.986	-0.74
845.155	0.05
845.324	-0.22
845.493	0.01
845.662	-0.45
845.831	1.12
846	1.21
846.169	0.37
846.338	1.85
846.507	0.55
846.676	0.96
846.844	0.34
847.013	0.71
847.182	1.12
847.351	-0.2
847.52	0.16
847.689	0.65
847.858	-0.09
848.026	0.33
848.195	0.85
848.364	0.08
848.533	0.25
848.701	-0.15
848.87	0.12
849.039	1.66
849.207	0.9
849.376	2.32
849.545	0.96
849.713	0.26
849.882	0.83
850.051	-0.11
850.219	1.51
850.388	1.04
850.556	-0.37
850.725	-0.28
850.893	0.4
851.062	0.89
851.23	1.07
851.399	-0.63
851.567	0.19
851.736	-0.64
851.904	-0.76
852.073	0.96
852.241	1.39
852.41	0.36
852.578	1.27
852.746	0.03
852.915	0.84
853.083	0.08
853.251	-1.22
853.42	0.35
853.588	0.19
853.756	1.15
853.924	0.17
854.093	1.31
854.261	-0.3
854.429	-0.93
854.597	1.42
854.765	-1.14
854.934	0.67
855.102	0.54
855.27	0.67
855.438	1.57
855.606	0.78
855.774	1.57
855.942	-0.29
856.11	-0.61
856.278	0.51
856.446	2.06
856.614	-0.07
856.782	0.01
856.95	1.2
857.118	1.61
857.286	0.06
857.454	0.15
857.622	1.19
857.79	1.74
857.958	0.1
858.126	0.26
858.294	-1.99
858.462	0.04
858.629	0.77
858.797	-0.06
858.965	1.73
859.133	0.47
859.301	0.29
859.468	0.21
859.636	-0.15
859.804	1.51
859.971	1.92
860.139	-0.13
860.307	0.68
860.474	0.06
860.642	-1.21
860.81	1.19
860.977	0.99
861.145	1.29
861.313	0.43
861.48	1.08
861.648	0.57
861.815	0.95
861.983	0.31
862.15	0.51
862.318	0.75
862.485	1.66
862.653	-0.65
862.82	-0
862.988	2.05
863.155	0.36
863.322	-0.99
863.49	-1.45
863.657	0.19
863.824	2.87
863.992	0.93
864.159	1.67
864.326	3.27
864.494	0.85
864.661	2.79
864.828	-0.69
864.996	0.99
865.163	2.17
865.33	0.04
865.497	-1.35
865.664	0.41
865.832	-1.09
865.999	0.52
866.166	-1.13
866.333	0.44
866.5	-0.84
866.667	0.03
866.834	-0.23
867.001	1.4
867.168	-1.57
867.335	1.33
867.502	-0.91
867.669	0.35
867.836	2.75
868.003	1.02
868.17	1.17
868.337	0.41
868.504	3.56
868.671	-1.61
868.838	0.9
869.005	0.57
869.172	0.71
869.339	1.41
869.505	0.92
869.672	1.12
869.839	2.57
870.006	0.88
870.173	0.11
870.339	1.65
870.506	3.53
870.673	0.23
870.84	2.55
871.006	0.03
871.173	-0.71
871.34	0.83
871.506	0.85
871.673	1.18
871.839	0.62
872.006	1.19
872.173	0.73
872.339	0.32
872.506	3.21
872.672	0.14
872.839	-0.65
873.005	1.63
873.172	4.45
873.338	1.6
873.505	2.32
873.671	0.4
873.838	1.67
874.004	-0.31
874.171	-0.09
874.337	2.1
874.503	3.53
874.67	1.8
874.836	-0.94
875.002	1.95
875.169	1.87
875.335	0.59
875.501	0.12
875.668	2.55
875.834	0.76
876	1.08
876.166	3.07
876.332	2.35
876.499	3.64
876.665	-0.17
876.831	1.18
876.997	3.11
877.163	2.34
877.329	0.87
877.495	0.58
877.662	1.68
877.828	1.39
877.994	0.42
878.16	0.57
878.326	-1.47
878.492	1.18
878.658	0.07
878.824	1.07
878.99	3.1
879.156	1.28
879.322	4.25
879.487	0.59
879.653	2.14
879.819	1.6
879.985	-0.69
880.151	1.11
880.317	1.41
880.483	2.4
880.648	2.4
880.814	-1.76
880.98	1.53
881.146	0.43
881.312	-0.44
881.477	2.08
881.643	1.27
881.809	1.76
881.974	3.83
882.14	-0.68
882.306	2.74
882.471	3.46
882.637	-0.61
882.803	1.68
882.968	3.45
883.134	3.43
883.299	2.89
883.465	0.61
883.63	2.9
883.796	3.05
883.961	1.48
884.127	0.31
884.292	-3.79
884.458	-1.17
884.623	-1.17
