Data from Apollo_Calib_20240827__AbsoluteIrradiance__329__04-38-00-814.txt Node

Date: Wed Aug 28 04:38:00 BST 2024
User: biology
Spectrometer: FLMT08252
Trigger mode: 0
Integration Time (sec): 5.000000E-1
Scans to average: 5
Electric dark correction enabled: true
Nonlinearity correction enabled: false
Boxcar width: 0
XAxis mode: Wavelengths
Number of Pixels in Spectrum: 3648
>>>>>Begin Spectral Data<<<<<
179.588	-0
179.809	-0
180.03	-0
180.251	-0
180.473	-0
180.694	0
180.915	0
181.136	-0
181.357	0
181.578	-0
181.799	-0
182.02	-0
182.241	0
182.462	-0
182.683	0
182.904	-0
183.125	-0
183.346	-0
183.567	0
183.788	-0
184.009	-0
184.23	0
184.451	0
184.672	-0
184.892	-0
185.113	0
185.334	0
185.555	-0
185.776	-0
185.996	0
186.217	-0
186.438	-0
186.659	-0
186.879	-0
187.1	-0
187.321	-0
187.541	-0
187.762	-0
187.983	-0
188.203	-0
188.424	0
188.644	0
188.865	0
189.086	-0
189.306	-0
189.527	-0
189.747	-0
189.968	-0
190.188	0
190.409	0
190.629	0
190.849	-0
191.07	-0
191.29	0
191.511	-0
191.731	-0
191.951	-0
192.172	-0
192.392	0
192.612	-0
192.833	-0
193.053	0
193.273	0
193.493	-0
193.714	-0
193.934	0
194.154	0
194.374	0
194.594	0
194.815	0
195.035	0
195.255	-0
195.475	-0
195.695	0
195.915	0
196.135	0
196.355	0
196.575	0
196.795	0
197.015	-0
197.235	-0
197.455	0
197.675	-0
197.895	-0
198.115	-0
198.335	0
198.555	-0
198.775	0
198.995	0
199.214	0
199.434	0
199.654	-0
199.874	-0
200.094	0.57
200.313	-0.18
200.533	-0.44
200.753	-0.69
200.973	1.21
201.192	0.56
201.412	-1.07
201.632	0.11
201.851	0.66
202.071	-0.5
202.291	-0.73
202.51	-0.58
202.73	0.4
202.95	-0.34
203.169	-0.54
203.389	0.01
203.608	0.2
203.828	-0.31
204.047	-0.05
204.267	0.59
204.486	0.13
204.706	-0.01
204.925	-0.31
205.145	-0.42
205.364	-0.09
205.583	1.15
205.803	-0.28
206.022	-0.18
206.242	0.16
206.461	0.17
206.68	-0.39
206.9	0.15
207.119	0.6
207.338	0.67
207.557	-0
207.777	-0.22
207.996	-0.1
208.215	0.41
208.434	-0.23
208.654	-0.45
208.873	-0.04
209.092	0.21
209.311	-0.17
209.53	-0.24
209.749	0.07
209.968	-0.28
210.187	-0.12
210.407	-0.35
210.626	-0.03
210.845	0.46
211.064	0
211.283	-0.17
211.502	0.24
211.721	0.03
211.94	0.06
212.159	0.17
212.377	0.14
212.596	0.56
212.815	-0.14
213.034	0.07
213.253	0.28
213.472	0.09
213.691	-0.03
213.91	-0.26
214.128	-0.23
214.347	0.48
214.566	-0.51
214.785	-0.27
215.003	0.17
215.222	0.3
215.441	-0.06
215.66	-0.25
215.878	0.08
216.097	0.23
216.316	-0.34
216.534	-0.05
216.753	0.07
216.972	-0.17
217.19	-0.1
217.409	-0.13
217.627	-0.04
217.846	-0.04
218.064	0
218.283	-0.11
218.501	0.29
218.72	0.13
218.938	-0.18
219.157	-0.15
219.375	0.09
219.594	0.09
219.812	-0.19
220.031	-0.27
220.249	0.36
220.467	0.29
220.686	-0.08
220.904	-0.27
221.122	-0.15
221.341	0.38
221.559	0.13
221.777	-0.11
221.995	-0.1
222.214	0.26
222.432	-0.11
222.65	0.34
222.868	0.05
223.086	0.19
223.305	0.05
223.523	-0.08
223.741	0.33
223.959	-0.17
224.177	-0.3
224.395	-0.17
224.613	0.11
224.831	0.13
225.049	-0.19
225.267	-0.1
225.485	0.06
225.703	-0.13
225.921	-0.04
226.139	-0.02
226.357	0.1
226.575	-0.05
226.793	-0.08
227.011	0.51
227.229	0.14
227.447	0.15
227.665	-0.14
227.883	-0.24
228.1	0.03
228.318	0.07
228.536	-0.17
228.754	-0.19
228.972	0.07
229.189	0.14
229.407	-0.1
229.625	-0.02
229.843	0.25
230.06	-0.01
230.278	-0.15
230.496	-0.02
230.713	0.1
230.931	0.17
231.149	-0.1
231.366	-0.19
231.584	0.12
231.801	0.38
232.019	-0.08
232.236	-0.11
232.454	-0.08
232.671	-0.02
232.889	-0.08
233.106	-0.1
233.324	-0.01
233.541	0.05
233.759	0.02
233.976	-0.15
234.194	0.02
234.411	-0.01
234.628	-0.05
234.846	-0.01
235.063	0.03
235.28	-0.05
235.498	-0.03
235.715	-0.17
235.932	0.12
236.149	-0.03
236.367	-0.1
236.584	-0.03
236.801	-0.03
237.018	0.04
237.236	0.02
237.453	-0.16
237.67	0.14
237.887	-0.03
238.104	-0.01
238.321	-0.06
238.538	-0.1
238.755	0.16
238.973	-0.14
239.19	0.03
239.407	0.06
239.624	0.11
239.841	-0.14
240.058	-0.08
240.275	0.06
240.492	-0
240.709	-0.06
240.925	-0.08
241.142	0.04
241.359	-0.08
241.576	-0.01
241.793	-0.04
242.01	0.04
242.227	0.14
242.444	0.08
242.66	-0.01
242.877	0.06
243.094	-0.01
243.311	0.03
243.527	0.07
243.744	0.13
243.961	0.04
244.178	-0.04
244.394	0.02
244.611	0.13
244.828	0.19
245.044	-0.08
245.261	0.03
245.477	0.04
245.694	0.04
245.911	-0.12
246.127	0.07
246.344	0.23
246.56	0.09
246.777	-0.04
246.993	-0.05
247.21	0.08
247.426	0.11
247.643	-0.06
247.859	-0.08
248.076	-0
248.292	0.19
248.508	-0.07
248.725	-0.03
248.941	0.01
249.157	0.15
249.374	-0.06
249.59	-0.01
249.806	0.06
250.023	0.19
250.239	0.01
250.455	-0.07
250.671	0.01
250.888	0.13
251.104	0.08
251.32	-0.01
251.536	0.09
251.752	0.02
251.969	0
252.185	-0.01
252.401	0.23
252.617	0.06
252.833	-0.11
253.049	-0.01
253.265	0.09
253.481	0.07
253.697	-0.06
253.913	-0.08
254.129	0.04
254.345	0.09
254.561	-0.02
254.777	0.02
254.993	0.1
255.209	0.04
255.425	-0.03
255.641	-0.03
255.857	0.14
256.073	0.01
256.288	-0.03
256.504	-0.01
256.72	0.05
256.936	0.2
257.152	0.02
257.367	-0.04
257.583	0.02
257.799	0.06
258.015	0.02
258.23	-0.04
258.446	0.14
258.662	-0
258.877	0
259.093	-0.03
259.309	-0.01
259.524	0.05
259.74	-0.03
259.955	-0.13
260.171	0.07
260.387	0.01
260.602	0.03
260.818	0
261.033	-0.09
261.249	-0.02
261.464	-0.08
261.68	-0.1
261.895	0.08
262.11	0.09
262.326	-0.05
262.541	-0.03
262.757	0.09
262.972	0.04
263.187	0.05
263.403	-0.05
263.618	0.1
263.833	0.04
264.049	-0.02
264.264	0.05
264.479	0.11
264.694	0.12
264.91	-0.07
265.125	-0.02
265.34	0.06
265.555	0.15
265.77	0.03
265.986	-0.04
266.201	0.1
266.416	0.16
266.631	-0.03
266.846	0.03
267.061	0.06
267.276	0.1
267.491	-0.13
267.706	0
267.921	0.09
268.136	0.07
268.351	-0.01
268.566	-0.09
268.781	0.09
268.996	0.06
269.211	-0.01
269.426	-0.09
269.641	-0.01
269.856	0.16
270.071	-0.03
270.285	-0.04
270.5	0.1
270.715	0.06
270.93	0.07
271.145	0.03
271.359	0.01
271.574	-0.02
271.789	-0.01
272.004	-0.04
272.218	0.03
272.433	0.1
272.648	-0
272.862	0.09
273.077	0.03
273.292	0.03
273.506	-0.02
273.721	-0.01
273.936	0.06
274.15	0.14
274.365	-0.07
274.579	0.09
274.794	0.1
275.008	0.07
275.223	-0.06
275.437	0.03
275.652	0.07
275.866	0.07
276.081	0.01
276.295	0.06
276.509	0.06
276.724	0
276.938	0.07
277.153	0.03
277.367	-0.05
277.581	0.01
277.796	0.01
278.01	-0.06
278.224	0.11
278.438	0.14
278.653	-0.04
278.867	-0.02
279.081	0.12
279.295	0.01
279.51	0.06
279.724	-0.08
279.938	0.13
280.152	0.1
280.366	-0.04
280.58	0.06
280.794	0.1
281.008	0.02
281.222	0.08
281.437	0.14
281.651	0.06
281.865	0.11
282.079	-0.02
282.293	-0.04
282.507	-0.05
282.721	-0.05
282.935	0.01
283.148	-0.03
283.362	-0.02
283.576	-0.06
283.79	0.05
284.004	-0.07
284.218	0.07
284.432	-0.01
284.646	0.07
284.859	-0.01
285.073	0.05
285.287	0.07
285.501	-0.05
285.714	0.01
285.928	0.06
286.142	0.07
286.356	0.01
286.569	-0.01
286.783	0.11
286.997	0.11
287.21	0.02
287.424	0.05
287.637	-0.02
287.851	0.01
288.065	0.09
288.278	0.01
288.492	0.06
288.705	-0
288.919	0.02
289.132	-0.06
289.346	0.1
289.559	-0.03
289.773	-0.03
289.986	0.03
290.2	0.04
290.413	0.09
290.626	0.04
290.84	0.02
291.053	0.02
291.267	0.07
291.48	0.04
291.693	0.04
291.906	-0.02
292.12	0
292.333	-0.03
292.546	-0.02
292.76	0.11
292.973	0
293.186	0.09
293.399	-0
293.612	0.09
293.826	-0
294.039	0.02
294.252	0.02
294.465	0.11
294.678	0.09
294.891	0.07
295.104	-0.02
295.317	0.04
295.53	0.02
295.743	0
295.956	0.06
296.169	0.13
296.382	0.07
296.595	0.03
296.808	-0.03
297.021	0.11
297.234	0.11
297.447	-0.02
297.66	0.04
297.873	0.07
298.086	0.08
298.299	0.04
298.511	-0.04
298.724	0.02
298.937	-0.03
299.15	-0.04
299.363	-0
299.575	0.04
299.788	0.05
300.001	0.06
300.213	-0.05
300.426	0.06
300.639	0.04
300.852	0.01
301.064	0.06
301.277	0.12
301.489	0.06
301.702	0.06
301.915	0.03
302.127	-0.01
302.34	0.09
302.552	0
302.765	0.01
302.977	0.07
303.19	-0.01
303.402	-0
303.615	0.01
303.827	0
304.04	0.02
304.252	0.02
304.464	-0.01
304.677	0.16
304.889	0.03
305.102	-0.02
305.314	-0.01
305.526	0.1
305.739	0.1
305.951	-0.03
306.163	0.01
306.375	0.11
306.588	0.01
306.8	-0
307.012	-0.04
307.224	0.08
307.436	0.07
307.649	-0.05
307.861	0
308.073	0.05
308.285	-0.01
308.497	0.01
308.709	0.03
308.921	0.03
309.133	0.08
309.346	0
309.558	0.01
309.77	0.06
309.982	0.11
310.194	0.06
310.406	0.01
310.617	0.13
310.829	0.05
311.041	0.05
311.253	-0.02
311.465	0.04
311.677	-0.01
311.889	0.03
312.101	0.01
312.313	0.06
312.524	0.11
312.736	-0.02
312.948	0.03
313.16	0.12
313.372	0.07
313.583	0.05
313.795	0.01
314.007	0.02
314.218	0.08
314.43	0.04
314.642	0.02
314.853	-0.04
315.065	0.07
315.277	-0
315.488	0.03
315.7	0.1
315.912	0.08
316.123	0.01
316.335	0.02
316.546	0.14
316.758	0.04
316.969	0.04
317.181	0.05
317.392	-0
317.604	0.1
317.815	-0.01
318.026	-0.04
318.238	0.01
318.449	0.06
318.661	-0.02
318.872	-0.03
319.083	-0.01
319.295	0.07
319.506	0
319.717	0.04
319.929	0.03
320.14	0.04
320.351	0.04
320.562	-0.02
320.774	0.02
320.985	0.07
321.196	0
321.407	-0.04
321.618	0.06
321.829	0.06
322.041	0.06
322.252	-0.01
322.463	0.08
322.674	0.06
322.885	-0.02
323.096	0.04
323.307	0.02
323.518	0.05
323.729	-0.04
323.94	0.04
324.151	0.02
324.362	0.01
324.573	0.07
324.784	-0
324.995	0.1
325.206	0.04
325.417	0.03
325.628	-0
325.838	0.05
326.049	0.07
326.26	0.06
326.471	0.01
326.682	0.1
326.892	0.02
327.103	-0.07
327.314	-0.02
327.525	0.09
327.735	0.02
327.946	0.04
328.157	-0.01
328.368	0.06
328.578	-0
328.789	0.02
328.999	0.05
329.21	-0
329.421	0.08
329.631	-0.02
329.842	-0
330.052	0.06
330.263	0.09
330.473	0.08
330.684	-0
330.894	0.03
331.105	0.07
331.315	0.03
331.526	0.01
331.736	0.1
331.947	0.05
332.157	0.05
332.367	-0.06
332.578	0.05
332.788	0.11
332.999	0.05
333.209	0.03
333.419	0
333.629	0.06
333.84	0.06
334.05	0.05
334.26	0.11
334.47	0.06
334.681	0.09
334.891	-0
335.101	0.09
335.311	0.12
335.521	0.03
335.732	-0.04
335.942	0.09
336.152	0.07
336.362	0.06
336.572	0.06
336.782	0.11
336.992	0
337.202	0.03
337.412	0.01
337.622	0.05
337.832	0.05
338.042	0.04
338.252	-0
338.462	0.04
338.672	0.04
338.882	-0.03
339.092	-0.01
339.302	0.12
339.511	0.07
339.721	-0.02
339.931	0
340.141	0.07
340.351	0.09
340.561	0.03
340.77	0.03
340.98	0.03
341.19	0.1
341.4	0.02
341.609	0.03
341.819	0.03
342.029	-0.02
342.238	0.05
342.448	0.01
342.658	0.05
342.867	0.03
343.077	0.04
343.286	0.07
343.496	0.02
343.706	0.1
343.915	-0.02
344.125	0.04
344.334	0.04
344.544	-0
344.753	-0.02
344.963	0.04
345.172	0
345.381	0.02
345.591	-0.06
345.8	0.03
346.01	0.06
346.219	0.1
346.428	-0.11
346.638	0.04
346.847	0.03
347.056	0.06
347.266	0
347.475	0.02
347.684	0.03
347.893	0.08
348.103	0.03
348.312	0
348.521	0.02
348.73	0.02
348.94	0.04
349.149	0.03
349.358	0.01
349.567	-0.02
349.776	-0.04
349.985	-0.01
350.194	0.07
350.403	0.01
350.612	-0.05
350.821	0.01
351.03	0.06
351.239	-0.01
351.448	0.01
351.657	-0.01
351.866	0.12
352.075	-0.01
352.284	0.06
352.493	0.01
352.702	0.07
352.911	0.03
353.12	0.05
353.329	-0
353.538	0.06
353.746	0.04
353.955	-0
354.164	0.08
354.373	-0.02
354.582	0.08
354.79	0.03
354.999	0.05
355.208	0.02
355.416	0.08
355.625	-0.02
355.834	-0.02
356.042	0.06
356.251	0.02
356.46	-0.03
356.668	0.05
356.877	0.13
357.085	0.03
357.294	-0.06
357.503	0.08
357.711	0.05
357.92	0.17
358.128	0.03
358.337	0.02
358.545	0
358.754	0.03
358.962	0.08
359.17	0.02
359.379	0.06
359.587	0.04
359.796	0.01
360.004	0.07
360.212	0.06
360.421	0.08
360.629	0.03
360.837	0.07
361.046	0.07
361.254	0.14
361.462	0.02
361.67	-0.03
361.879	0.04
362.087	0.11
362.295	0.06
362.503	0.05
362.711	-0.02
362.92	-0.04
363.128	0.05
363.336	0.02
363.544	-0.05
363.752	0
363.96	0.01
364.168	-0
364.376	0.04
364.584	0.02
364.792	0.08
365	0.08
365.208	0.04
365.416	0.07
365.624	0.09
365.832	0.01
366.04	0.08
366.248	0.04
366.456	0.05
366.664	0.03
366.872	0
367.079	0.02
367.287	0.03
367.495	0.01
367.703	0.02
367.911	0.01
368.118	0.02
368.326	0.02
368.534	0.01
368.742	0.06
368.949	-0.04
369.157	-0.02
369.365	0.04
369.572	0.06
369.78	-0.01
369.988	0.05
370.195	0.03
370.403	0.06
370.61	0.01
370.818	-0.01
371.026	0.1
371.233	-0.01
371.441	0.04
371.648	0
371.856	0.04
372.063	0.04
372.271	-0.03
372.478	0.02
372.685	0.03
372.893	0.07
373.1	0.05
373.308	0.01
373.515	0.1
373.722	0.1
373.93	0.02
374.137	0.09
374.344	0.13
374.552	0.08
374.759	0.09
374.966	0.04
375.173	0.04
375.381	0.12
375.588	0.02
375.795	-0.03
376.002	0.01
376.209	0.02
376.417	0.03
376.624	0.02
376.831	0.09
377.038	-0
377.245	-0.09
377.452	0.03
377.659	0.05
377.866	-0.01
378.073	-0
378.28	0.05
378.487	0.12
378.694	0.06
378.901	-0.02
379.108	0.07
379.315	0.09
379.522	0.11
379.729	0.09
379.936	0.05
380.143	0.02
380.35	0.04
380.557	0.03
380.763	0.06
380.97	0.07
381.177	0.05
381.384	0.07
381.591	0.02
381.797	0.08
382.004	0.04
382.211	0.03
382.418	0.04
382.624	0.06
382.831	0.08
383.038	0.01
383.244	0.03
383.451	-0.02
383.658	0.08
383.864	0.03
384.071	-0.02
384.277	0.15
384.484	0.01
384.69	0.08
384.897	-0.01
385.103	0.03
385.31	0.01
385.516	-0.02
385.723	-0.05
385.929	0.02
386.136	0.01
386.342	0.06
386.549	0.03
386.755	0.08
386.961	0.1
387.168	0.04
387.374	0.03
387.58	0.06
387.787	0.05
387.993	0.03
388.199	0.07
388.406	0.05
388.612	0.02
388.818	0.01
389.024	0.03
389.231	0.01
389.437	0.12
389.643	0.09
389.849	0.05
390.055	0.07
390.261	0.02
390.467	0.01
390.674	0.02
390.88	0.01
391.086	0.07
391.292	-0.02
391.498	0.06
391.704	0.02
391.91	0.03
392.116	-0.01
392.322	-0.08
392.528	0.08
392.734	0
392.94	0.04
393.146	0.05
393.352	0.05
393.557	0.01
393.763	0.02
393.969	0
394.175	0.06
394.381	0.05
394.587	0.01
394.792	0.03
394.998	0.05
395.204	0.09
395.41	0.04
395.615	0.06
395.821	0.08
396.027	0.07
396.233	0
396.438	0.09
396.644	0.12
396.85	0.07
397.055	0.04
397.261	0.03
397.466	0.07
397.672	0.11
397.878	0.08
398.083	0.06
398.289	0.04
398.494	0.08
398.7	0.05
398.905	-0.06
399.111	0.12
399.316	-0.03
399.522	0.05
399.727	0.03
399.932	0.03
400.138	0.04
400.343	0.12
400.549	0.06
400.754	0.05
400.959	0.05
401.165	0.04
401.37	0.01
401.575	0.13
401.78	0.08
401.986	0.03
402.191	0.06
402.396	0.06
402.601	0.11
402.807	0.09
403.012	0.08
403.217	0.13
403.422	0.05
403.627	0.06
403.832	-0
404.037	0.09
404.243	0.05
404.448	0.01
404.653	0.07
404.858	0.07
405.063	0.11
405.268	0.01
405.473	0.07
405.678	0.02
405.883	0.21
406.088	0.16
406.293	0.01
406.498	0.04
406.703	0.1
406.907	0.01
407.112	0.01
407.317	0.07
407.522	0.13
407.727	-0
407.932	0.1
408.136	0.18
408.341	0.09
408.546	0.05
408.751	0.1
408.956	0.1
409.16	0.18
409.365	0.12
409.57	0.09
409.774	0.08
409.979	0.11
410.184	0.11
410.388	0.08
410.593	0.19
410.798	0.12
411.002	0.13
411.207	0.18
411.411	0.12
411.616	0.07
411.82	0.13
412.025	0.16
412.229	0.1
412.434	0.2
412.638	0.18
412.843	0.18
413.047	0.19
413.252	0.15
413.456	0.14
413.66	0.23
413.865	0.18
414.069	0.28
414.273	0.1
414.478	0.17
414.682	0.23
414.886	0.18
415.091	0.14
415.295	0.12
415.499	0.26
415.703	0.23
415.908	0.26
416.112	0.17
416.316	0.3
416.52	0.27
416.724	0.25
416.929	0.24
417.133	0.39
417.337	0.31
417.541	0.31
417.745	0.29
417.949	0.4
418.153	0.38
418.357	0.37
418.561	0.48
418.765	0.41
418.969	0.53
419.173	0.49
419.377	0.45
419.581	0.58
419.785	0.52
419.989	0.49
420.193	0.53
420.397	0.53
420.601	0.72
420.804	0.62
421.008	0.6
421.212	0.77
421.416	0.74
421.62	0.64
421.823	0.74
422.027	0.83
422.231	0.78
422.435	0.75
422.638	0.81
422.842	0.82
423.046	0.8
423.249	0.93
423.453	0.93
423.657	0.93
423.86	0.99
424.064	1
424.268	1.21
424.471	1.14
424.675	1.22
424.878	1.28
425.082	1.25
425.285	1.36
425.489	1.34
425.692	1.35
425.896	1.31
426.099	1.49
426.303	1.51
426.506	1.55
426.71	1.67
426.913	1.8
427.116	1.78
427.32	1.79
427.523	1.82
427.726	2.02
427.93	1.95
428.133	2.09
428.336	2.11
428.54	2.17
428.743	2.29
428.946	2.43
429.149	2.37
429.353	2.51
429.556	2.47
429.759	2.55
429.962	2.5
430.165	2.6
430.368	2.56
430.571	2.51
430.775	2.58
430.978	2.59
431.181	2.66
431.384	2.7
431.587	2.69
431.79	2.87
431.993	2.86
432.196	2.93
432.399	3.07
432.602	3.24
432.805	3.15
433.008	3.38
433.211	3.36
433.414	3.59
433.616	3.57
433.819	3.49
434.022	3.62
434.225	3.8
434.428	3.79
434.631	3.95
434.833	3.9
435.036	3.95
435.239	4.08
435.442	4.12
435.645	4.19
435.847	4.31
436.05	4.39
436.253	4.57
436.455	4.6
436.658	4.6
436.861	4.75
437.063	4.86
437.266	4.81
437.468	5.06
437.671	5.33
437.874	5.32
438.076	5.27
438.279	5.54
438.481	5.56
438.684	5.96
438.886	5.95
439.089	6
439.291	6.15
439.494	6.47
439.696	6.48
439.899	6.84
440.101	7.12
440.303	7.36
440.506	7.85
440.708	7.77
440.91	7.88
441.113	8.12
441.315	8.31
441.517	8.31
441.72	8.7
441.922	8.69
442.124	8.74
442.326	9.14
442.529	9.27
442.731	9.42
442.933	9.74
443.135	9.67
443.337	9.93
443.539	10.3
443.742	10.2
443.944	10.73
444.146	10.7
444.348	10.8
444.55	10.9
444.752	11.21
444.954	11.28
445.156	11.38
445.358	11.77
445.56	12.08
445.762	12.06
445.964	12.36
446.166	12.31
446.368	12.52
446.57	12.66
446.772	12.5
446.974	12.46
447.175	12.8
447.377	12.71
447.579	13.09
447.781	12.96
447.983	12.92
448.184	12.66
448.386	13.02
448.588	12.76
448.79	12.74
448.991	13.06
449.193	13.19
449.395	12.7
449.597	12.43
449.798	12.3
450	12.13
450.202	12.07
450.403	12.03
450.605	12.06
450.806	11.75
451.008	11.67
451.21	11.45
451.411	11.06
451.613	10.45
451.814	10.77
452.016	10.76
452.217	10.11
452.419	10.14
452.62	9.94
452.821	9.64
453.023	9.5
453.224	9.21
453.426	8.91
453.627	8.32
453.828	8.33
454.03	8.35
454.231	8.28
454.432	8.12
454.634	8.01
454.835	7.68
455.036	7.61
455.238	7.27
455.439	7.05
455.64	6.82
455.841	6.63
456.042	6.73
456.244	6.51
456.445	6.34
456.646	6.06
456.847	5.91
457.048	5.89
457.249	5.88
457.45	5.73
457.651	5.29
457.852	5.23
458.054	4.91
458.255	4.85
458.456	4.85
458.657	4.77
458.858	4.49
459.058	4.47
459.259	4.53
459.46	4.27
459.661	4.26
459.862	4.32
460.063	4.14
460.264	4.09
460.465	3.91
460.666	4.04
460.866	3.73
461.067	3.53
461.268	3.59
461.469	3.55
461.67	3.51
461.87	3.37
462.071	3.38
462.272	3.28
462.473	3.22
462.673	3.33
462.874	3.24
463.075	3.17
463.275	3.13
463.476	3.17
463.676	3.16
463.877	3.06
464.078	2.97
464.278	3.06
464.479	2.87
464.679	2.86
464.88	2.75
465.08	2.78
465.281	2.64
465.481	2.52
465.682	2.35
465.882	2.36
466.083	2.32
466.283	2.26
466.483	2.16
466.684	2.08
466.884	1.97
467.085	1.98
467.285	2.04
467.485	1.92
467.686	1.88
467.886	1.71
468.086	1.72
468.286	1.67
468.487	1.75
468.687	1.53
468.887	1.56
469.087	1.65
469.287	1.55
469.488	1.42
469.688	1.49
469.888	1.42
470.088	1.45
470.288	1.39
470.488	1.29
470.688	1.2
470.888	1.17
471.088	1.1
471.288	1.15
471.488	1.12
471.688	1.11
471.888	1.04
472.088	1.14
472.288	1.11
472.488	0.94
472.688	0.93
472.888	0.94
473.088	0.9
473.288	0.89
473.488	0.89
473.688	0.95
473.887	0.86
474.087	0.81
474.287	0.83
474.487	0.8
474.687	0.83
474.886	0.75
475.086	0.75
475.286	0.73
475.486	0.71
475.685	0.68
475.885	0.66
476.085	0.67
476.284	0.67
476.484	0.65
476.684	0.63
476.883	0.65
477.083	0.62
477.282	0.56
477.482	0.6
477.681	0.61
477.881	0.53
478.08	0.51
478.28	0.49
478.479	0.54
478.679	0.58
478.878	0.49
479.078	0.47
479.277	0.49
479.477	0.46
479.676	0.48
479.875	0.46
480.075	0.38
480.274	0.43
480.473	0.44
480.673	0.37
480.872	0.48
481.071	0.4
481.271	0.42
481.47	0.34
481.669	0.36
481.868	0.35
482.067	0.32
482.267	0.31
482.466	0.32
482.665	0.3
482.864	0.27
483.063	0.31
483.262	0.33
483.461	0.34
483.661	0.31
483.86	0.29
484.059	0.28
484.258	0.27
484.457	0.26
484.656	0.27
484.855	0.3
485.054	0.19
485.253	0.18
485.452	0.19
485.651	0.24
485.849	0.22
486.048	0.18
486.247	0.19
486.446	0.21
486.645	0.16
486.844	0.16
487.043	0.19
487.241	0.19
487.44	0.16
487.639	0.18
487.838	0.19
488.037	0.19
488.235	0.22
488.434	0.18
488.633	0.09
488.831	0.17
489.03	0.19
489.229	0.15
489.427	0.15
489.626	0.18
489.825	0.2
490.023	0.14
490.222	0.13
490.42	0.17
490.619	0.15
490.817	0.14
491.016	0.1
491.214	0.15
491.413	0.09
491.611	0.09
491.81	0.1
492.008	0.13
492.207	0.12
492.405	0.11
492.604	0.07
492.802	0.1
493	0.12
493.199	0.11
493.397	0.11
493.595	0.09
493.794	0.09
493.992	0.13
494.19	0.09
494.388	0.11
494.587	0.07
494.785	0.09
494.983	0.06
495.181	0.08
495.379	0.08
495.578	0.07
495.776	0.08
495.974	0.09
496.172	0.06
496.37	0.06
496.568	0.05
496.766	0.02
496.964	0.09
497.162	0.08
497.36	0.05
497.558	0.09
497.756	0.1
497.954	0.07
498.152	0.07
498.35	0.06
498.548	0.04
498.746	0.06
498.944	0.01
499.142	0.03
499.34	0.05
499.538	0.04
499.736	0.02
499.933	0.11
500.131	0.09
500.329	0.06
500.527	0.08
500.725	0.08
500.922	0.11
501.12	0.06
501.318	0.06
501.516	0.03
501.713	0.04
501.911	0.05
502.109	0.02
502.306	0.06
502.504	0.04
502.701	0.02
502.899	0.05
503.097	0.07
503.294	0.04
503.492	0.06
503.689	0.05
503.887	0.06
504.084	0.1
504.282	0.05
504.479	0
504.677	0.03
504.874	0
505.072	0.04
505.269	0.06
505.466	0.05
505.664	0.05
505.861	0.01
506.059	0.02
506.256	0.05
506.453	0.01
506.651	0.08
506.848	0.05
507.045	0.06
507.242	0.05
507.44	0
507.637	0.05
507.834	0.04
508.031	0.05
508.229	-0
508.426	0.03
508.623	0.04
508.82	0
509.017	0.01
509.214	0.01
509.411	0.02
509.608	-0.01
509.805	0.03
510.003	0
510.2	0.02
510.397	0.05
510.594	0.01
510.791	0
510.988	0.01
511.184	0.06
511.381	0
511.578	-0.01
511.775	0.08
511.972	-0.01
512.169	0.01
512.366	0.02
512.563	0.04
512.76	0.01
512.956	0.06
513.153	0.02
513.35	0.02
513.547	0.02
513.744	0.01
513.94	-0.01
514.137	0.05
514.334	0.04
514.53	0.03
514.727	0.02
514.924	0.06
515.12	0.01
515.317	-0
515.514	0
515.71	0.03
515.907	0.04
516.103	0.04
516.3	0.01
516.497	0.05
516.693	0.05
516.89	0.03
517.086	-0
517.283	0.04
517.479	0.03
517.676	0.03
517.872	0.03
518.068	0.02
518.265	0.03
518.461	0.01
518.658	-0
518.854	0.04
519.05	0.03
519.247	0
519.443	0.05
519.639	0.02
519.836	0.02
520.032	0.02
520.228	0.01
520.424	0.06
520.621	0.03
520.817	0.04
521.013	0.02
521.209	0.03
521.405	0.07
521.601	0.03
521.798	0.02
521.994	0.03
522.19	-0
522.386	-0.02
522.582	0.02
522.778	0.03
522.974	-0.01
523.17	0.01
523.366	0.01
523.562	0.05
523.758	0.01
523.954	-0.01
524.15	-0.01
524.346	0.03
524.542	-0
524.738	0.01
524.934	0.02
525.129	0.02
525.325	0.02
525.521	0.01
525.717	0.01
525.913	0.02
526.109	0.05
526.304	0.01
526.5	0
526.696	0.04
526.892	0.01
527.087	0.01
527.283	0.01
527.479	0.03
527.674	-0
527.87	0.01
528.066	-0.01
528.261	0.03
528.457	0.02
528.653	-0
528.848	0.02
529.044	0.04
529.239	-0.01
529.435	0.04
529.63	0.01
529.826	0.07
530.021	0.03
530.217	0.02
530.412	-0.01
530.608	0.01
530.803	0.02
530.999	-0
531.194	-0.03
531.389	0.02
531.585	-0.04
531.78	0.03
531.975	0.02
532.171	0.03
532.366	0.03
532.561	0.01
532.757	-0
532.952	-0.01
533.147	0.04
533.342	0.01
533.538	0.01
533.733	0.04
533.928	0.02
534.123	-0.01
534.318	-0.03
534.513	0.02
534.709	0.01
534.904	0.01
535.099	-0
535.294	0.02
535.489	0.05
535.684	0.01
535.879	-0.03
536.074	0.01
536.269	-0
536.464	0.02
536.659	0.01
536.854	0.02
537.049	0.02
537.244	0.02
537.439	-0.03
537.634	0.05
537.828	0.03
538.023	-0.01
538.218	-0.02
538.413	0.02
538.608	-0.04
538.803	0.03
538.997	-0.04
539.192	0.04
539.387	0.03
539.582	0.01
539.776	0.01
539.971	-0.01
540.166	0.02
540.36	-0.02
540.555	0.02
540.75	0
540.944	0.01
541.139	-0.03
541.334	0
541.528	0.03
541.723	0.03
541.917	-0
542.112	-0.03
542.306	0.01
542.501	-0.01
542.695	-0
542.89	-0.01
543.084	0.03
543.279	0.03
543.473	0
543.668	0
543.862	0.01
544.056	0.03
544.251	0
544.445	-0
544.64	0
544.834	-0.02
545.028	0.01
545.222	0.02
545.417	0.03
545.611	0.02
545.805	0.01
546	-0
546.194	0
546.388	0.01
546.582	0.02
546.776	0.02
546.97	0.02
547.165	0.02
547.359	0.04
547.553	-0.01
547.747	-0.01
547.941	0.01
548.135	0.01
548.329	0.03
548.523	0.04
548.717	-0.02
548.911	0.01
549.105	0.01
549.299	0.01
549.493	0.04
549.687	0.03
549.881	0.04
550.075	0
550.269	-0.02
550.463	0.01
550.657	0.01
550.85	0.03
551.044	0.01
551.238	0.02
551.432	0
551.626	-0.02
551.82	0.01
552.013	-0
552.207	0.01
552.401	0.02
552.594	0.02
552.788	0.01
552.982	0.01
553.176	-0.02
553.369	0.03
553.563	0.03
553.756	0.01
553.95	-0.01
554.144	-0
554.337	0.02
554.531	0.01
554.724	-0
554.918	-0.02
555.111	0.02
555.305	0.02
555.498	0.03
555.692	0.03
555.885	0.01
556.079	0.02
556.272	0.01
556.466	0.03
556.659	0.01
556.852	-0
557.046	-0.01
557.239	0.02
557.432	-0.01
557.626	0.01
557.819	0.03
558.012	0.04
558.206	0.03
558.399	0.03
558.592	0.01
558.785	0.01
558.979	0.04
559.172	0.02
559.365	0.01
559.558	0.01
559.751	-0
559.944	0.04
560.138	-0.02
560.331	0.01
560.524	-0.01
560.717	0.01
560.91	0
561.103	0.01
561.296	0.01
561.489	0.02
561.682	0.02
561.875	0.02
562.068	0.04
562.261	0.03
562.454	0.05
562.647	0.03
562.84	0.03
563.032	-0.01
563.225	0.03
563.418	-0.01
563.611	-0.01
563.804	0.01
563.997	-0.02
564.19	-0.03
564.382	-0
564.575	-0.01
564.768	0.03
564.961	0.01
565.153	-0.01
565.346	0.02
565.539	0.04
565.731	0.03
565.924	0.04
566.117	0.04
566.309	0.02
566.502	-0.01
566.695	0
566.887	0.01
567.08	-0.02
567.272	0.02
567.465	0.01
567.657	0.02
567.85	0.01
568.042	0.03
568.235	0.03
568.427	0.01
568.62	-0.01
568.812	0.03
569.005	0
569.197	-0.02
569.389	0.01
569.582	0.04
569.774	0.01
569.966	-0.02
570.159	-0.01
570.351	0.03
570.543	-0.01
570.736	-0
570.928	-0.02
571.12	0.04
571.312	-0.02
571.505	-0.04
571.697	0.05
571.889	-0.04
572.081	-0.02
572.273	0
572.465	0.03
572.658	0.03
572.85	0.03
573.042	-0
573.234	0.02
573.426	0.03
573.618	-0.01
573.81	-0
574.002	0.04
574.194	0.04
574.386	-0.06
574.578	-0.07
574.77	0
574.962	-0.01
575.154	-0.03
575.346	-0.01
575.538	0.02
575.729	-0.02
575.921	-0.01
576.113	-0.01
576.305	0.03
576.497	-0.01
576.689	-0
576.88	-0.02
577.072	0.02
577.264	-0.01
577.456	0
577.647	-0.06
577.839	0.03
578.031	0.02
578.223	-0.03
578.414	-0.04
578.606	0.02
578.798	0.04
578.989	-0.04
579.181	-0.01
579.372	0.01
579.564	-0.01
579.755	-0.01
579.947	0.02
580.139	0.02
580.33	-0.05
580.522	-0.02
580.713	-0.06
580.905	0
581.096	0.02
581.287	0
581.479	-0.01
581.67	0.02
581.862	0.02
582.053	-0.04
582.244	-0.05
582.436	-0
582.627	0.01
582.818	-0.01
583.01	-0.04
583.201	0.04
583.392	0.04
583.583	-0.01
583.775	-0.04
583.966	0
584.157	-0.02
584.348	-0.01
584.54	-0.04
584.731	-0
584.922	0.01
585.113	-0.01
585.304	0.03
585.495	0.04
585.686	0.01
585.877	0.01
586.068	0.01
586.259	0.04
586.45	-0.01
586.641	-0.02
586.832	-0.04
587.023	0.02
587.214	0.01
587.405	0.01
587.596	-0.03
587.787	0.03
587.978	0
588.169	-0.02
588.36	-0.02
588.551	0
588.742	-0.03
588.932	0.01
589.123	-0.01
589.314	0.04
589.505	0.03
589.696	0.02
589.886	-0.01
590.077	-0.03
590.268	0.02
590.458	-0.04
590.649	-0.06
590.84	0.05
591.03	-0
591.221	-0.04
591.412	-0.05
591.602	0.04
591.793	0.02
591.984	-0.04
592.174	0.01
592.365	0.08
592.555	-0.03
592.746	-0.02
592.936	0.02
593.127	0.02
593.317	0.03
593.508	-0.02
593.698	-0.01
593.889	0.01
594.079	0.03
594.269	-0.02
594.46	-0.01
594.65	-0.03
594.84	-0.01
595.031	-0.02
595.221	-0.02
595.411	-0.05
595.602	0.02
595.792	-0
595.982	-0
596.172	0.03
596.363	0.02
596.553	0.03
596.743	0.02
596.933	0.01
597.123	0.03
597.314	-0.02
597.504	-0.02
597.694	0.03
597.884	0.02
598.074	-0.01
598.264	-0.03
598.454	0
598.644	-0.01
598.834	0
599.024	-0.04
599.214	-0.01
599.404	0.05
599.594	-0.02
599.784	-0.04
599.974	0.08
600.164	0.03
600.354	-0.04
600.544	-0.03
600.734	0.01
600.924	0.03
601.114	-0.01
601.303	0
601.493	0.03
601.683	-0.02
601.873	0
602.063	-0.04
602.252	0.04
602.442	-0.06
602.632	-0.02
602.821	-0.05
603.011	0.03
603.201	-0.02
603.39	-0.03
603.58	-0.01
603.77	0.03
603.959	0.04
604.149	-0
604.339	-0.02
604.528	0.03
604.718	0.02
604.907	-0.02
605.097	-0.02
605.286	-0.04
605.476	0.03
605.665	0.03
605.855	-0.03
606.044	0.05
606.234	0.03
606.423	-0.03
606.612	-0.03
606.802	0
606.991	0.03
607.181	0
607.37	-0.04
607.559	-0.01
607.749	-0.03
607.938	-0
608.127	-0.03
608.316	-0.03
608.506	0.03
608.695	-0.01
608.884	-0.03
609.073	-0
609.263	0.02
609.452	0.04
609.641	0.01
609.83	-0.03
610.019	0.01
610.208	-0.03
610.397	-0.02
610.586	0.04
610.775	0.01
610.965	-0.04
611.154	-0.03
611.343	0.03
611.532	-0.02
611.721	-0.03
611.91	-0.03
612.099	0.01
612.287	-0.01
612.476	-0.04
612.665	0
612.854	-0.01
613.043	0.01
613.232	0.01
613.421	-0.06
613.61	0.03
613.798	-0.02
613.987	0
614.176	0.01
614.365	0.03
614.554	-0.01
614.742	0.01
614.931	-0.02
615.12	0.04
615.309	0
615.497	0
615.686	-0
615.875	-0.01
616.063	0.06
616.252	-0.02
616.44	-0.03
616.629	0.01
616.818	0.02
617.006	-0.02
617.195	-0.02
617.383	0.01
617.572	0
617.76	-0
617.949	-0
618.137	0.02
618.326	0.03
618.514	-0.02
618.703	-0
618.891	0.05
619.079	-0.03
619.268	0
619.456	-0.03
619.644	0.04
619.833	0.01
620.021	-0.05
620.209	-0.04
620.398	0.01
620.586	-0
620.774	0.03
620.962	-0.03
621.151	0.03
621.339	-0.01
621.527	-0.05
621.715	-0.02
621.903	-0.02
622.092	-0.04
622.28	-0.01
622.468	0
622.656	0
622.844	0.01
623.032	-0.01
623.22	-0.06
623.408	-0
623.596	0.01
623.784	0.03
623.972	-0.04
624.16	-0.02
624.348	0.09
624.536	-0.04
624.724	-0.05
624.912	0.03
625.1	0.03
625.288	-0.04
625.476	-0.04
625.664	0.03
625.851	-0.04
626.039	-0.01
626.227	-0.02
626.415	-0
626.603	-0.05
626.79	-0.01
626.978	-0.02
627.166	-0
627.354	0.01
627.541	-0.01
627.729	-0.09
627.917	0.03
628.104	0.04
628.292	0.01
628.48	0
628.667	0.04
628.855	0.03
629.042	0.02
629.23	0
629.418	-0.01
629.605	-0.01
629.793	-0.03
629.98	-0.05
630.168	-0
630.355	0
630.543	0
630.73	-0.05
630.917	0.01
631.105	0.06
631.292	-0.01
631.48	-0.02
631.667	0.08
631.854	-0.01
632.042	0.01
632.229	-0.06
632.416	0.01
632.604	-0.02
632.791	-0.03
632.978	0.02
633.165	-0
633.353	0.06
633.54	0.08
633.727	-0.1
633.914	-0.02
634.101	0.05
634.289	0.03
634.476	-0.03
634.663	-0.03
634.85	0.02
635.037	-0.06
635.224	-0.07
635.411	0.04
635.598	0.01
635.785	-0.02
635.972	-0.02
636.159	0.03
636.346	-0.05
636.533	0.01
636.72	-0.02
636.907	-0.04
637.094	0.01
637.281	-0.01
637.468	0
637.655	-0.03
637.842	-0
638.029	-0.03
638.215	0.02
638.402	0.01
638.589	-0.04
638.776	-0
638.963	-0.01
639.149	0.06
639.336	0.08
639.523	-0.01
639.709	0.01
639.896	-0.04
640.083	0.04
640.27	0.01
640.456	-0.03
640.643	0.06
640.829	-0.02
641.016	-0.02
641.203	-0.06
641.389	0.02
641.576	0.03
641.762	-0.01
641.949	-0.05
642.135	0.01
642.322	-0.01
642.508	-0.06
642.695	0.02
642.881	-0.03
643.068	-0.02
643.254	-0.02
643.441	0.05
643.627	0.01
643.813	-0.01
644	0.02
644.186	-0.02
644.372	-0.01
644.559	0.06
644.745	-0.03
644.931	-0.05
645.118	-0.02
645.304	-0
645.49	-0.02
645.676	-0.01
645.862	-0
646.049	0.04
646.235	-0
646.421	0.03
646.607	0.06
646.793	-0.04
646.979	-0.06
647.165	-0
647.352	0
647.538	0.04
647.724	-0.02
647.91	0.01
648.096	0.03
648.282	0.03
648.468	-0.05
648.654	0
648.84	0.02
649.026	0
649.212	-0.03
649.397	-0.04
649.583	-0.05
649.769	0.02
649.955	-0.03
650.141	-0.02
650.327	0.04
650.513	-0.06
650.698	0
650.884	-0.06
651.07	0.02
651.256	0.01
651.442	-0.05
651.627	0
651.813	0.01
651.999	0.01
652.184	0.01
652.37	0
652.556	-0.03
652.741	0.06
652.927	-0.08
653.113	-0.02
653.298	-0.02
653.484	-0.01
653.669	-0.04
653.855	0
654.04	0.04
654.226	0.01
654.412	-0
654.597	-0.03
654.782	0.01
654.968	0.01
655.153	-0.01
655.339	-0
655.524	-0.06
655.71	0.05
655.895	-0.04
656.08	-0.02
656.266	0.02
656.451	0
656.636	-0.05
656.822	-0.04
657.007	-0.03
657.192	-0.01
657.378	-0.08
657.563	0.01
657.748	-0
657.933	0.01
658.118	-0.02
658.304	-0.04
658.489	0.03
658.674	0.02
658.859	-0.05
659.044	0.01
659.229	0.02
659.414	-0.07
659.599	-0.01
659.785	-0.04
659.97	-0.02
660.155	0
660.34	-0.01
660.525	0
660.71	-0.02
660.895	0.03
661.08	-0.03
661.264	-0.03
661.449	0.05
661.634	0.05
661.819	0
662.004	0.01
662.189	-0.09
662.374	-0.04
662.559	-0.07
662.743	-0.09
662.928	0.01
663.113	-0.02
663.298	-0.07
663.483	-0.02
663.667	0.03
663.852	-0.06
664.037	0.03
664.221	-0.05
664.406	0.03
664.591	0
664.775	-0.01
664.96	-0.04
665.145	-0.02
665.329	0.04
665.514	-0.03
665.698	-0.02
665.883	-0.09
666.068	0.07
666.252	0.01
666.437	-0.03
666.621	0.02
666.806	0.02
666.99	-0.01
667.174	-0.04
667.359	0.08
667.543	-0.01
667.728	-0.03
667.912	-0.08
668.096	0.01
668.281	-0.03
668.465	-0.01
668.649	-0.04
668.834	-0.04
669.018	-0.04
669.202	-0.02
669.387	-0.03
669.571	0.08
669.755	-0.02
669.939	-0.04
670.124	-0.04
670.308	0.08
670.492	0.06
670.676	-0.02
670.86	-0.03
671.044	-0.05
671.228	0.04
671.413	-0.03
671.597	-0.06
671.781	-0.04
671.965	-0.01
672.149	0.01
672.333	-0
672.517	-0.04
672.701	0.02
672.885	-0.03
673.069	-0.06
673.253	0.03
673.437	-0.02
673.621	-0.06
673.804	-0.02
673.988	0.02
674.172	-0.03
674.356	-0.09
674.54	-0.05
674.724	0.08
674.908	-0.06
675.091	-0.04
675.275	-0.02
675.459	0.03
675.643	0.01
675.826	0.02
676.01	0.02
676.194	-0.01
676.377	0.06
676.561	0
676.745	-0
676.928	-0.02
677.112	0.05
677.296	-0.04
677.479	-0.05
677.663	-0.04
677.846	-0
678.03	-0.02
678.213	-0.01
678.397	-0.03
678.58	-0.04
678.764	-0.03
678.947	-0.08
679.131	-0.02
679.314	0.06
679.498	-0.01
679.681	-0.03
679.865	0.05
680.048	-0.03
680.231	-0.01
680.415	-0.02
680.598	-0.06
680.781	-0.02
680.965	-0.05
681.148	0.01
681.331	-0.02
681.514	0.01
681.698	-0.04
681.881	0
682.064	0
682.247	-0.03
682.43	-0.12
682.614	-0.01
682.797	0.06
682.98	0.02
683.163	-0.07
683.346	-0
683.529	-0.01
683.712	-0.04
683.895	-0.03
684.078	-0.07
684.261	-0.07
684.444	0.02
684.627	-0.03
684.81	-0.03
684.993	-0.02
685.176	0.02
685.359	-0.08
685.542	-0.07
685.725	0.04
685.908	-0
686.091	-0.01
686.274	0.07
686.457	-0.01
686.639	-0.05
686.822	-0
687.005	0
687.188	0.02
687.371	0.11
687.553	0.01
687.736	-0.01
687.919	0.03
688.102	0.07
688.284	-0.02
688.467	-0.02
688.65	-0.04
688.832	-0.02
689.015	-0.02
689.197	-0.08
689.38	0.06
689.563	0.09
689.745	0
689.928	-0.04
690.11	0.01
690.293	0
690.475	-0.1
690.658	-0
690.84	-0.02
691.023	0.02
691.205	-0.02
691.388	-0.04
691.57	0.04
691.752	0.03
691.935	-0.08
692.117	-0.04
692.3	-0.01
692.482	-0.04
692.664	-0.07
692.847	0.01
693.029	0.04
693.211	0.02
693.393	-0.03
693.576	-0.06
693.758	0.04
693.94	-0.01
694.122	-0.01
694.304	-0.05
694.487	-0.04
694.669	0.05
694.851	-0.08
695.033	-0.04
695.215	0.02
695.397	-0.09
695.579	-0
695.761	-0.03
695.943	-0.07
696.125	0.08
696.308	-0.01
696.49	-0.07
696.671	0.08
696.853	-0.04
697.035	0.12
697.217	-0.01
697.399	0.01
697.581	-0.09
697.763	0.01
697.945	-0.06
698.127	0.04
698.309	0.05
698.491	0.01
698.672	0.06
698.854	-0
699.036	0.05
699.218	-0.06
699.399	0.06
699.581	0.01
699.763	-0.02
699.945	-0.04
700.126	-0.05
700.308	0.02
700.49	0.01
700.671	-0.1
700.853	-0.1
701.035	-0.04
701.216	0.01
701.398	-0.07
701.579	-0.03
701.761	0.03
701.943	-0.09
702.124	-0.07
702.306	-0.02
702.487	0.1
702.669	0.01
702.85	-0.09
703.031	-0.08
703.213	0.14
703.394	0.01
703.576	-0.08
703.757	0.1
703.938	0.03
704.12	0.15
704.301	0
704.483	-0.07
704.664	0.02
704.845	0.11
705.026	0.01
705.208	-0.04
705.389	-0.05
705.57	0
705.751	-0.11
705.933	-0.02
706.114	0.09
706.295	-0.07
706.476	-0.08
706.657	0.11
706.838	0.01
707.02	0.06
707.201	-0.1
707.382	-0.03
707.563	0.01
707.744	-0.07
707.925	-0.04
708.106	-0.07
708.287	-0
708.468	0.07
708.649	-0.05
708.83	0.06
709.011	-0.06
709.192	-0.02
709.373	-0.1
709.554	-0.03
709.734	0.05
709.915	0.03
710.096	0.02
710.277	-0.12
710.458	0.01
710.639	0.08
710.819	-0.1
711	-0.07
711.181	-0.01
711.362	0.05
711.542	-0.01
711.723	-0.06
711.904	0.09
712.085	-0
712.265	0.02
712.446	-0.06
712.627	-0.02
712.807	-0.05
712.988	0.02
713.168	-0.11
713.349	0.05
713.53	-0.12
713.71	-0.08
713.891	-0.03
714.071	0.05
714.252	-0.04
714.432	-0.05
714.613	-0.09
714.793	0.03
714.974	0.04
715.154	0.05
715.334	0.04
715.515	0.19
715.695	-0.09
715.876	0.03
716.056	-0.06
716.236	-0.01
716.417	0.04
716.597	-0.09
716.777	0.12
716.957	-0
717.138	0
717.318	-0
717.498	-0.11
717.678	0
717.859	-0.02
718.039	-0.12
718.219	0.05
718.399	-0
718.579	-0.08
718.759	-0.05
718.939	0.01
719.12	0.02
719.3	0.05
719.48	-0.17
719.66	-0.13
719.84	0.03
720.02	0.01
720.2	-0.04
720.38	-0.07
720.56	0.08
720.74	-0.05
720.92	-0.02
721.1	0.02
721.279	0.11
721.459	-0.03
721.639	-0.13
721.819	0.02
721.999	-0.07
722.179	0.03
722.359	-0.13
722.538	0.01
722.718	0
722.898	-0.06
723.078	-0.07
723.257	-0.01
723.437	0.04
723.617	0.09
723.797	-0.06
723.976	-0.02
724.156	0.1
724.336	0.08
724.515	0.13
724.695	-0.14
724.874	-0.07
725.054	-0.02
725.234	-0.09
725.413	0.03
725.593	0.02
725.772	-0.05
725.952	-0.05
726.131	-0.02
726.311	-0.01
726.49	-0.02
726.67	-0.02
726.849	-0.08
727.028	0.02
727.208	0.03
727.387	0.02
727.567	-0.11
727.746	-0.08
727.925	-0.08
728.105	-0.09
728.284	-0.06
728.463	-0.08
728.643	0.1
728.822	-0.11
729.001	-0.03
729.18	-0.01
729.359	-0.01
729.539	-0.05
729.718	-0.02
729.897	0.04
730.076	-0.08
730.255	-0.07
730.434	-0.02
730.614	0.11
730.793	0.07
730.972	-0.04
731.151	-0.02
731.33	0.04
731.509	0.05
731.688	-0.04
731.867	0.04
732.046	-0.17
732.225	0.2
732.404	-0.08
732.583	-0.07
732.762	-0
732.941	-0
733.12	-0.04
733.298	-0.11
733.477	0.06
733.656	-0.06
733.835	-0.1
734.014	0.03
734.193	-0.02
734.371	-0
734.55	0.05
734.729	-0.13
734.908	0.02
735.086	-0.04
735.265	0.07
735.444	-0.18
735.623	-0.11
735.801	-0.06
735.98	-0.01
736.159	-0.07
736.337	0.05
736.516	0.03
736.694	0.08
736.873	-0.11
737.052	0.14
737.23	0.02
737.409	-0.03
737.587	0.07
737.766	-0.24
737.944	-0.1
738.123	0
738.301	0.02
738.479	-0.05
738.658	0.02
738.836	-0.17
739.015	-0.05
739.193	-0.04
739.371	-0.17
739.55	-0.07
739.728	-0.05
739.906	0.09
740.085	0.1
740.263	-0.05
740.441	-0.23
740.62	0.16
740.798	0.05
740.976	-0.01
741.154	-0.04
741.332	0.15
741.511	-0.02
741.689	-0.02
741.867	0.07
742.045	-0.11
742.223	-0.01
742.401	-0.04
742.579	-0.07
742.757	0.01
742.935	-0.21
743.114	-0.02
743.292	-0.08
743.47	-0.03
743.648	-0.02
743.826	0.05
744.004	-0.02
744.181	0.03
744.359	-0.02
744.537	-0.05
744.715	-0.01
744.893	-0.03
745.071	0.08
745.249	-0.03
745.427	-0.08
745.605	0.11
745.782	-0.09
745.96	0.08
746.138	0.05
746.316	0.04
746.493	0.06
746.671	-0.07
746.849	-0.08
747.027	0.05
747.204	-0.1
747.382	0
747.56	-0.17
747.737	0.05
747.915	-0.03
748.093	0.01
748.27	-0.11
748.448	-0.06
748.625	-0.13
748.803	-0.1
748.98	-0.1
749.158	0
749.335	0.08
749.513	-0.04
749.69	0.03
749.868	0.08
750.045	0.01
750.223	-0.1
750.4	-0.26
750.578	0.24
750.755	-0.01
750.932	-0.19
751.11	0.2
751.287	-0.07
751.464	0.04
751.642	-0.21
751.819	0.05
751.996	0.06
752.173	-0.02
752.351	-0.16
752.528	0.02
752.705	-0.02
752.882	0.04
753.06	-0.07
753.237	-0.05
753.414	0.16
753.591	0.14
753.768	0.01
753.945	-0.05
754.122	-0.12
754.299	0.07
754.476	-0.04
754.654	-0
754.831	0.07
755.008	-0.03
755.185	-0.07
755.362	-0.19
755.539	0.03
755.716	-0.12
755.892	-0.1
756.069	-0.04
756.246	-0.08
756.423	-0.1
756.6	0.18
756.777	-0.16
756.954	0.1
757.131	0.02
757.307	-0.19
757.484	-0.13
757.661	-0.1
757.838	0
758.015	-0.12
758.191	0.04
758.368	0.06
758.545	0.11
758.721	0.01
758.898	-0.12
759.075	0.05
759.251	0.15
759.428	0.04
759.605	-0.1
759.781	0.04
759.958	-0.01
760.134	0
760.311	-0.03
760.488	0.07
760.664	0.11
760.841	-0.08
761.017	-0.16
761.194	0.02
761.37	0.02
761.547	-0.08
761.723	-0.11
761.899	0.04
762.076	-0.07
762.252	-0.1
762.429	-0.08
762.605	0.1
762.781	-0.01
762.958	0.16
763.134	-0.16
763.31	-0.11
763.486	0.07
763.663	-0.2
763.839	0.12
764.015	-0.18
764.191	-0.05
764.368	-0.04
764.544	-0.09
764.72	-0.05
764.896	0.04
765.072	0.05
765.248	-0.09
765.425	-0.07
765.601	-0.09
765.777	0.04
765.953	-0.31
766.129	-0.11
766.305	-0.26
766.481	0.11
766.657	-0.04
766.833	0.2
767.009	-0.15
767.185	-0.08
767.361	0.05
767.537	-0.12
767.713	0.05
767.889	-0.15
768.065	0.01
768.24	0.09
768.416	0.15
768.592	0.03
768.768	0.08
768.944	0.06
769.12	-0.22
769.295	-0.06
769.471	-0.15
769.647	-0.03
769.823	0.22
769.998	-0.15
770.174	-0.17
770.35	0.28
770.525	0.23
770.701	0.03
770.877	-0.08
771.052	-0.05
771.228	-0
771.403	0.03
771.579	0.03
771.755	0.24
771.93	-0.13
772.106	-0.12
772.281	-0.09
772.457	0.02
772.632	0.13
772.808	-0.15
772.983	-0.08
773.159	-0.28
773.334	0.18
773.509	-0.09
773.685	-0.08
773.86	0.27
774.036	0.12
774.211	0.1
774.386	-0.12
774.562	-0.05
774.737	0.04
774.912	-0.05
775.087	0.02
775.263	-0.03
775.438	0.05
775.613	-0.2
775.788	0.1
775.964	0.14
776.139	0.27
776.314	-0.12
776.489	0.04
776.664	0.08
776.839	-0.17
777.014	0.06
777.19	0.1
777.365	0.24
777.54	0.16
777.715	-0.09
777.89	-0.1
778.065	-0.09
778.24	0.02
778.415	0.19
778.59	-0.3
778.765	-0.16
778.94	-0.01
779.115	-0.04
779.289	-0.2
779.464	-0.01
779.639	-0.06
779.814	-0.22
779.989	-0.14
780.164	0.14
780.339	0.04
780.513	-0.06
780.688	-0.24
780.863	-0.07
781.038	0.19
781.212	-0.17
781.387	0.08
781.562	0.26
781.737	-0.16
781.911	0.06
782.086	-0.2
782.261	0
782.435	0.22
782.61	-0.11
782.784	0.01
782.959	0.04
783.134	-0.14
783.308	-0.41
783.483	-0.05
783.657	0.38
783.832	-0.15
784.006	-0.41
784.181	-0.1
784.355	0.04
784.53	-0.34
784.704	-0.32
784.878	0.18
785.053	0.12
785.227	0.12
785.402	0.11
785.576	-0.31
785.75	-0.25
785.925	-0.24
786.099	0
786.273	0.03
786.448	0.25
786.622	0.24
786.796	-0.41
786.97	-0.12
787.145	0.56
787.319	-0.36
787.493	-0.28
787.667	-0.41
787.841	0.02
788.015	0.1
788.19	-0.15
788.364	-0.02
788.538	0.33
788.712	-0
788.886	-0.02
789.06	0.03
789.234	0.22
789.408	-0.12
789.582	-0.21
789.756	0.02
789.93	-0.2
790.104	0.09
790.278	-0.41
790.452	-0.42
790.626	0.11
790.8	-0.01
790.973	0.1
791.147	0.34
791.321	0.24
791.495	0.19
791.669	-0.08
791.843	0.11
792.016	-0.01
792.19	0.26
792.364	-0.22
792.538	0.54
792.711	0.2
792.885	-0.11
793.059	-0.33
793.233	-0.56
793.406	0.26
793.58	0.15
793.754	0.22
793.927	-0.11
794.101	0.26
794.274	0.02
794.448	0.4
794.622	-0.42
794.795	0.4
794.969	-0.2
795.142	0.4
795.316	-0.3
795.489	-0.19
795.663	0.41
795.836	-0.05
796.009	-0.11
796.183	0.48
796.356	-0.06
796.53	-0.03
796.703	0.01
796.876	0.8
797.05	-0.2
797.223	-0.08
797.396	-0.04
797.57	0.13
797.743	0.35
797.916	-0.05
798.09	-0.27
798.263	0.11
798.436	0.36
798.609	-0.3
798.782	-0.23
798.956	0.01
799.129	-0.06
799.302	-0.23
799.475	-0.09
799.648	-0.1
799.821	-0.32
799.994	-0.03
800.167	-0.32
800.34	0.21
800.514	0.01
800.687	-0.23
800.86	-0.24
801.033	-0.15
801.206	0.38
801.379	-0.46
801.551	0.27
801.724	0.13
801.897	0.47
802.07	-0.25
802.243	-0.55
802.416	0.19
802.589	-0.17
802.762	0.19
802.935	-0.02
803.107	-0.14
803.28	0.16
803.453	-0.21
803.626	-0.21
803.798	-0.19
803.971	-0.12
804.144	0.09
804.317	0.11
804.489	0.01
804.662	-0.16
804.835	0
805.007	-0.32
805.18	0.29
805.353	-0.05
805.525	0
805.698	-0.41
805.87	0.07
806.043	0.04
806.215	-0.4
806.388	-0.23
806.56	-0.04
806.733	0.39
806.905	0.04
807.078	-0.08
807.25	-0.46
807.423	0.16
807.595	-0.1
807.768	-0.25
807.94	0.33
808.112	0.41
808.285	-0.02
808.457	0.06
808.629	0.11
808.802	-0.01
808.974	0.14
809.146	-0.3
809.318	-0.65
809.491	0.05
809.663	0.26
809.835	-0.43
810.007	-0.15
810.18	-0.11
810.352	-0.29
810.524	0.08
810.696	0.37
810.868	0.33
811.04	-0.36
811.212	-0.04
811.384	0.34
811.556	0.04
811.728	-0
811.901	0.82
812.073	-0.03
812.245	0.37
812.417	0.08
812.589	-0.65
812.76	0.03
812.932	0.31
813.104	0.63
813.276	-0.22
813.448	0.32
813.62	0.28
813.792	-0.06
813.964	-0.09
814.136	0.08
814.307	-0.32
814.479	-0.29
814.651	-0.12
814.823	1.02
814.995	-0.29
815.166	0.13
815.338	-0.65
815.51	-0.61
815.681	0.89
815.853	0.17
816.025	-0.36
816.196	0.23
816.368	0.19
816.54	-0.84
816.711	-0.55
816.883	0.07
817.054	1.25
817.226	-1.12
817.398	-0.06
817.569	-0.38
817.741	-0.36
817.912	-0.37
818.084	-0.61
818.255	0.14
818.426	-0.57
818.598	0.26
818.769	-0.46
818.941	0.12
819.112	0.93
819.283	0.22
819.455	-0.48
819.626	0.28
819.798	0.32
819.969	-0.08
820.14	-0.26
820.311	0.26
820.483	0.23
820.654	-0.08
820.825	-0.01
820.996	-0.33
821.168	-0.43
821.339	-0.07
821.51	-0.67
821.681	-0.03
821.852	-0.16
822.023	-0.2
822.195	-0.4
822.366	0.19
822.537	-0.16
822.708	0.18
822.879	-0.87
823.05	0.72
823.221	-0.1
823.392	0.39
823.563	-0.08
823.734	-0.03
823.905	-0.2
824.076	-0.15
824.247	-0.36
824.418	0.04
824.589	0.52
824.759	-0.1
824.93	-0.64
825.101	-0.67
825.272	0.47
825.443	0.55
825.614	0.64
825.784	-0.73
825.955	1.11
826.126	0.2
826.297	0.14
826.467	0.93
826.638	0.5
826.809	-0.75
826.98	-0.1
827.15	0.07
827.321	-0.32
827.492	0.69
827.662	-0.05
827.833	1.3
828.003	-0.02
828.174	-0.7
828.345	-0.82
828.515	0.17
828.686	0.06
828.856	-0.06
829.027	-0.52
829.197	-0.31
829.368	0.12
829.538	-0.3
829.709	-0.06
829.879	-0.48
830.049	-0.14
830.22	-0.35
830.39	-0.17
830.56	0.72
830.731	-0.89
830.901	-0.75
831.072	0.21
831.242	-0.07
831.412	-0.18
831.582	-0.38
831.753	-0.72
831.923	0.41
832.093	0.16
832.263	0.15
832.434	-0.74
832.604	-0.42
832.774	0.98
832.944	-0.24
833.114	0.11
833.284	-0.19
833.454	-0.5
833.624	-0.65
833.795	-0.15
833.965	0.34
834.135	0.13
834.305	-0.91
834.475	-0.58
834.645	-0.22
834.815	-0.09
834.985	-0.82
835.155	-0.87
835.325	0.47
835.494	0.24
835.664	-0.52
835.834	-0.64
836.004	-0.12
836.174	0.22
836.344	0.08
836.514	-0.82
836.684	-0.13
836.853	-0.23
837.023	0.18
837.193	-0.82
837.363	1.04
837.532	0.88
837.702	-0.66
837.872	-0.71
838.041	0.68
838.211	1.08
838.381	-0.78
838.55	-0.29
838.72	1.87
838.89	0.98
839.059	-0.53
839.229	-0.9
839.398	1.04
839.568	0.07
839.738	-0.45
839.907	0.49
840.077	-0.6
840.246	-0.72
840.416	-1.16
840.585	-0.86
840.755	1.42
840.924	0.57
841.093	-0.82
841.263	-0.44
841.432	0.59
841.602	-0.64
841.771	-1.01
841.94	-0.09
842.11	1.38
842.279	1.45
842.448	-1.52
842.617	-0.37
842.787	1.27
842.956	-1.15
843.125	-0.49
843.294	-0.35
843.464	0.71
843.633	-0.14
843.802	-0.78
843.971	-0.38
844.14	0.39
844.309	1.06
844.479	-0.35
844.648	-0.3
844.817	-0.81
844.986	0.45
845.155	-0.94
845.324	-0.12
845.493	-0.42
845.662	-0.99
845.831	-0
846	0.51
846.169	-0.75
846.338	1.4
846.507	0.35
846.676	-0.15
846.844	-0.57
847.013	0.68
847.182	0.4
847.351	-0.67
847.52	-0.8
847.689	-0.12
847.858	-0.73
848.026	-1.11
848.195	-0.37
848.364	0.14
848.533	-1.29
848.701	-1.03
848.87	-0.37
849.039	0.51
849.207	0.22
849.376	1.39
849.545	1.81
849.713	-0.81
849.882	-0.26
850.051	-0.62
850.219	-0.64
850.388	0.85
850.556	-0.63
850.725	-2.16
850.893	0.48
851.062	-0.89
851.23	0.3
851.399	-1.75
851.567	-0.5
851.736	-0.33
851.904	-1.22
852.073	-0.81
852.241	0.21
852.41	-0.16
852.578	-1.46
852.746	-1.11
852.915	1.67
853.083	-0.12
853.251	-1.63
853.42	-0
853.588	0.57
853.756	1.93
853.924	-0.58
854.093	-0.41
854.261	-0.16
854.429	-2.48
854.597	0.12
854.765	-1.19
854.934	0.66
855.102	0.68
855.27	-0.42
855.438	-0.3
855.606	0.91
855.774	1.19
855.942	-1.93
856.11	-2.32
856.278	-1
856.446	0.82
856.614	-0
856.782	-0.59
856.95	1.15
857.118	0.41
857.286	0.62
857.454	-1.14
857.622	1.57
857.79	0.24
857.958	-1.53
858.126	-0.68
858.294	-2.31
858.462	-0.8
858.629	-0.48
858.797	-0.41
858.965	0.59
859.133	-0.33
859.301	-0.36
859.468	0.75
859.636	-1.01
859.804	1.11
859.971	0.02
860.139	-1.01
860.307	1.77
860.474	-0.56
860.642	-1.22
860.81	-0.45
860.977	-0.07
861.145	1.3
861.313	-0.15
861.48	-0.14
861.648	-0.02
861.815	-0.31
861.983	-2.81
862.15	-1.29
862.318	1.21
862.485	1.4
862.653	-1.22
862.82	-1.85
862.988	2.15
863.155	-0.21
863.322	-0.8
863.49	-1.07
863.657	-0.88
863.824	1.89
863.992	1.84
864.159	0.27
864.326	1.45
864.494	-0.56
864.661	2.44
864.828	-1.35
864.996	-0.52
865.163	2.01
865.33	-2.15
865.497	-4
865.664	-2.15
865.832	-3.35
865.999	-0.8
866.166	-1.07
866.333	-1.12
866.5	-2.01
866.667	-0.11
866.834	-0.71
867.001	1.07
867.168	-2.42
867.335	-0.39
867.502	-2.43
867.669	-0.27
867.836	1.61
868.003	-1.19
868.17	1.47
868.337	-1.29
868.504	2.57
868.671	-1.55
868.838	-0.66
869.005	-1.57
869.172	1.63
869.339	-0.46
869.505	-0.5
869.672	0.25
869.839	1.57
870.006	-0.75
870.173	-3.87
870.339	0.21
870.506	3.23
870.673	-0.78
870.84	-0.45
871.006	0.63
871.173	-1.58
871.34	0.17
871.506	-2.12
871.673	0.27
871.839	-2.33
872.006	-0.92
872.173	-0.89
872.339	0.19
872.506	0.85
872.672	-0.85
872.839	-2.34
873.005	0.44
873.172	1.98
873.338	-0.01
873.505	-0.61
873.671	-1.27
873.838	0.13
874.004	-2.24
874.171	-1.08
874.337	-0.61
874.503	-0.54
874.67	-0.39
874.836	-1.44
875.002	2.27
875.169	1.26
875.335	-0.97
875.501	-0.53
875.668	1.07
875.834	0.35
876	-1.02
876.166	-1.17
876.332	-0.01
876.499	2.36
876.665	-1.24
876.831	-1.08
876.997	3.2
877.163	-0.89
877.329	-1.67
877.495	-0.25
877.662	-0.01
877.828	-0.8
877.994	-0.74
878.16	-2.72
878.326	-2
878.492	0.68
878.658	-2.01
878.824	0.1
878.99	-0.44
879.156	-0.73
879.322	2.18
879.487	-2.55
879.653	0.89
879.819	-1.03
879.985	-0.06
880.151	0.76
880.317	1.82
880.483	0.59
880.648	0.98
880.814	-4.77
880.98	1.59
881.146	-2.47
881.312	-0.96
881.477	-2.17
881.643	-0.31
881.809	1.23
881.974	0.37
882.14	-2.98
882.306	-0.53
882.471	1.44
882.637	-1.87
882.803	0.89
882.968	3.28
883.134	2.87
883.299	0.55
883.465	-0.4
883.63	-0.01
883.796	0.4
883.961	-1.4
884.127	-0.12
884.292	-4.22
884.458	-1.96
884.623	-1.96
