Data from Apollo_Calib_20240827__AbsoluteIrradiance__428__06-17-02-987.txt Node

Date: Wed Aug 28 06:17:02 BST 2024
User: biology
Spectrometer: FLMT08252
Trigger mode: 0
Integration Time (sec): 5.000000E-1
Scans to average: 5
Electric dark correction enabled: true
Nonlinearity correction enabled: false
Boxcar width: 0
XAxis mode: Wavelengths
Number of Pixels in Spectrum: 3648
>>>>>Begin Spectral Data<<<<<
179.588	-0
179.809	-0
180.03	-0
180.251	-0
180.473	-0
180.694	0
180.915	0
181.136	-0
181.357	0
181.578	-0
181.799	-0
182.02	-0
182.241	-0
182.462	-0
182.683	0
182.904	0
183.125	-0
183.346	-0
183.567	0
183.788	0
184.009	-0
184.23	0
184.451	0
184.672	0
184.892	0
185.113	0
185.334	0
185.555	0
185.776	0
185.996	0
186.217	0
186.438	0
186.659	0
186.879	0
187.1	0
187.321	0
187.541	0
187.762	0
187.983	0
188.203	0
188.424	0
188.644	0
188.865	0
189.086	0
189.306	0
189.527	0
189.747	0
189.968	0
190.188	0
190.409	0
190.629	0
190.849	0
191.07	0
191.29	0
191.511	0
191.731	0
191.951	0
192.172	0
192.392	0
192.612	0
192.833	0
193.053	0
193.273	0
193.493	0
193.714	0
193.934	0
194.154	0
194.374	0
194.594	0
194.815	0
195.035	0
195.255	0
195.475	0
195.695	0
195.915	0
196.135	0
196.355	0
196.575	0
196.795	0
197.015	0
197.235	0
197.455	0
197.675	0
197.895	0
198.115	-0
198.335	0
198.555	0
198.775	0
198.995	0
199.214	0
199.434	0
199.654	0
199.874	0
200.094	2.22
200.313	1.05
200.533	0.82
200.753	0.68
200.973	1.7
201.192	1.39
201.412	0.29
201.632	0.68
201.851	1.78
202.071	0.22
202.291	0.49
202.51	0.58
202.73	1.23
202.95	0.48
203.169	0.41
203.389	0.78
203.608	0.57
203.828	0.59
204.047	0.45
204.267	1.26
204.486	1
204.706	0.91
204.925	0.48
205.145	0.82
205.364	1.09
205.583	1.39
205.803	0.37
206.022	0.44
206.242	0.35
206.461	0.58
206.68	0.43
206.9	0.55
207.119	1.25
207.338	1.21
207.557	0.44
207.777	0.39
207.996	0.5
208.215	1.28
208.434	0.12
208.654	0.56
208.873	0.55
209.092	0.9
209.311	0.6
209.53	0.2
209.749	0.41
209.968	0.4
210.187	0.11
210.407	-0.01
210.626	0.29
210.845	0.79
211.064	0.39
211.283	0.44
211.502	0.8
211.721	0.59
211.94	0.44
212.159	0.61
212.377	0.65
212.596	0.74
212.815	0.52
213.034	0.66
213.253	0.82
213.472	0.66
213.691	0.33
213.91	0.17
214.128	0.42
214.347	0.8
214.566	0.17
214.785	0.2
215.003	0.51
215.222	0.24
215.441	0.47
215.66	0.09
215.878	0.43
216.097	0.42
216.316	0.09
216.534	0.28
216.753	0.26
216.972	0.31
217.19	0.41
217.409	0.26
217.627	0.07
217.846	0.28
218.064	0.34
218.283	0.1
218.501	0.66
218.72	0.5
218.938	0.24
219.157	0.3
219.375	0.46
219.594	0.39
219.812	0.27
220.031	0.16
220.249	0.47
220.467	0.7
220.686	0.17
220.904	0.15
221.122	0.17
221.341	0.78
221.559	0.34
221.777	0.14
221.995	0.38
222.214	0.45
222.432	0.09
222.65	0.33
222.868	0.3
223.086	0.34
223.305	0.37
223.523	0.18
223.741	0.41
223.959	0.23
224.177	0.15
224.395	0.19
224.613	0.3
224.831	0.5
225.049	0.03
225.267	0.37
225.485	0.32
225.703	0.34
225.921	0.19
226.139	0.22
226.357	0.35
226.575	0.33
226.793	0.3
227.011	0.66
227.229	0.35
227.447	0.37
227.665	0.18
227.883	0.05
228.1	0.24
228.318	0.29
228.536	-0.03
228.754	0.16
228.972	0.33
229.189	0.42
229.407	0.05
229.625	0.26
229.843	0.33
230.06	0.35
230.278	0.16
230.496	0.2
230.713	0.24
230.931	0.45
231.149	0.15
231.366	0.03
231.584	0.17
231.801	0.58
232.019	0.2
232.236	0.12
232.454	0.1
232.671	0.3
232.889	0.11
233.106	0.16
233.324	0.23
233.541	0.21
233.759	0.19
233.976	0.08
234.194	0.08
234.411	0.17
234.628	0.13
234.846	0.23
235.063	0.3
235.28	0.22
235.498	0.23
235.715	0.08
235.932	0.23
236.149	0.23
236.367	0.1
236.584	0.29
236.801	0.2
237.018	0.31
237.236	0.26
237.453	0.07
237.67	0.35
237.887	0.2
238.104	0.1
238.321	0.1
238.538	0.1
238.755	0.28
238.973	0.04
239.19	0.2
239.407	0.23
239.624	0.16
239.841	-0
240.058	0.07
240.275	0.21
240.492	0.18
240.709	0.13
240.925	0.06
241.142	0.15
241.359	0.06
241.576	0.1
241.793	0.12
242.01	0.18
242.227	0.32
242.444	0.22
242.66	0.2
242.877	0.19
243.094	0.13
243.311	0.25
243.527	0.14
243.744	0.18
243.961	0.23
244.178	0.12
244.394	0.16
244.611	0.3
244.828	0.27
245.044	0.14
245.261	0.13
245.477	0.23
245.694	0.21
245.911	0.17
246.127	0.25
246.344	0.33
246.56	0.3
246.777	0.09
246.993	0.11
247.21	0.24
247.426	0.25
247.643	0.08
247.859	0.04
248.076	0.18
248.292	0.31
248.508	0.19
248.725	0.13
248.941	0.11
249.157	0.25
249.374	0.09
249.59	0.13
249.806	0.11
250.023	0.31
250.239	0.09
250.455	0.12
250.671	0.2
250.888	0.18
251.104	0.2
251.32	0.15
251.536	0.13
251.752	0.05
251.969	0.12
252.185	0.17
252.401	0.36
252.617	0.11
252.833	0.11
253.049	0.13
253.265	0.16
253.481	0.16
253.697	0.08
253.913	0.05
254.129	0.22
254.345	0.2
254.561	0.17
254.777	0.18
254.993	0.24
255.209	0.15
255.425	0.11
255.641	0.11
255.857	0.21
256.073	0.18
256.288	0.04
256.504	0.06
256.72	0.17
256.936	0.24
257.152	0.12
257.367	0.1
257.583	0.2
257.799	0.24
258.015	0.03
258.23	0.19
258.446	0.28
258.662	0.2
258.877	0.08
259.093	0.07
259.309	0.15
259.524	0.17
259.74	0.11
259.955	0.07
260.171	0.18
260.387	0.16
260.602	0.2
260.818	0.13
261.033	0.13
261.249	0.08
261.464	0.07
261.68	0.01
261.895	0.15
262.11	0.2
262.326	0.09
262.541	0.05
262.757	0.21
262.972	0.17
263.187	0.14
263.403	0.15
263.618	0.19
263.833	0.15
264.049	0.06
264.264	0.13
264.479	0.2
264.694	0.29
264.91	0.04
265.125	0.06
265.34	0.18
265.555	0.29
265.77	0.12
265.986	0.14
266.201	0.18
266.416	0.27
266.631	0.13
266.846	0.15
267.061	0.18
267.276	0.21
267.491	-0.04
267.706	0.19
267.921	0.18
268.136	0.14
268.351	0.19
268.566	0.07
268.781	0.2
268.996	0.16
269.211	0.22
269.426	0.05
269.641	0.07
269.856	0.19
270.071	0.07
270.285	0.09
270.5	0.18
270.715	0.18
270.93	0.1
271.145	0.2
271.359	0.21
271.574	0.09
271.789	0.16
272.004	0.09
272.218	0.07
272.433	0.18
272.648	0.07
272.862	0.22
273.077	0.08
273.292	0.16
273.506	0.09
273.721	0.1
273.936	0.19
274.15	0.21
274.365	0.11
274.579	0.23
274.794	0.17
275.008	0.18
275.223	0.06
275.437	0.13
275.652	0.21
275.866	0.15
276.081	0.11
276.295	0.18
276.509	0.12
276.724	0.12
276.938	0.17
277.153	0.13
277.367	0.16
277.581	0.08
277.796	0.07
278.01	0.05
278.224	0.22
278.438	0.25
278.653	0.05
278.867	0.11
279.081	-0.04
279.295	0.08
279.51	0.16
279.724	0.01
279.938	0.16
280.152	0.16
280.366	0.13
280.58	0.07
280.794	0.19
281.008	0.17
281.222	0.15
281.437	0.24
281.651	0.09
281.865	0.15
282.079	0.11
282.293	0.02
282.507	0.06
282.721	0.13
282.935	0.12
283.148	-0
283.362	0.06
283.576	0.07
283.79	0.1
284.004	0.05
284.218	0.13
284.432	0.06
284.646	0.07
284.859	0.1
285.073	0.07
285.287	0.16
285.501	0.08
285.714	0.13
285.928	0.13
286.142	0.13
286.356	0.12
286.569	0.12
286.783	0.18
286.997	0.19
287.21	0.1
287.424	0.16
287.637	0.1
287.851	0.09
288.065	0.14
288.278	0.12
288.492	0.09
288.705	0.1
288.919	0.14
289.132	0.01
289.346	0.18
289.559	0.09
289.773	0.04
289.986	0.08
290.2	0.13
290.413	0.13
290.626	0.08
290.84	0.07
291.053	0.08
291.267	0.14
291.48	0.11
291.693	0.12
291.906	0.07
292.12	0.12
292.333	0.03
292.546	0.1
292.76	0.2
292.973	0.13
293.186	0.13
293.399	0.09
293.612	0.13
293.826	0.1
294.039	0.08
294.252	0.11
294.465	0.16
294.678	0.1
294.891	0.12
295.104	0.06
295.317	0.12
295.53	0.1
295.743	0.09
295.956	0.09
296.169	0.21
296.382	0.18
296.595	0.07
296.808	0.04
297.021	0.16
297.234	0.16
297.447	0.07
297.66	0.07
297.873	0.18
298.086	0.12
298.299	0.09
298.511	0.06
298.724	0.08
298.937	0.1
299.15	0.1
299.363	0.13
299.575	0.1
299.788	0.11
300.001	0.1
300.213	0.04
300.426	0.07
300.639	0.11
300.852	0.11
301.064	0.1
301.277	0.19
301.489	0.14
301.702	0.16
301.915	0.12
302.127	0.1
302.34	0.1
302.552	0.11
302.765	0.12
302.977	0.13
303.19	0.05
303.402	0.08
303.615	0.06
303.827	0.09
304.04	0.12
304.252	0.13
304.464	0.13
304.677	0.16
304.889	0.16
305.102	0.11
305.314	0.05
305.526	0.11
305.739	0.13
305.951	0.08
306.163	0.09
306.375	0.17
306.588	0.08
306.8	0.02
307.012	0.09
307.224	0.15
307.436	0.16
307.649	0.03
307.861	0.07
308.073	0.1
308.285	0.05
308.497	0.02
308.709	0.06
308.921	0.12
309.133	0.18
309.346	0.07
309.558	0.09
309.77	0.15
309.982	0.11
310.194	0.16
310.406	0.1
310.617	0.16
310.829	0.1
311.041	0.14
311.253	0.07
311.465	0.07
311.677	0.1
311.889	0.1
312.101	0.07
312.313	0.15
312.524	0.15
312.736	0.01
312.948	0.07
313.16	0.18
313.372	0.11
313.583	0.1
313.795	0.09
314.007	0.07
314.218	0.14
314.43	0.09
314.642	0.07
314.853	0.02
315.065	0.1
315.277	0.08
315.488	0.13
315.7	0.13
315.912	0.11
316.123	0.06
316.335	0.08
316.546	0.23
316.758	0.08
316.969	0.07
317.181	0.11
317.392	0.07
317.604	0.17
317.815	0.08
318.026	0.07
318.238	0.09
318.449	0.13
318.661	0.04
318.872	0.03
319.083	0.07
319.295	0.09
319.506	0.09
319.717	0.13
319.929	0.13
320.14	0.12
320.351	0.11
320.562	0.05
320.774	0.06
320.985	0.11
321.196	0.06
321.407	0.04
321.618	0.14
321.829	0.12
322.041	0.09
322.252	0.07
322.463	0.09
322.674	0.09
322.885	0.05
323.096	0.1
323.307	0.07
323.518	0.1
323.729	0.03
323.94	0.07
324.151	0.09
324.362	0.14
324.573	0.13
324.784	0.06
324.995	0.15
325.206	0.11
325.417	0.09
325.628	0.08
325.838	0.08
326.049	0.06
326.26	0.13
326.471	0.08
326.682	0.13
326.892	0.11
327.103	0.02
327.314	0.05
327.525	0.18
327.735	0.09
327.946	0.07
328.157	0.04
328.368	0.1
328.578	0.1
328.789	0.17
328.999	0.12
329.21	0.08
329.421	0.1
329.631	0.09
329.842	0.03
330.052	0.06
330.263	0.12
330.473	0.12
330.684	0.06
330.894	0.06
331.105	0.11
331.315	0.09
331.526	0.02
331.736	0.2
331.947	0.13
332.157	0.12
332.367	0.07
332.578	0.1
332.788	0.13
332.999	0.11
333.209	0.1
333.419	0.03
333.629	0.1
333.84	0.08
334.05	0.13
334.26	0.11
334.47	0.1
334.681	0.12
334.891	0.09
335.101	0.1
335.311	0.15
335.521	0.1
335.732	0.06
335.942	0.15
336.152	0.09
336.362	0.12
336.572	0.08
336.782	0.12
336.992	0.09
337.202	0.07
337.412	0.05
337.622	0.09
337.832	0.08
338.042	0.12
338.252	0.08
338.462	0.11
338.672	0.12
338.882	0.11
339.092	0.07
339.302	0.14
339.511	0.08
339.721	0.07
339.931	0.1
340.141	0.15
340.351	0.12
340.561	0.12
340.77	0.08
340.98	0.11
341.19	0.13
341.4	0.08
341.609	0.04
341.819	0.08
342.029	0.01
342.238	0.1
342.448	0.07
342.658	0.11
342.867	0.08
343.077	0.12
343.286	0.09
343.496	0.07
343.706	0.14
343.915	0.09
344.125	0.06
344.334	0.1
344.544	0.02
344.753	0.06
344.963	0.1
345.172	0.07
345.381	0.04
345.591	0.04
345.8	0.09
346.01	0.16
346.219	0.15
346.428	-0.09
346.638	0.09
346.847	0.14
347.056	0.14
347.266	0.06
347.475	0.06
347.684	0.1
347.893	0.12
348.103	0.1
348.312	0.1
348.521	0.1
348.73	0.09
348.94	0.11
349.149	0.09
349.358	0.09
349.567	0.05
349.776	0.06
349.985	0.1
350.194	0.13
350.403	0.12
350.612	0.09
350.821	0.1
351.03	0.07
351.239	0.02
351.448	0.11
351.657	0.09
351.866	0.15
352.075	0.09
352.284	0.13
352.493	0.06
352.702	0.13
352.911	0.09
353.12	0.09
353.329	0.09
353.538	0.1
353.746	0.12
353.955	0.04
354.164	0.07
354.373	0.07
354.582	0.13
354.79	0.11
354.999	0.13
355.208	0.09
355.416	0.18
355.625	0.04
355.834	0.11
356.042	0.12
356.251	0.08
356.46	0.07
356.668	0.15
356.877	0.16
357.085	0.15
357.294	-0
357.503	0.11
357.711	0.06
357.92	0.2
358.128	0.11
358.337	0.08
358.545	0.09
358.754	0.09
358.962	0.15
359.17	0.07
359.379	0.15
359.587	0.12
359.796	0.08
360.004	0.15
360.212	0.1
360.421	0.15
360.629	0.09
360.837	0.11
361.046	0.14
361.254	0.22
361.462	0.11
361.67	0.06
361.879	0.07
362.087	0.16
362.295	0.12
362.503	0.08
362.711	0.06
362.92	0.1
363.128	0.08
363.336	0.07
363.544	0.05
363.752	0.1
363.96	0.07
364.168	0.1
364.376	0.12
364.584	0.13
364.792	0.12
365	0.12
365.208	0.07
365.416	0.12
365.624	0.12
365.832	0.11
366.04	0.16
366.248	0.09
366.456	0.12
366.664	0.13
366.872	0.14
367.079	0.02
367.287	0.12
367.495	0.1
367.703	0.09
367.911	0.05
368.118	0.11
368.326	0.08
368.534	0.07
368.742	0.17
368.949	0.07
369.157	0.07
369.365	0.14
369.572	0.08
369.78	0.02
369.988	0.09
370.195	0.1
370.403	0.09
370.61	0.07
370.818	0.12
371.026	0.2
371.233	0.11
371.441	0.13
371.648	0.03
371.856	0.08
372.063	0.1
372.271	0.09
372.478	0.06
372.685	0.09
372.893	0.14
373.1	0.05
373.308	0.07
373.515	0.18
373.722	0.13
373.93	0.14
374.137	0.09
374.344	0.17
374.552	0.18
374.759	0.15
374.966	0.16
375.173	0.1
375.381	0.14
375.588	0.14
375.795	0.02
376.002	0.09
376.209	0.06
376.417	0.08
376.624	0.1
376.831	0.11
377.038	0.07
377.245	0.03
377.452	0.08
377.659	0.11
377.866	0.09
378.073	0.12
378.28	0.09
378.487	0.14
378.694	0.09
378.901	0.09
379.108	0.11
379.315	0.16
379.522	0.18
379.729	0.08
379.936	0.08
380.143	0.08
380.35	0.14
380.557	0.04
380.763	0.11
380.97	0.09
381.177	0.11
381.384	0.13
381.591	0.09
381.797	0.08
382.004	0.11
382.211	0.11
382.418	0.12
382.624	0.12
382.831	0.11
383.038	0.09
383.244	0.11
383.451	0.09
383.658	0.13
383.864	0.11
384.071	0.06
384.277	0.18
384.484	0.07
384.69	0.16
384.897	0.06
385.103	0.11
385.31	0.06
385.516	0.09
385.723	0.1
385.929	0.05
386.136	0.08
386.342	0.16
386.549	0.08
386.755	0.17
386.961	0.12
387.168	0.09
387.374	0.14
387.58	0.13
387.787	0.12
387.993	0.16
388.199	0.15
388.406	0.06
388.612	0.08
388.818	0.11
389.024	0.07
389.231	0.15
389.437	0.16
389.643	0.15
389.849	0.13
390.055	0.11
390.261	0.1
390.467	0.11
390.674	0.11
390.88	0.1
391.086	0.14
391.292	0.05
391.498	0.14
391.704	0.13
391.91	0.1
392.116	0.11
392.322	-0.06
392.528	0.17
392.734	0.12
392.94	0.12
393.146	0.07
393.352	0.11
393.557	0.12
393.763	0.14
393.969	0.15
394.175	0.13
394.381	0.12
394.587	0.1
394.792	0.13
394.998	0.13
395.204	0.15
395.41	0.12
395.615	0.11
395.821	0.14
396.027	0.13
396.233	0.06
396.438	0.13
396.644	0.2
396.85	0.11
397.055	0.1
397.261	0.17
397.466	0.12
397.672	0.13
397.878	0.17
398.083	0.12
398.289	0.09
398.494	0.17
398.7	0.12
398.905	0.05
399.111	0.19
399.316	0.11
399.522	0.1
399.727	0.14
399.932	0.13
400.138	0.08
400.343	0.14
400.549	0.09
400.754	0.13
400.959	0.17
401.165	0.14
401.37	0.13
401.575	0.06
401.78	0.13
401.986	0.14
402.191	0.12
402.396	0.13
402.601	0.11
402.807	0.14
403.012	0.14
403.217	0.15
403.422	0.15
403.627	0.1
403.832	0.08
404.037	0.15
404.243	0.16
404.448	0.12
404.653	0.1
404.858	0.15
405.063	0.15
405.268	0.11
405.473	0.12
405.678	0.12
405.883	0.25
406.088	0.16
406.293	0.07
406.498	0.13
406.703	0.14
406.907	0.15
407.112	0.08
407.317	0.17
407.522	0.19
407.727	0.1
407.932	0.12
408.136	0.18
408.341	0.1
408.546	0.11
408.751	0.17
408.956	0.09
409.16	0.14
409.365	0.11
409.57	0.12
409.774	0.18
409.979	0.13
410.184	0.14
410.388	0.11
410.593	0.18
410.798	0.17
411.002	0.11
411.207	0.15
411.411	0.2
411.616	0.08
411.82	0.11
412.025	0.14
412.229	0.16
412.434	0.19
412.638	0.18
412.843	0.11
413.047	0.11
413.252	0.11
413.456	0.16
413.66	0.19
413.865	0.13
414.069	0.18
414.273	0.12
414.478	0.13
414.682	0.11
414.886	0.14
415.091	0.06
415.295	0.07
415.499	0.18
415.703	0.09
415.908	0.18
416.112	0.06
416.316	0.16
416.52	0.11
416.724	0.09
416.929	0.12
417.133	0.26
417.337	0.14
417.541	0.12
417.745	0.13
417.949	0.16
418.153	0.16
418.357	0.11
418.561	0.22
418.765	0.16
418.969	0.23
419.173	0.17
419.377	0.15
419.581	0.22
419.785	0.13
419.989	0.14
420.193	0.15
420.397	0.14
420.601	0.17
420.804	0.23
421.008	0.2
421.212	0.17
421.416	0.23
421.62	0.15
421.823	0.19
422.027	0.2
422.231	0.19
422.435	0.13
422.638	0.15
422.842	0.16
423.046	0.14
423.249	0.21
423.453	0.19
423.657	0.14
423.86	0.21
424.064	0.17
424.268	0.21
424.471	0.16
424.675	0.23
424.878	0.22
425.082	0.18
425.285	0.22
425.489	0.12
425.692	0.19
425.896	0.12
426.099	0.22
426.303	0.13
426.506	0.14
426.71	0.18
426.913	0.25
427.116	0.24
427.32	0.17
427.523	0.18
427.726	0.25
427.93	0.13
428.133	0.17
428.336	0.15
428.54	0.15
428.743	0.21
428.946	0.2
429.149	0.16
429.353	0.13
429.556	0.16
429.759	0.18
429.962	0.16
430.165	0.18
430.368	0.15
430.571	0.1
430.775	0.19
430.978	0.16
431.181	0.19
431.384	0.17
431.587	0.15
431.79	0.14
431.993	0.16
432.196	0.16
432.399	0.14
432.602	0.21
432.805	0.13
433.008	0.16
433.211	0.14
433.414	0.22
433.616	0.17
433.819	0.2
434.022	0.1
434.225	0.31
434.428	0.17
434.631	0.31
434.833	0.1
435.036	0.19
435.239	0.24
435.442	0.2
435.645	0.14
435.847	0.17
436.05	0.19
436.253	0.16
436.455	0.13
436.658	0.19
436.861	0.27
437.063	0.17
437.266	0.17
437.468	0.19
437.671	0.32
437.874	0.16
438.076	0.16
438.279	0.13
438.481	0.18
438.684	0.15
438.886	0.21
439.089	0.11
439.291	0.2
439.494	0.21
439.696	0.17
439.899	0.19
440.101	0.17
440.303	0.19
440.506	0.2
440.708	0.19
440.91	0.27
441.113	0.14
441.315	0.22
441.517	0.13
441.72	0.26
441.922	0.17
442.124	0.18
442.326	0.21
442.529	0.3
442.731	0.18
442.933	0.27
443.135	0.15
443.337	0.16
443.539	0.17
443.742	0.16
443.944	0.25
444.146	0.16
444.348	0.18
444.55	0.19
444.752	0.2
444.954	0.14
445.156	0.19
445.358	0.2
445.56	0.24
445.762	0.21
445.964	0.24
446.166	0.18
446.368	0.15
446.57	0.26
446.772	0.14
446.974	0.21
447.175	0.19
447.377	0.17
447.579	0.17
447.781	0.15
447.983	0.3
448.184	0.2
448.386	0.23
448.588	0.12
448.79	0.22
448.991	0.19
449.193	0.16
449.395	0.18
449.597	0.23
449.798	0.19
450	0.24
450.202	0.19
450.403	0.22
450.605	0.29
450.806	0.26
451.008	0.1
451.21	0.2
451.411	0.25
451.613	0.16
451.814	0.24
452.016	0.27
452.217	0.19
452.419	0.29
452.62	0.23
452.821	0.25
453.023	0.27
453.224	0.24
453.426	0.18
453.627	0.25
453.828	0.26
454.03	0.26
454.231	0.24
454.432	0.2
454.634	0.32
454.835	0.24
455.036	0.17
455.238	0.33
455.439	0.31
455.64	0.18
455.841	0.18
456.042	0.34
456.244	0.27
456.445	0.15
456.646	0.16
456.847	0.26
457.048	0.33
457.249	0.32
457.45	0.43
457.651	0.23
457.852	0.28
458.054	0.28
458.255	0.25
458.456	0.25
458.657	0.27
458.858	0.23
459.058	0.24
459.259	0.29
459.46	0.16
459.661	0.2
459.862	0.36
460.063	0.23
460.264	0.28
460.465	0.16
460.666	0.35
460.866	0.19
461.067	0.25
461.268	0.23
461.469	0.23
461.67	0.28
461.87	0.23
462.071	0.29
462.272	0.21
462.473	0.3
462.673	0.31
462.874	0.23
463.075	0.29
463.275	0.27
463.476	0.31
463.676	0.26
463.877	0.29
464.078	0.21
464.278	0.35
464.479	0.32
464.679	0.36
464.88	0.31
465.08	0.33
465.281	0.3
465.481	0.28
465.682	0.3
465.882	0.33
466.083	0.33
466.283	0.3
466.483	0.29
466.684	0.28
466.884	0.31
467.085	0.32
467.285	0.35
467.485	0.28
467.686	0.35
467.886	0.28
468.086	0.34
468.286	0.33
468.487	0.36
468.687	0.32
468.887	0.33
469.087	0.38
469.287	0.37
469.488	0.31
469.688	0.34
469.888	0.39
470.088	0.39
470.288	0.46
470.488	0.41
470.688	0.34
470.888	0.41
471.088	0.31
471.288	0.44
471.488	0.39
471.688	0.42
471.888	0.4
472.088	0.45
472.288	0.47
472.488	0.35
472.688	0.39
472.888	0.5
473.088	0.44
473.288	0.44
473.488	0.46
473.688	0.55
473.887	0.44
474.087	0.48
474.287	0.51
474.487	0.48
474.687	0.53
474.886	0.45
475.086	0.51
475.286	0.53
475.486	0.58
475.685	0.5
475.885	0.51
476.085	0.52
476.284	0.58
476.484	0.55
476.684	0.58
476.883	0.66
477.083	0.6
477.282	0.61
477.482	0.65
477.681	0.67
477.881	0.62
478.08	0.63
478.28	0.59
478.479	0.67
478.679	0.72
478.878	0.67
479.078	0.67
479.277	0.71
479.477	0.72
479.676	0.74
479.875	0.77
480.075	0.73
480.274	0.79
480.473	0.79
480.673	0.78
480.872	0.86
481.071	0.83
481.271	0.85
481.47	0.86
481.669	0.85
481.868	0.87
482.067	0.88
482.267	0.91
482.466	0.89
482.665	0.9
482.864	0.93
483.063	0.97
483.262	1.01
483.461	1.04
483.661	1.09
483.86	1.07
484.059	1.1
484.258	1.09
484.457	1.15
484.656	1.13
484.855	1.22
485.054	1.12
485.253	1.17
485.452	1.21
485.651	1.23
485.849	1.26
486.048	1.28
486.247	1.31
486.446	1.37
486.645	1.36
486.844	1.37
487.043	1.39
487.241	1.43
487.44	1.46
487.639	1.52
487.838	1.55
488.037	1.56
488.235	1.68
488.434	1.61
488.633	1.6
488.831	1.74
489.03	1.76
489.229	1.78
489.427	1.81
489.626	1.89
489.825	1.91
490.023	1.94
490.222	1.92
490.42	2.02
490.619	2.05
490.817	2.05
491.016	2.09
491.214	2.17
491.413	2.2
491.611	2.19
491.81	2.23
492.008	2.3
492.207	2.38
492.405	2.41
492.604	2.37
492.802	2.49
493	2.57
493.199	2.58
493.397	2.68
493.595	2.75
493.794	2.73
493.992	2.84
494.19	2.85
494.388	2.93
494.587	2.96
494.785	2.98
494.983	2.94
495.181	3.13
495.379	3.19
495.578	3.32
495.776	3.25
495.974	3.28
496.172	3.37
496.37	3.54
496.568	3.63
496.766	3.64
496.964	3.77
497.162	3.77
497.36	3.88
497.558	3.96
497.756	3.99
497.954	4.03
498.152	4.17
498.35	4.31
498.548	4.24
498.746	4.31
498.944	4.39
499.142	4.46
499.34	4.65
499.538	4.81
499.736	4.74
499.933	4.88
500.131	4.91
500.329	5.18
500.527	5.17
500.725	5.32
500.922	5.42
501.12	5.5
501.318	5.63
501.516	5.66
501.713	5.86
501.911	5.88
502.109	5.87
502.306	6.13
502.504	6.05
502.701	6.24
502.899	6.41
503.097	6.73
503.294	6.58
503.492	6.87
503.689	6.94
503.887	6.98
504.084	7.14
504.282	7.22
504.479	7.23
504.677	7.51
504.874	7.61
505.072	7.57
505.269	7.98
505.466	8.03
505.664	8.1
505.861	8.14
506.059	8.34
506.256	8.48
506.453	8.63
506.651	8.84
506.848	9.09
507.045	9.06
507.242	9.15
507.44	9.34
507.637	9.56
507.834	9.48
508.031	9.88
508.229	9.87
508.426	9.77
508.623	10.16
508.82	10.41
509.017	10.38
509.214	10.42
509.411	10.72
509.608	10.76
509.805	11.08
510.003	11.13
510.2	11.21
510.397	11.58
510.594	11.47
510.791	11.65
510.988	11.77
511.184	11.77
511.381	11.66
511.578	12.02
511.775	12.36
511.972	12.26
512.169	12.48
512.366	12.59
512.563	12.86
512.76	13.04
512.956	13.13
513.153	13.08
513.35	13.02
513.547	13.14
513.744	13.39
513.94	13.5
514.137	13.74
514.334	13.69
514.53	13.88
514.727	14.38
514.924	14.03
515.12	14.19
515.317	14.31
515.514	14.15
515.71	14.14
515.907	14.56
516.103	14.58
516.3	14.41
516.497	14.63
516.693	14.66
516.89	14.74
517.086	15.01
517.283	14.91
517.479	14.64
517.676	15.14
517.872	15.23
518.068	15.13
518.265	15.11
518.461	14.88
518.658	15.19
518.854	15.14
519.05	15.39
519.247	15.54
519.443	15.3
519.639	15.46
519.836	15.19
520.032	15.07
520.228	15.37
520.424	15.15
520.621	15.25
520.817	15.31
521.013	15.13
521.209	15.43
521.405	15.38
521.601	15.27
521.798	15.01
521.994	15.01
522.19	14.87
522.386	14.87
522.582	14.99
522.778	15.16
522.974	14.83
523.17	14.79
523.366	14.66
523.562	14.64
523.758	14.55
523.954	14.19
524.15	14.58
524.346	14.44
524.542	14.33
524.738	14.16
524.934	14.3
525.129	14.11
525.325	13.8
525.521	13.73
525.717	13.96
525.913	13.6
526.109	13.53
526.304	13.68
526.5	13.47
526.696	13.35
526.892	13.18
527.087	13.42
527.283	13.15
527.479	12.9
527.674	12.57
527.87	12.77
528.066	12.64
528.261	12.58
528.457	12.26
528.653	12.48
528.848	12.3
529.044	12.28
529.239	11.88
529.435	11.77
529.63	11.59
529.826	11.54
530.021	11.38
530.217	11.41
530.412	11.16
530.608	11.15
530.803	11.04
530.999	10.77
531.194	10.91
531.389	10.78
531.585	10.71
531.78	10.71
531.975	10.45
532.171	10.32
532.366	10.23
532.561	10.11
532.757	9.98
532.952	10.06
533.147	9.7
533.342	9.77
533.538	9.55
533.733	9.67
533.928	9.18
534.123	9.32
534.318	9.22
534.513	9
534.709	9.13
534.904	8.96
535.099	8.92
535.294	8.79
535.489	8.74
535.684	8.54
535.879	8.48
536.074	8.43
536.269	8.36
536.464	8.28
536.659	8.08
536.854	7.99
537.049	8
537.244	7.86
537.439	7.77
537.634	7.68
537.828	7.7
538.023	7.58
538.218	7.44
538.413	7.36
538.608	7.23
538.803	7.24
538.997	7.09
539.192	7.05
539.387	6.92
539.582	6.9
539.776	6.76
539.971	6.78
540.166	6.77
540.36	6.6
540.555	6.64
540.75	6.51
540.944	6.42
541.139	6.35
541.334	6.23
541.528	6.21
541.723	6.22
541.917	6.12
542.112	5.95
542.306	5.76
542.501	5.79
542.695	5.79
542.89	5.72
543.084	5.65
543.279	5.58
543.473	5.58
543.668	5.54
543.862	5.32
544.056	5.33
544.251	5.32
544.445	5.28
544.64	5.19
544.834	4.95
545.028	4.86
545.222	4.97
545.417	5.06
545.611	4.92
545.805	4.81
546	4.65
546.194	4.71
546.388	4.67
546.582	4.58
546.776	4.47
546.97	4.52
547.165	4.47
547.359	4.38
547.553	4.28
547.747	4.25
547.941	4.32
548.135	4.16
548.329	4.1
548.523	4.1
548.717	3.99
548.911	3.98
549.105	3.92
549.299	3.93
549.493	3.85
549.687	3.77
549.881	3.73
550.075	3.65
550.269	3.54
550.463	3.62
550.657	3.5
550.85	3.52
551.044	3.39
551.238	3.41
551.432	3.36
551.626	3.33
551.82	3.31
552.013	3.19
552.207	3.21
552.401	3.2
552.594	3.08
552.788	3.03
552.982	2.99
553.176	2.93
553.369	2.99
553.563	2.94
553.756	2.78
553.95	2.82
554.144	2.81
554.337	2.79
554.531	2.67
554.724	2.68
554.918	2.64
555.111	2.63
555.305	2.59
555.498	2.54
555.692	2.55
555.885	2.48
556.079	2.45
556.272	2.41
556.466	2.38
556.659	2.36
556.852	2.35
557.046	2.27
557.239	2.23
557.432	2.19
557.626	2.22
557.819	2.24
558.012	2.14
558.206	2.16
558.399	2.08
558.592	2.07
558.785	1.99
558.979	2.05
559.172	1.99
559.365	1.98
559.558	1.9
559.751	1.88
559.944	1.94
560.138	1.85
560.331	1.86
560.524	1.82
560.717	1.8
560.91	1.75
561.103	1.75
561.296	1.7
561.489	1.73
561.682	1.68
561.875	1.7
562.068	1.7
562.261	1.62
562.454	1.67
562.647	1.61
562.84	1.57
563.032	1.53
563.225	1.54
563.418	1.5
563.611	1.48
563.804	1.47
563.997	1.38
564.19	1.34
564.382	1.46
564.575	1.39
564.768	1.35
564.961	1.35
565.153	1.29
565.346	1.32
565.539	1.36
565.731	1.29
565.924	1.31
566.117	1.31
566.309	1.24
566.502	1.17
566.695	1.21
566.887	1.24
567.08	1.18
567.272	1.17
567.465	1.13
567.657	1.12
567.85	1.13
568.042	1.12
568.235	1.13
568.427	1.06
568.62	1.05
568.812	1.07
569.005	1.04
569.197	0.98
569.389	1.04
569.582	1.01
569.774	1.03
569.966	0.97
570.159	0.93
570.351	0.97
570.543	0.92
570.736	0.92
570.928	0.89
571.12	0.91
571.312	0.88
571.505	0.84
571.697	0.9
571.889	0.82
572.081	0.86
572.273	0.82
572.465	0.88
572.658	0.8
572.85	0.81
573.042	0.79
573.234	0.79
573.426	0.81
573.618	0.76
573.81	0.76
574.002	0.79
574.194	0.79
574.386	0.7
574.578	0.65
574.77	0.68
574.962	0.73
575.154	0.65
575.346	0.67
575.538	0.67
575.729	0.64
575.921	0.69
576.113	0.64
576.305	0.66
576.497	0.63
576.689	0.63
576.88	0.6
577.072	0.62
577.264	0.59
577.456	0.59
577.647	0.53
577.839	0.61
578.031	0.61
578.223	0.56
578.414	0.53
578.606	0.56
578.798	0.53
578.989	0.53
579.181	0.52
579.372	0.54
579.564	0.51
579.755	0.54
579.947	0.52
580.139	0.53
580.33	0.45
580.522	0.47
580.713	0.43
580.905	0.48
581.096	0.5
581.287	0.48
581.479	0.46
581.67	0.5
581.862	0.44
582.053	0.46
582.244	0.4
582.436	0.44
582.627	0.42
582.818	0.4
583.01	0.36
583.201	0.44
583.392	0.44
583.583	0.42
583.775	0.41
583.966	0.37
584.157	0.4
584.348	0.41
584.54	0.34
584.731	0.43
584.922	0.37
585.113	0.32
585.304	0.42
585.495	0.41
585.686	0.39
585.877	0.39
586.068	0.39
586.259	0.38
586.45	0.36
586.641	0.32
586.832	0.32
587.023	0.34
587.214	0.33
587.405	0.35
587.596	0.31
587.787	0.34
587.978	0.38
588.169	0.31
588.36	0.29
588.551	0.32
588.742	0.3
588.932	0.3
589.123	0.31
589.314	0.33
589.505	0.34
589.696	0.3
589.886	0.28
590.077	0.31
590.268	0.31
590.458	0.24
590.649	0.24
590.84	0.34
591.03	0.26
591.221	0.25
591.412	0.23
591.602	0.3
591.793	0.29
591.984	0.22
592.174	0.23
592.365	0.33
592.555	0.24
592.746	0.29
592.936	0.26
593.127	0.27
593.317	0.27
593.508	0.24
593.698	0.2
593.889	0.28
594.079	0.25
594.269	0.2
594.46	0.23
594.65	0.22
594.84	0.22
595.031	0.2
595.221	0.2
595.411	0.16
595.602	0.24
595.792	0.22
595.982	0.2
596.172	0.31
596.363	0.2
596.553	0.22
596.743	0.23
596.933	0.19
597.123	0.26
597.314	0.19
597.504	0.19
597.694	0.23
597.884	0.22
598.074	0.2
598.264	0.18
598.454	0.21
598.644	0.19
598.834	0.19
599.024	0.15
599.214	0.2
599.404	0.23
599.594	0.18
599.784	0.16
599.974	0.21
600.164	0.21
600.354	0.15
600.544	0.13
600.734	0.19
600.924	0.25
601.114	0.16
601.303	0.17
601.493	0.17
601.683	0.18
601.873	0.17
602.063	0.12
602.252	0.21
602.442	0.11
602.632	0.14
602.821	0.15
603.011	0.2
603.201	0.14
603.39	0.13
603.58	0.13
603.77	0.17
603.959	0.18
604.149	0.17
604.339	0.13
604.528	0.2
604.718	0.16
604.907	0.16
605.097	0.15
605.286	0.1
605.476	0.19
605.665	0.14
605.855	0.16
606.044	0.21
606.234	0.16
606.423	0.14
606.612	0.14
606.802	0.15
606.991	0.18
607.181	0.14
607.37	0.11
607.559	0.12
607.749	0.08
607.938	0.14
608.127	0.13
608.316	0.13
608.506	0.13
608.695	0.12
608.884	0.11
609.073	0.14
609.263	0.14
609.452	0.17
609.641	0.14
609.83	0.13
610.019	0.13
610.208	0.08
610.397	0.16
610.586	0.18
610.775	0.1
610.965	0.12
611.154	0.11
611.343	0.14
611.532	0.12
611.721	0.11
611.91	0.1
612.099	0.11
612.287	0.12
612.476	0.1
612.665	0.15
612.854	0.11
613.043	0.17
613.232	0.1
613.421	0.06
613.61	0.15
613.798	0.1
613.987	0.15
614.176	0.11
614.365	0.14
614.554	0.15
614.742	0.14
614.931	0.1
615.12	0.16
615.309	0.11
615.497	0.14
615.686	0.08
615.875	0.1
616.063	0.13
616.252	0.12
616.44	0.11
616.629	0.09
616.818	0.11
617.006	0.13
617.195	0.1
617.383	0.13
617.572	0.12
617.76	0.1
617.949	0.12
618.137	0.15
618.326	0.14
618.514	0.08
618.703	0.1
618.891	0.15
619.079	0.05
619.268	0.14
619.456	0.05
619.644	0.14
619.833	0.12
620.021	0.09
620.209	0.06
620.398	0.14
620.586	0.11
620.774	0.13
620.962	0.12
621.151	0.17
621.339	0.09
621.527	0.05
621.715	0.08
621.903	0.08
622.092	0.08
622.28	0.13
622.468	0.11
622.656	0.09
622.844	0.13
623.032	0.08
623.22	0.08
623.408	0.1
623.596	0.11
623.784	0.15
623.972	0.08
624.16	0.07
624.348	0.18
624.536	0.12
624.724	0.09
624.912	0.13
625.1	0.13
625.288	0.06
625.476	0.08
625.664	0.15
625.851	0.09
626.039	0.09
626.227	0.12
626.415	0.12
626.603	0.08
626.79	0.12
626.978	0.1
627.166	0.1
627.354	0.13
627.541	0.08
627.729	0.06
627.917	0.13
628.104	0.12
628.292	0.12
628.48	0.1
628.667	0.13
628.855	0.15
629.042	0.12
629.23	0.08
629.418	0.11
629.605	0.1
629.793	0.08
629.98	0.07
630.168	0.09
630.355	0.11
630.543	0.12
630.73	0.08
630.917	0.1
631.105	0.13
631.292	0.08
631.48	0.09
631.667	0.17
631.854	0.09
632.042	0.08
632.229	0.04
632.416	0.09
632.604	0.09
632.791	0.03
632.978	0.14
633.165	0.1
633.353	0.17
633.54	0.13
633.727	0.03
633.914	0.08
634.101	0.02
634.289	0.11
634.476	0.05
634.663	0.05
634.85	0.14
635.037	0.06
635.224	0.03
635.411	0.13
635.598	0.13
635.785	0.08
635.972	0.09
636.159	0.13
636.346	0.09
636.533	0.09
636.72	0.11
636.907	0.07
637.094	0.12
637.281	0.11
637.468	0.12
637.655	0.08
637.842	0.1
638.029	0.07
638.215	0.13
638.402	0.08
638.589	0.07
638.776	0.08
638.963	0.06
639.149	0.14
639.336	0.15
639.523	0.08
639.709	0.09
639.896	0.08
640.083	0.18
640.27	0.12
640.456	0.09
640.643	0.07
640.829	0.02
641.016	0.09
641.203	0.06
641.389	0.12
641.576	0.13
641.762	0.07
641.949	0.08
642.135	0.13
642.322	0.1
642.508	0.02
642.695	0.08
642.881	0.05
643.068	0.08
643.254	0.09
643.441	0.12
643.627	0.09
643.813	0.02
644	0.11
644.186	0.08
644.372	0.08
644.559	0.14
644.745	0.1
644.931	0.05
645.118	0.08
645.304	0.09
645.49	0.05
645.676	0.05
645.862	0.11
646.049	0.13
646.235	0.09
646.421	0.17
646.607	0.16
646.793	0.11
646.979	0.04
647.165	0.09
647.352	0.08
647.538	0.12
647.724	0.08
647.91	0.1
648.096	0.11
648.282	0.13
648.468	0.06
648.654	0.11
648.84	0.11
649.026	0.11
649.212	0.11
649.397	0.05
649.583	0.05
649.769	0.1
649.955	0.13
650.141	0.09
650.327	0.1
650.513	0.03
650.698	0.1
650.884	0.04
651.07	0.13
651.256	0.1
651.442	0.07
651.627	0.08
651.813	0.11
651.999	0.08
652.184	0.08
652.37	0.08
652.556	0.07
652.741	0.17
652.927	0.04
653.113	0.07
653.298	0.09
653.484	0.06
653.669	0.05
653.855	0.08
654.04	0.1
654.226	0.06
654.412	0.05
654.597	0.05
654.782	0.09
654.968	0.1
655.153	0.09
655.339	0.06
655.524	0.04
655.71	0.11
655.895	0.05
656.08	0.06
656.266	0.14
656.451	0.06
656.636	0.05
656.822	0.1
657.007	0.06
657.192	0.09
657.378	0.03
657.563	0.06
657.748	0.1
657.933	0.11
658.118	0.09
658.304	0.06
658.489	0.12
658.674	0.12
658.859	0.04
659.044	0.09
659.229	0.11
659.414	0.08
659.599	0.07
659.785	0.02
659.97	0.05
660.155	0.09
660.34	0.09
660.525	0.08
660.71	0.07
660.895	0.13
661.08	0.05
661.264	0.07
661.449	0.15
661.634	0.17
661.819	0.1
662.004	0.12
662.189	0.01
662.374	0.06
662.559	0.04
662.743	0.02
662.928	0.11
663.113	0.05
663.298	0.02
663.483	0.07
663.667	0.13
663.852	0.04
664.037	0.17
664.221	0.03
664.406	0.1
664.591	0.1
664.775	0.08
664.96	0.05
665.145	0.12
665.329	0.12
665.514	0.1
665.698	0.07
665.883	0.02
666.068	0.15
666.252	0.09
666.437	0.09
666.621	0.07
666.806	0.12
666.99	0.1
667.174	0.03
667.359	0.16
667.543	0.07
667.728	0.09
667.912	0.04
668.096	0.14
668.281	0.05
668.465	0.12
668.649	0.09
668.834	0.04
669.018	0.1
669.202	0.1
669.387	0.09
669.571	0.11
669.755	0.06
669.939	0.08
670.124	0.1
670.308	0.12
670.492	0.12
670.676	0.12
670.86	0.11
671.044	0.06
671.228	0.14
671.413	0.04
671.597	0.08
671.781	0.1
671.965	0.15
672.149	0.12
672.333	0.12
672.517	0.08
672.701	0.13
672.885	0.09
673.069	0.02
673.253	0.15
673.437	0.09
673.621	0.08
673.804	0.07
673.988	0.16
674.172	0.11
674.356	0.04
674.54	0.14
674.724	0.19
674.908	0.13
675.091	0.12
675.275	0.11
675.459	0.11
675.643	0.1
675.826	0.15
676.01	0.13
676.194	0.07
676.377	0.13
676.561	0.14
676.745	0.09
676.928	0.14
677.112	0.21
677.296	0.07
677.479	0.08
677.663	0.09
677.846	0.17
678.03	0.14
678.213	0.09
678.397	0.14
678.58	0.08
678.764	0.12
678.947	0.09
679.131	0.13
679.314	0.16
679.498	0.1
679.681	0.11
679.865	0.18
680.048	0.12
680.231	0.1
680.415	0.08
680.598	0.09
680.781	0.09
680.965	0.08
681.148	0.14
681.331	0.04
681.514	0.15
681.698	0.11
681.881	0.13
682.064	0.15
682.247	0.12
682.43	0.05
682.614	0.11
682.797	0.18
682.98	0.12
683.163	0.11
683.346	0.1
683.529	0.1
683.712	0.08
683.895	0.15
684.078	0.03
684.261	0.13
684.444	0.11
684.627	0.16
684.81	0.09
684.993	0.13
685.176	0.14
685.359	0.09
685.542	0.14
685.725	0.2
685.908	0.08
686.091	0.07
686.274	0.15
686.457	0.14
686.639	0.13
686.822	0.14
687.005	0.14
687.188	0.1
687.371	0.15
687.553	0.16
687.736	0.13
687.919	0.19
688.102	0.16
688.284	0.08
688.467	0.08
688.65	0.12
688.832	0.11
689.015	0.09
689.197	0.01
689.38	0.19
689.563	0.19
689.745	0.04
689.928	0.05
690.11	0.13
690.293	0.13
690.475	-0.01
690.658	0.09
690.84	0.09
691.023	0.13
691.205	0.06
691.388	0.13
691.57	0.12
691.752	0.17
691.935	0.01
692.117	0.08
692.3	0.16
692.482	0.13
692.664	0.08
692.847	0.12
693.029	0.12
693.211	0.12
693.393	0.06
693.576	0.04
693.758	0.12
693.94	0.02
694.122	0.1
694.304	0.11
694.487	0.11
694.669	0.2
694.851	0.08
695.033	0.11
695.215	0.06
695.397	0.04
695.579	0.16
695.761	0.09
695.943	0.07
696.125	0.19
696.308	0.15
696.49	0.02
696.671	0.2
696.853	0.1
697.035	0.28
697.217	0.11
697.399	0.14
697.581	0.12
697.763	0.11
697.945	0.09
698.127	0.12
698.309	0.16
698.491	0.13
698.672	0.15
698.854	0.2
699.036	0.25
699.218	0.13
699.399	0.17
699.581	0.12
699.763	0.11
699.945	0.05
700.126	0.06
700.308	0.11
700.49	0.07
700.671	0.05
700.853	0.08
701.035	0.08
701.216	0.08
701.398	0.13
701.579	0.09
701.761	0.1
701.943	0.13
702.124	0.05
702.306	0.09
702.487	0.2
702.669	0.11
702.85	0.07
703.031	0.1
703.213	0.26
703.394	0.18
703.576	0.1
703.757	0.25
703.938	0.15
704.12	0.25
704.301	0.15
704.483	0.07
704.664	0.1
704.845	0.18
705.026	0.13
705.208	0.12
705.389	0.13
705.57	0.12
705.751	0.14
705.933	0.11
706.114	0.17
706.295	0.16
706.476	0.09
706.657	0.24
706.838	0.21
707.02	0.14
707.201	0.1
707.382	0.07
707.563	0.13
707.744	0.09
707.925	-0.01
708.106	0.03
708.287	0.16
708.468	0.25
708.649	0.11
708.83	0.17
709.011	0.14
709.192	0.15
709.373	0.06
709.554	0.11
709.734	0.13
709.915	0.29
710.096	0.2
710.277	-0.01
710.458	0.11
710.639	0.16
710.819	0.05
711	0.08
711.181	0.15
711.362	0.2
711.542	0.13
711.723	0.04
711.904	0.21
712.085	0.19
712.265	0.12
712.446	0
712.627	0.06
712.807	0.13
712.988	0.1
713.168	0.05
713.349	0.08
713.53	0
713.71	0.08
713.891	0.09
714.071	0.13
714.252	0.11
714.432	0.1
714.613	0.07
714.793	0.19
714.974	0.14
715.154	0.18
715.334	0.11
715.515	0.16
715.695	0.03
715.876	0.11
716.056	0.08
716.236	0.16
716.417	0.06
716.597	0.09
716.777	0.21
716.957	0.14
717.138	0.09
717.318	0.11
717.498	0.01
717.678	0.11
717.859	0.08
718.039	0.06
718.219	0.11
718.399	0.21
718.579	0.01
718.759	0.11
718.939	0.13
719.12	0.16
719.3	0.11
719.48	0
719.66	0.01
719.84	0.27
720.02	0.11
720.2	0.09
720.38	0.13
720.56	0.3
720.74	0.03
720.92	0.13
721.1	0.23
721.279	0.18
721.459	0.06
721.639	0.07
721.819	0.06
721.999	0.04
722.179	0.21
722.359	0.01
722.538	0.11
722.718	0.11
722.898	0.13
723.078	0.12
723.257	0.07
723.437	0.17
723.617	0.1
723.797	0.09
723.976	0.1
724.156	0.15
724.336	0.15
724.515	0.24
724.695	-0.01
724.874	0.16
725.054	0.2
725.234	0.13
725.413	0.15
725.593	0.15
725.772	0.05
725.952	0.1
726.131	0.16
726.311	0.09
726.49	0.12
726.67	0.02
726.849	0.06
727.028	0.09
727.208	0.13
727.387	0.17
727.567	0.02
727.746	0.08
727.925	0.05
728.105	0.01
728.284	0.11
728.463	0.09
728.643	0.14
728.822	0.1
729.001	0.11
729.18	0.06
729.359	0.2
729.539	0.15
729.718	0.11
729.897	0.24
730.076	0.04
730.255	0.07
730.434	0.17
730.614	0.16
730.793	0.14
730.972	0.07
731.151	0.16
731.33	0.15
731.509	0.19
731.688	0.06
731.867	0.08
732.046	-0.02
732.225	0.32
732.404	-0.01
732.583	0.01
732.762	0.15
732.941	0.21
733.12	0.13
733.298	0.13
733.477	0.22
733.656	0.06
733.835	-0
734.014	0.21
734.193	0.15
734.371	0.13
734.55	0.21
734.729	0.12
734.908	0.19
735.086	0.19
735.265	0.27
735.444	0.07
735.623	0.13
735.801	0
735.98	0.16
736.159	0.26
736.337	0.21
736.516	0.06
736.694	0.08
736.873	0.09
737.052	0.33
737.23	0.25
737.409	0.1
737.587	0.22
737.766	-0.05
737.944	-0.01
738.123	0.27
738.301	0.15
738.479	0.11
738.658	0.16
738.836	-0.05
739.015	0.22
739.193	0.31
739.371	0.02
739.55	0.06
739.728	-0.04
739.906	0.26
740.085	0.31
740.263	0.13
740.441	-0.06
740.62	0.4
740.798	0.24
740.976	0.15
741.154	-0.03
741.332	0.25
741.511	0.07
741.689	0.09
741.867	0.17
742.045	0.2
742.223	0.19
742.401	0.08
742.579	0.1
742.757	0.19
742.935	0.07
743.114	0.12
743.292	0.15
743.47	0.12
743.648	0.2
743.826	-0.06
744.004	0.22
744.181	0.29
744.359	-0
744.537	0.14
744.715	0.05
744.893	0.2
745.071	0.18
745.249	0.08
745.427	0.15
745.605	0.31
745.782	0.15
745.96	0.28
746.138	0.24
746.316	0.31
746.493	0.15
746.671	0.17
746.849	0.11
747.027	0.36
747.204	0.1
747.382	0.22
747.56	-0.02
747.737	0.19
747.915	0.11
748.093	0.16
748.27	0.12
748.448	0.16
748.625	0.05
748.803	0.01
748.98	0.15
749.158	0.09
749.335	0.13
749.513	0.13
749.69	0.07
749.868	0.08
750.045	0.17
750.223	0.14
750.4	-0.01
750.578	0.36
750.755	0.07
750.932	0.02
751.11	0.24
751.287	-0.05
751.464	0.25
751.642	0.03
751.819	0.13
751.996	0.02
752.173	0.04
752.351	0.05
752.528	0.16
752.705	0.1
752.882	0.01
753.06	0.19
753.237	0.14
753.414	0.31
753.591	0.34
753.768	0.1
753.945	0.05
754.122	0.01
754.299	0.17
754.476	0.02
754.654	0.12
754.831	0.21
755.008	0.19
755.185	0.05
755.362	-0.03
755.539	0.02
755.716	-0.05
755.892	0.14
756.069	0
756.246	0.05
756.423	0.03
756.6	0.27
756.777	0.15
756.954	0.29
757.131	0.08
757.307	0.08
757.484	-0.04
757.661	0.23
757.838	0.25
758.015	-0.04
758.191	0.22
758.368	0.17
758.545	0.19
758.721	0.14
758.898	-0.08
759.075	0.14
759.251	0.21
759.428	0.16
759.605	-0.01
759.781	0.12
759.958	0.2
760.134	0.18
760.311	-0.02
760.488	0.31
760.664	0.3
760.841	0.11
761.017	0.04
761.194	0.1
761.37	0.27
761.547	0.13
761.723	0.15
761.899	0.18
762.076	0.07
762.252	0.03
762.429	0.05
762.605	0.32
762.781	0.18
762.958	0.2
763.134	0.04
763.31	0.05
763.486	0.26
763.663	-0.12
763.839	0.23
764.015	-0.06
764.191	0.08
764.368	0.11
764.544	0.05
764.72	0.16
764.896	0.15
765.072	0.11
765.248	0.2
765.425	0.08
765.601	0.15
765.777	0.11
765.953	-0.15
766.129	0.1
766.305	-0
766.481	0.11
766.657	-0.03
766.833	0.27
767.009	0.07
767.185	0.05
767.361	0.07
767.537	-0.05
767.713	0.26
767.889	-0.01
768.065	0.1
768.24	-0.09
768.416	0.19
768.592	0.09
768.768	0.13
768.944	0.17
769.12	-0.07
769.295	0.08
769.471	0.09
769.647	0.19
769.823	0.31
769.998	0.15
770.174	0.04
770.35	0.43
770.525	0.46
770.701	0.15
770.877	0.05
771.052	0.05
771.228	0.23
771.403	0.16
771.579	0.22
771.755	0.49
771.93	0.05
772.106	0.01
772.281	-0.14
772.457	0.1
772.632	0.04
772.808	0.05
772.983	0.09
773.159	-0.18
773.334	0.16
773.509	0.08
773.685	0.09
773.86	0.51
774.036	0.3
774.211	0.1
774.386	0.09
774.562	0.12
774.737	0.25
774.912	-0.03
775.087	0.08
775.263	0.02
775.438	0.2
775.613	0.02
775.788	0.06
775.964	0.22
776.139	0.42
776.314	0.02
776.489	0.32
776.664	-0.01
776.839	0.21
777.014	0.33
777.19	0.32
777.365	0.25
777.54	0.21
777.715	0.09
777.89	0.13
778.065	0.19
778.24	0.11
778.415	0.31
778.59	-0.01
778.765	-0.02
778.94	0.29
779.115	0.09
779.289	0.08
779.464	0.03
779.639	0.1
779.814	0.01
779.989	-0.02
780.164	0.34
780.339	0.3
780.513	0.08
780.688	-0.03
780.863	0.2
781.038	0.3
781.212	-0.04
781.387	0.17
781.562	0.39
781.737	0.19
781.911	0.15
782.086	0.03
782.261	0.11
782.435	0.44
782.61	0.12
782.784	0.14
782.959	0.32
783.134	0.04
783.308	-0.08
783.483	0.24
783.657	0.26
783.832	0.29
784.006	-0.21
784.181	0.2
784.355	0.42
784.53	-0.16
784.704	0.07
784.878	0.43
785.053	0.25
785.227	0.22
785.402	0.45
785.576	-0.1
785.75	0.19
785.925	0.15
786.099	0.22
786.273	0.19
786.448	0.32
786.622	0.25
786.796	0.31
786.97	0.17
787.145	0.59
787.319	-0.33
787.493	0.11
787.667	0.01
787.841	0.28
788.015	0.55
788.19	0.07
788.364	0.25
788.538	0.34
788.712	0.22
788.886	0.09
789.06	0.35
789.234	0.29
789.408	0.06
789.582	0.03
789.756	0.07
789.93	-0.17
790.104	0.12
790.278	0.13
790.452	-0.14
790.626	0.15
790.8	0.04
790.973	0.26
791.147	0.4
791.321	0.44
791.495	0.35
791.669	0.1
791.843	0.3
792.016	0.07
792.19	0.67
792.364	-0.07
792.538	0.81
792.711	0.24
792.885	0.14
793.059	-0.03
793.233	-0.41
793.406	0.3
793.58	-0
793.754	0.1
793.927	0.13
794.101	0.53
794.274	0.04
794.448	0.34
794.622	-0.1
794.795	0.25
794.969	-0
795.142	0.52
795.316	0.1
795.489	0.09
795.663	0.58
795.836	0
796.009	-0.03
796.183	0.55
796.356	0.3
796.53	0.28
796.703	0.18
796.876	0.79
797.05	0.05
797.223	-0.05
797.396	0.32
797.57	0.26
797.743	0.31
797.916	0.25
798.09	0.07
798.263	0.48
798.436	0.39
798.609	0.13
798.782	0.08
798.956	0.16
799.129	0.46
799.302	0.12
799.475	-0.31
799.648	-0
799.821	0.14
799.994	0.3
800.167	-0.21
800.34	0.04
800.514	0.13
800.687	0.09
800.86	-0.07
801.033	-0.09
801.206	0.17
801.379	0.05
801.551	0.52
801.724	0.5
801.897	0.4
802.07	0.17
802.243	-0.46
802.416	0.21
802.589	0.17
802.762	0.46
802.935	0.18
803.107	0.42
803.28	0.57
803.453	0.34
803.626	0.32
803.798	0.29
803.971	0.15
804.144	0.4
804.317	0.41
804.489	0.43
804.662	0.03
804.835	0.17
805.007	0.08
805.18	0.58
805.353	0.28
805.525	-0.05
805.698	0.15
805.87	0.39
806.043	0.38
806.215	-0.13
806.388	-0.06
806.56	0.4
806.733	0.53
806.905	0.21
807.078	0.02
807.25	0.08
807.423	0.44
807.595	0.28
807.768	0.28
807.94	0.62
808.112	0.14
808.285	0.43
808.457	0.16
808.629	-0.02
808.802	0.54
808.974	0.31
809.146	-0.06
809.318	0.15
809.491	0.16
809.663	0.48
809.835	0.06
810.007	0.34
810.18	0.16
810.352	0.01
810.524	0.34
810.696	0.12
810.868	0.47
811.04	-0.1
811.212	0.32
811.384	0.6
811.556	0.44
811.728	0.04
811.901	0.72
812.073	0.18
812.245	0.39
812.417	0.42
812.589	-0.38
812.76	0.35
812.932	0.24
813.104	0.57
813.276	0.28
813.448	0.65
813.62	0.07
813.792	0.16
813.964	0.4
814.136	0.21
814.307	-0.13
814.479	0.26
814.651	0.18
814.823	1.17
814.995	0
815.166	0.08
815.338	-0.07
815.51	-0.21
815.681	1.03
815.853	0.52
816.025	0.21
816.196	0.83
816.368	0.58
816.54	-0.23
816.711	0.23
816.883	0.25
817.054	1.4
817.226	-0.47
817.398	0.39
817.569	0.12
817.741	0.34
817.912	-0.15
818.084	0.18
818.255	0.93
818.426	0.41
818.598	0.28
818.769	0.02
818.941	0.46
819.112	0.79
819.283	0.33
819.455	-0.13
819.626	0.05
819.798	0.65
819.969	0.54
820.14	0.21
820.311	-0.13
820.483	0.6
820.654	0.37
820.825	0.55
820.996	-0.15
821.168	0.06
821.339	0.41
821.51	-0.21
821.681	-0.1
821.852	0.48
822.023	-0.21
822.195	-0.5
822.366	0.78
822.537	0.4
822.708	0.51
822.879	-0.07
823.05	1.04
823.221	0.01
823.392	0.72
823.563	0.04
823.734	0.43
823.905	0.3
824.076	0.34
824.247	-0.26
824.418	0.34
824.589	0.66
824.759	0.21
824.93	0.61
825.101	-0.37
825.272	0.55
825.443	0.74
825.614	0.62
825.784	-0.29
825.955	0.76
826.126	0.77
826.297	0.26
826.467	0.95
826.638	1.17
826.809	-0.65
826.98	0.29
827.15	0.28
827.321	0.62
827.492	1.12
827.662	0.42
827.833	1.12
828.003	0.95
828.174	-0.47
828.345	-0.5
828.515	0.88
828.686	1.13
828.856	0.53
829.027	0.15
829.197	0.39
829.368	0.77
829.538	0.4
829.709	0.05
829.879	0.55
830.049	0.52
830.22	0.47
830.39	-0.03
830.56	0.5
830.731	0.13
830.901	-0.48
831.072	0.34
831.242	0.72
831.412	0.77
831.582	-0.12
831.753	-0.65
831.923	0.96
832.093	0.15
832.263	0.46
832.434	0.12
832.604	-0.02
832.774	0.87
832.944	0.15
833.114	0.24
833.284	0.81
833.454	-0.15
833.624	-0
833.795	-0.84
833.965	1.22
834.135	1.72
834.305	-0.64
834.475	0.04
834.645	0.91
834.815	-0.18
834.985	-0.7
835.155	-0.45
835.325	0.67
835.494	-0.05
835.664	0.54
835.834	-0.22
836.004	0.79
836.174	0.89
836.344	0.24
836.514	-0.59
836.684	-0.09
836.853	0.1
837.023	0.38
837.193	0.07
837.363	0.96
837.532	1.43
837.702	0.48
837.872	-0.32
838.041	0.66
838.211	1.34
838.381	0.08
838.55	0.97
838.72	2.01
838.89	1.45
839.059	0.29
839.229	-0.46
839.398	1.89
839.568	0.14
839.738	0.31
839.907	1.29
840.077	0.24
840.246	0.83
840.416	0.07
840.585	-0.89
840.755	1.25
840.924	0.64
841.093	-0.41
841.263	0.53
841.432	0.09
841.602	0.43
841.771	0.06
841.94	0.35
842.11	1.7
842.279	1.79
842.448	0.12
842.617	-0.8
842.787	1.61
842.956	-0.54
843.125	0.39
843.294	0.61
843.464	0.5
843.633	0.93
843.802	-0.69
843.971	-0.34
844.14	0.6
844.309	1.32
844.479	0.87
844.648	0.51
844.817	-0.14
844.986	1.08
845.155	0.33
845.324	-0.19
845.493	0.64
845.662	-0.72
845.831	0.86
846	0.78
846.169	-0.05
846.338	1.64
846.507	0.77
846.676	0.39
846.844	-0
847.013	1.29
847.182	0.33
847.351	-0.62
847.52	0.28
847.689	0.85
847.858	0.19
848.026	0.36
848.195	0.37
848.364	-0.02
848.533	-0.19
848.701	0.77
848.87	0.76
849.039	1.36
849.207	1.35
849.376	0.5
849.545	2.28
849.713	0.29
849.882	1
850.051	0.73
850.219	0.2
850.388	1.64
850.556	0.17
850.725	-0.12
850.893	0.76
851.062	0.17
851.23	0.66
851.399	0.08
851.567	-0.73
851.736	-0.09
851.904	-0.46
852.073	0.07
852.241	0.73
852.41	0.18
852.578	-0.39
852.746	0.21
852.915	1.78
853.083	0.2
853.251	0.3
853.42	0.01
853.588	1.19
853.756	1.71
853.924	0.95
854.093	0.6
854.261	0.57
854.429	-0.56
854.597	0.56
854.765	-1.12
854.934	1.41
855.102	2.3
855.27	0.66
855.438	0.8
855.606	0.66
855.774	1.65
855.942	-0.62
856.11	-0.89
856.278	1.31
856.446	1.67
856.614	0.14
856.782	-0.34
856.95	2.34
857.118	0.93
857.286	1.39
857.454	0.22
857.622	1.71
857.79	1.58
857.958	-1.44
858.126	0.4
858.294	-1.46
858.462	-0.67
858.629	0
858.797	-0.2
858.965	0.66
859.133	1.3
859.301	-0.42
859.468	1.99
859.636	0.76
859.804	1.84
859.971	1.35
860.139	-0.69
860.307	1.54
860.474	0.36
860.642	0.2
860.81	1.08
860.977	0.56
861.145	1.7
861.313	1.35
861.48	0.54
861.648	1.21
861.815	-0.06
861.983	0.08
862.15	0.08
862.318	0.85
862.485	1.29
862.653	0.16
862.82	-0.19
862.988	2.75
863.155	-1.17
863.322	0.38
863.49	-0.6
863.657	0.56
863.824	2.38
863.992	1.04
864.159	1.02
864.326	2.08
864.494	-0.79
864.661	3.64
864.828	-0.81
864.996	1.69
865.163	3.63
865.33	-0.6
865.497	-2.57
865.664	-0.08
865.832	-0.5
865.999	1
866.166	1.16
866.333	0.62
866.5	-0.2
866.667	0.5
866.834	0.77
867.001	2.03
867.168	-0.66
867.335	0.78
867.502	-0.7
867.669	1.5
867.836	3.34
868.003	0.33
868.17	1.05
868.337	2.29
868.504	2.38
868.671	-1.07
868.838	-0.31
869.005	0.49
869.172	1.95
869.339	1.67
869.505	1
869.672	0.02
869.839	0.49
870.006	1.75
870.173	-1.93
870.339	1.21
870.506	3.65
870.673	0.5
870.84	2.93
871.006	1.4
871.173	-1.03
871.34	0.28
871.506	-0.51
871.673	1.16
871.839	-0.42
872.006	0.74
872.173	-0.14
872.339	0.57
872.506	3.44
872.672	-0.19
872.839	-1.71
873.005	-0.36
873.172	4.69
873.338	2.36
873.505	1.82
873.671	0.39
873.838	1.28
874.004	-0.98
874.171	-0.83
874.337	2.28
874.503	2.17
874.67	0.39
874.836	1.37
875.002	1.96
875.169	2.53
875.335	1.66
875.501	0.71
875.668	2.47
875.834	1.05
876	1.13
876.166	1.6
876.332	3.42
876.499	2.86
876.665	-0.21
876.831	0.74
876.997	3.21
877.163	2.56
877.329	-0.56
877.495	1.93
877.662	2.19
877.828	0.65
877.994	2.01
878.16	-0.2
878.326	-0.1
878.492	1.54
878.658	2.56
878.824	0.53
878.99	2.7
879.156	0.72
879.322	4.08
879.487	-0.27
879.653	1.35
879.819	0.57
879.985	-0.29
880.151	1.5
880.317	2.1
880.483	0.33
880.648	2.17
880.814	-0.78
880.98	2.41
881.146	-1.06
881.312	0.7
881.477	0.59
881.643	1.15
881.809	2.89
881.974	3.43
882.14	-1.59
882.306	0.23
882.471	3.19
882.637	0.59
882.803	2.61
882.968	1.97
883.134	4.33
883.299	1.19
883.465	0.85
883.63	2.99
883.796	2.82
883.961	1.98
884.127	1.27
884.292	-3.13
884.458	-0.42
884.623	-0.42
