Data from Apollo_Calib_20240827__AbsoluteIrradiance__718__11-07-00-723.txt Node

Date: Wed Aug 28 11:07:00 BST 2024
User: biology
Spectrometer: FLMT08252
Trigger mode: 0
Integration Time (sec): 5.000000E-1
Scans to average: 5
Electric dark correction enabled: true
Nonlinearity correction enabled: false
Boxcar width: 0
XAxis mode: Wavelengths
Number of Pixels in Spectrum: 3648
>>>>>Begin Spectral Data<<<<<
179.588	-0
179.809	-0
180.03	-0
180.251	-0
180.473	-0
180.694	0
180.915	0
181.136	-0
181.357	0
181.578	-0
181.799	-0
182.02	-0
182.241	0
182.462	-0
182.683	0
182.904	-0
183.125	-0
183.346	0
183.567	0
183.788	-0
184.009	-0
184.23	0
184.451	0
184.672	-0
184.892	-0
185.113	0
185.334	0
185.555	-0
185.776	-0
185.996	0
186.217	0
186.438	0
186.659	-0
186.879	0
187.1	0
187.321	-0
187.541	-0
187.762	-0
187.983	0
188.203	-0
188.424	0
188.644	-0
188.865	0
189.086	-0
189.306	-0
189.527	0
189.747	0
189.968	-0
190.188	0
190.409	0
190.629	0
190.849	-0
191.07	-0
191.29	0
191.511	0
191.731	-0
191.951	-0
192.172	-0
192.392	-0
192.612	-0
192.833	0
193.053	0
193.273	0
193.493	0
193.714	-0
193.934	0
194.154	0
194.374	0
194.594	0
194.815	-0
195.035	0
195.255	0
195.475	0
195.695	0
195.915	-0
196.135	0
196.355	0
196.575	0
196.795	0
197.015	-0
197.235	-0
197.455	-0
197.675	0
197.895	0
198.115	-0
198.335	0
198.555	-0
198.775	0
198.995	0
199.214	0
199.434	0
199.654	-0
199.874	-0
200.094	1.18
200.313	0.24
200.533	-0.05
200.753	-0.45
200.973	1.09
201.192	0.77
201.412	-0.43
201.632	-0.23
201.851	0.81
202.071	-0.19
202.291	-0.31
202.51	-0.43
202.73	0.27
202.95	-0.04
203.169	-0.7
203.389	-0.13
203.608	0.55
203.828	-0.19
204.047	-0.47
204.267	0.52
204.486	0.2
204.706	0.51
204.925	-0.13
205.145	0.18
205.364	0.28
205.583	0.4
205.803	-0.22
206.022	-0.06
206.242	0.29
206.461	-0.3
206.68	-0.2
206.9	0.18
207.119	0.92
207.338	0.84
207.557	-0.06
207.777	-0.09
207.996	0.02
208.215	0.64
208.434	-0.12
208.654	-0.04
208.873	0.18
209.092	0.59
209.311	-0.15
209.53	0.15
209.749	-0.23
209.968	-0.16
210.187	0.08
210.407	-0.16
210.626	-0.01
210.845	0.14
211.064	-0.06
211.283	-0.08
211.502	0.3
211.721	0.03
211.94	0.03
212.159	0.3
212.377	0.34
212.596	0.32
212.815	0.05
213.034	0.16
213.253	0.12
213.472	0.42
213.691	0.01
213.91	-0.3
214.128	-0.11
214.347	0.44
214.566	-0.23
214.785	-0.24
215.003	0.22
215.222	0.28
215.441	-0.02
215.66	-0.25
215.878	-0.23
216.097	0.36
216.316	-0.28
216.534	-0.08
216.753	0.22
216.972	0.06
217.19	0.13
217.409	-0.1
217.627	-0.02
217.846	-0.13
218.064	0.01
218.283	0.07
218.501	0.49
218.72	0.33
218.938	-0.01
219.157	0.12
219.375	0.27
219.594	0.14
219.812	-0.09
220.031	0.09
220.249	0.23
220.467	0.29
220.686	0.11
220.904	-0.07
221.122	-0.18
221.341	0.35
221.559	0.02
221.777	-0.16
221.995	0.07
222.214	0.12
222.432	-0.07
222.65	0.2
222.868	0.05
223.086	0.18
223.305	0.18
223.523	0.02
223.741	0.37
223.959	0.1
224.177	-0.11
224.395	-0.13
224.613	0.07
224.831	0.42
225.049	-0.23
225.267	0.07
225.485	0.1
225.703	0.01
225.921	0.05
226.139	-0.05
226.357	0.16
226.575	-0
226.793	-0.02
227.011	0.55
227.229	0.11
227.447	0.13
227.665	0.03
227.883	-0.18
228.1	0.11
228.318	0.17
228.536	-0.21
228.754	-0.01
228.972	0.14
229.189	0.26
229.407	0.07
229.625	0
229.843	0.23
230.06	0.09
230.278	-0.05
230.496	0.04
230.713	0.16
230.931	0.26
231.149	0.05
231.366	-0.2
231.584	-0.02
231.801	0.47
232.019	0
232.236	-0.02
232.454	-0.09
232.671	0.18
232.889	0.02
233.106	-0.04
233.324	-0.06
233.541	-0.01
233.759	0.16
233.976	-0.05
234.194	0.02
234.411	-0.03
234.628	-0.04
234.846	0.09
235.063	0.05
235.28	0.08
235.498	-0.01
235.715	-0.11
235.932	0.28
236.149	0.04
236.367	-0.1
236.584	0.02
236.801	0.08
237.018	0.13
237.236	0.08
237.453	-0.09
237.67	0.16
237.887	0.02
238.104	0.09
238.321	-0.11
238.538	-0.16
238.755	0.16
238.973	-0.16
239.19	0.11
239.407	0.07
239.624	0.09
239.841	-0.05
240.058	-0.03
240.275	0.05
240.492	0.02
240.709	0.12
240.925	-0.04
241.142	0.04
241.359	-0.05
241.576	0.03
241.793	-0.04
242.01	0.09
242.227	0.09
242.444	0.09
242.66	0.09
242.877	0.01
243.094	-0.11
243.311	0.07
243.527	0.01
243.744	0.02
243.961	0.08
244.178	-0.08
244.394	0.04
244.611	0.13
244.828	0.16
245.044	-0.16
245.261	0.06
245.477	-0.05
245.694	0.08
245.911	-0.07
246.127	-0.03
246.344	0.21
246.56	0.01
246.777	0.04
246.993	-0.01
247.21	0.05
247.426	0.05
247.643	-0.06
247.859	-0.06
248.076	-0.01
248.292	0.19
248.508	-0.04
248.725	0.11
248.941	0.14
249.157	0.15
249.374	-0.01
249.59	-0.04
249.806	0.09
250.023	0.2
250.239	-0.06
250.455	-0.08
250.671	0.02
250.888	0.09
251.104	0.01
251.32	0.03
251.536	-0.01
251.752	-0.05
251.969	0.06
252.185	0.02
252.401	0.19
252.617	0.07
252.833	0.03
253.049	-0.04
253.265	0.06
253.481	0.09
253.697	-0.03
253.913	-0.06
254.129	0.1
254.345	0.05
254.561	0.02
254.777	0.02
254.993	-0
255.209	0.03
255.425	0.02
255.641	-0
255.857	0.15
256.073	0.1
256.288	-0.01
256.504	-0.05
256.72	0.08
256.936	0.15
257.152	-0.01
257.367	-0
257.583	0.15
257.799	0.1
258.015	0.02
258.23	0.02
258.446	0.16
258.662	0.03
258.877	0.06
259.093	-0.02
259.309	0.07
259.524	0.03
259.74	-0.01
259.955	-0.09
260.171	0.08
260.387	0.01
260.602	0.11
260.818	0.14
261.033	0.01
261.249	-0.02
261.464	-0.01
261.68	-0.03
261.895	0.05
262.11	0.09
262.326	0.01
262.541	-0.05
262.757	0.1
262.972	0.07
263.187	0.04
263.403	-0.01
263.618	0.05
263.833	0.07
264.049	-0.04
264.264	-0
264.479	0.02
264.694	0.12
264.91	-0.08
265.125	-0
265.34	0.09
265.555	0.18
265.77	0.06
265.986	-0.06
266.201	0.05
266.416	0.13
266.631	-0.04
266.846	0.03
267.061	0.05
267.276	0.06
267.491	-0.13
267.706	0.1
267.921	0.09
268.136	0.02
268.351	0.1
268.566	-0.04
268.781	0.09
268.996	0.08
269.211	0.04
269.426	-0.03
269.641	-0.01
269.856	0.04
270.071	-0.05
270.285	-0.06
270.5	0.08
270.715	0.04
270.93	-0.02
271.145	0.05
271.359	0.12
271.574	-0
271.789	0.03
272.004	0.02
272.218	0.04
272.433	0.04
272.648	0.01
272.862	0.08
273.077	0.07
273.292	0.02
273.506	-0.01
273.721	0.03
273.936	0.09
274.15	0.12
274.365	0.01
274.579	0.07
274.794	0.12
275.008	0.13
275.223	-0.06
275.437	0
275.652	0.07
275.866	0.04
276.081	0.03
276.295	0.1
276.509	0.09
276.724	-0.02
276.938	0.03
277.153	0.05
277.367	0.09
277.581	0.05
277.796	-0.01
278.01	0.01
278.224	0.1
278.438	0.14
278.653	-0.02
278.867	-0.01
279.081	-0.11
279.295	-0
279.51	0.01
279.724	-0.08
279.938	0.14
280.152	0.02
280.366	-0.01
280.58	0.06
280.794	0.11
281.008	0.07
281.222	0.11
281.437	0.13
281.651	0.07
281.865	0.06
282.079	0.04
282.293	-0.09
282.507	-0.01
282.721	0.07
282.935	0.01
283.148	-0.09
283.362	0.01
283.576	-0.04
283.79	0.01
284.004	-0.01
284.218	0.11
284.432	0.04
284.646	0.01
284.859	0.01
285.073	0.03
285.287	0.04
285.501	0.02
285.714	0.07
285.928	0.04
286.142	0.01
286.356	-0.05
286.569	-0.02
286.783	0.06
286.997	0.11
287.21	0
287.424	0.02
287.637	-0.01
287.851	0
288.065	0.07
288.278	0.01
288.492	0.08
288.705	0.01
288.919	0.11
289.132	0
289.346	0.08
289.559	-0.02
289.773	-0.05
289.986	0.01
290.2	0.02
290.413	0.04
290.626	-0
290.84	0.01
291.053	0.02
291.267	0.07
291.48	0.04
291.693	0.01
291.906	0.01
292.12	0
292.333	-0.03
292.546	-0.01
292.76	0.11
292.973	0.06
293.186	0.06
293.399	0.03
293.612	0.09
293.826	0.04
294.039	0.04
294.252	0.02
294.465	0.07
294.678	0.05
294.891	0.02
295.104	-0.02
295.317	0.02
295.53	0.04
295.743	0.04
295.956	0.02
296.169	0.13
296.382	0.07
296.595	0.02
296.808	-0.05
297.021	0.15
297.234	0.08
297.447	0.07
297.66	0.09
297.873	0.09
298.086	0.05
298.299	0.01
298.511	-0.06
298.724	0.01
298.937	-0.05
299.15	-0.01
299.363	0.03
299.575	0.04
299.788	0.02
300.001	0
300.213	0.01
300.426	0.01
300.639	0.03
300.852	-0.01
301.064	0.04
301.277	0.09
301.489	0.06
301.702	0.03
301.915	0.04
302.127	0.04
302.34	0.06
302.552	0.02
302.765	0.01
302.977	0.07
303.19	-0.02
303.402	-0.02
303.615	0.04
303.827	-0.01
304.04	0.01
304.252	0.05
304.464	0.02
304.677	0.12
304.889	0.1
305.102	-0.02
305.314	-0.02
305.526	0.03
305.739	0.03
305.951	0.02
306.163	0.03
306.375	0.11
306.588	0.03
306.8	-0.02
307.012	-0.01
307.224	0.05
307.436	0.08
307.649	-0.03
307.861	0.07
308.073	0.11
308.285	0.03
308.497	-0.03
308.709	0.01
308.921	0.03
309.133	0.08
309.346	0.03
309.558	0.02
309.77	0.1
309.982	0.12
310.194	0.05
310.406	-0.01
310.617	0.09
310.829	0
311.041	0.04
311.253	-0.01
311.465	0.03
311.677	0.05
311.889	0.04
312.101	-0.01
312.313	0.08
312.524	0.04
312.736	-0.01
312.948	0.02
313.16	0.08
313.372	0.06
313.583	0.06
313.795	0.04
314.007	0
314.218	0.09
314.43	0.03
314.642	-0.01
314.853	-0.08
315.065	0.04
315.277	0.04
315.488	0.05
315.7	0.07
315.912	0.05
316.123	-0
316.335	-0
316.546	0.14
316.758	0.03
316.969	0.03
317.181	0.02
317.392	0.03
317.604	0.08
317.815	-0.01
318.026	0.04
318.238	-0.03
318.449	0.06
318.661	-0.01
318.872	-0.02
319.083	0
319.295	0.02
319.506	-0
319.717	0.02
319.929	0.02
320.14	0.02
320.351	0.03
320.562	0.03
320.774	0.03
320.985	0.02
321.196	-0.03
321.407	-0.03
321.618	0.11
321.829	0.03
322.041	0.05
322.252	0.02
322.463	0.06
322.674	0.06
322.885	-0.02
323.096	0.01
323.307	-0.02
323.518	0.01
323.729	0.01
323.94	0.04
324.151	-0.04
324.362	0.01
324.573	0.07
324.784	0.02
324.995	0.06
325.206	0.06
325.417	-0.01
325.628	0.01
325.838	0.05
326.049	0.02
326.26	0.06
326.471	0.02
326.682	0.08
326.892	0.04
327.103	-0.05
327.314	-0.02
327.525	0.1
327.735	-0.02
327.946	-0
328.157	-0
328.368	0.05
328.578	0.01
328.789	0.04
328.999	0.09
329.21	0.02
329.421	0.02
329.631	0.02
329.842	-0.01
330.052	0.05
330.263	0.05
330.473	0.08
330.684	-0.01
330.894	0.04
331.105	0.08
331.315	0.02
331.526	-0.02
331.736	0.19
331.947	0.03
332.157	0.06
332.367	-0
332.578	0.06
332.788	0.08
332.999	0.03
333.209	-0.03
333.419	-0.05
333.629	0.07
333.84	0.06
334.05	0.03
334.26	0.05
334.47	0.07
334.681	0.07
334.891	0.02
335.101	0.07
335.311	0.13
335.521	0.03
335.732	0
335.942	0.1
336.152	0.06
336.362	0.03
336.572	0.03
336.782	0.04
336.992	-0.03
337.202	0.01
337.412	0.01
337.622	0.05
337.832	0.02
338.042	0.05
338.252	-0.04
338.462	0.01
338.672	-0.01
338.882	-0.03
339.092	0.02
339.302	0.11
339.511	0.08
339.721	0.01
339.931	-0.01
340.141	0.11
340.351	0.05
340.561	0.03
340.77	0.08
340.98	0.03
341.19	0.05
341.4	-0
341.609	-0.01
341.819	0.02
342.029	-0.02
342.238	0.03
342.448	0
342.658	0.05
342.867	0
343.077	0.01
343.286	0.03
343.496	0.02
343.706	0.05
343.915	-0.02
344.125	0.03
344.334	0.06
344.544	-0.03
344.753	0.05
344.963	0.01
345.172	0.03
345.381	0.03
345.591	-0.02
345.8	0.02
346.01	0.11
346.219	0.08
346.428	-0.06
346.638	0.01
346.847	0.02
347.056	0.09
347.266	-0.03
347.475	0.01
347.684	0.05
347.893	0.07
348.103	0.03
348.312	0
348.521	0.07
348.73	0.04
348.94	0.04
349.149	0.02
349.358	0.03
349.567	0.01
349.776	-0.01
349.985	0.02
350.194	0.05
350.403	0.06
350.612	-0.03
350.821	0.03
351.03	0.01
351.239	-0.03
351.448	0.02
351.657	0
351.866	0.1
352.075	0.04
352.284	0.07
352.493	-0.01
352.702	0.1
352.911	0.07
353.12	0.05
353.329	0.02
353.538	0.04
353.746	0.06
353.955	0
354.164	0.01
354.373	0.05
354.582	0.04
354.79	0.02
354.999	0.05
355.208	-0.01
355.416	0.12
355.625	-0.01
355.834	0.02
356.042	0.04
356.251	0.02
356.46	-0.03
356.668	0.03
356.877	0.07
357.085	0.03
357.294	-0.07
357.503	0.03
357.711	0.02
357.92	0.18
358.128	-0.01
358.337	-0
358.545	0.08
358.754	0.02
358.962	0.04
359.17	-0
359.379	0.05
359.587	0.06
359.796	0.01
360.004	0.09
360.212	0.07
360.421	0.07
360.629	0
360.837	0.05
361.046	0.06
361.254	0.13
361.462	0.04
361.67	-0.02
361.879	0.02
362.087	0.11
362.295	0.04
362.503	-0.01
362.711	-0.03
362.92	-0.02
363.128	0.01
363.336	0
363.544	-0.03
363.752	-0
363.96	-0.02
364.168	0.01
364.376	0.02
364.584	0.05
364.792	0.07
365	0.07
365.208	0.02
365.416	0.07
365.624	0.05
365.832	-0.02
366.04	0.06
366.248	0.07
366.456	0.04
366.664	0.05
366.872	0.01
367.079	0
367.287	0.05
367.495	0.05
367.703	0.06
367.911	0
368.118	0.04
368.326	0.04
368.534	0.02
368.742	0.07
368.949	-0.02
369.157	0.01
369.365	0.04
369.572	0.06
369.78	-0.01
369.988	0.04
370.195	0.07
370.403	0.05
370.61	0.04
370.818	0.04
371.026	0.08
371.233	0
371.441	0.03
371.648	0.01
371.856	0.04
372.063	0.03
372.271	0
372.478	0.01
372.685	-0.03
372.893	0.09
373.1	-0
373.308	0.04
373.515	0.12
373.722	0.07
373.93	0
374.137	0.07
374.344	0.09
374.552	0.11
374.759	0.05
374.966	0.04
375.173	0.01
375.381	0.11
375.588	0.04
375.795	-0.03
376.002	0.01
376.209	0.02
376.417	-0.01
376.624	0.05
376.831	0.05
377.038	0.01
377.245	-0.02
377.452	-0
377.659	0.03
377.866	-0
378.073	0.03
378.28	0.05
378.487	0.09
378.694	0.09
378.901	0.02
379.108	0
379.315	0.05
379.522	0.1
379.729	0.03
379.936	0.03
380.143	0.05
380.35	0.05
380.557	0.02
380.763	0.05
380.97	0.03
381.177	0.03
381.384	0.04
381.591	-0.05
381.797	0.05
382.004	0.09
382.211	0.04
382.418	-0.02
382.624	0.04
382.831	0.05
383.038	0.02
383.244	0.04
383.451	0.01
383.658	0.06
383.864	0.02
384.071	0.01
384.277	0.12
384.484	0.01
384.69	0.09
384.897	-0.03
385.103	0.02
385.31	0.01
385.516	0
385.723	0.01
385.929	0.03
386.136	0.02
386.342	0.04
386.549	-0.01
386.755	0.11
386.961	0.06
387.168	0.02
387.374	-0.01
387.58	0.09
387.787	0.03
387.993	0.04
388.199	-0.03
388.406	-0
388.612	0.02
388.818	-0.02
389.024	-0
389.231	0.03
389.437	0.13
389.643	0.09
389.849	0.01
390.055	0.03
390.261	0.03
390.467	0.08
390.674	0.01
390.88	0
391.086	0.09
391.292	-0
391.498	0.02
391.704	0.08
391.91	0.04
392.116	-0.01
392.322	-0.06
392.528	0.08
392.734	0.02
392.94	0.04
393.146	0.04
393.352	-0.01
393.557	-0.01
393.763	0
393.969	0.06
394.175	0.04
394.381	0.02
394.587	-0.01
394.792	0.01
394.998	0.09
395.204	0.07
395.41	0.01
395.615	0.06
395.821	0.07
396.027	0.06
396.233	-0
396.438	0.06
396.644	0.04
396.85	0.06
397.055	0.07
397.261	0.04
397.466	0.03
397.672	0.07
397.878	0.04
398.083	0.03
398.289	-0
398.494	0.11
398.7	0.06
398.905	-0.01
399.111	0.05
399.316	-0.01
399.522	0.04
399.727	0.04
399.932	0.04
400.138	0.04
400.343	0.13
400.549	0.05
400.754	0.04
400.959	0.05
401.165	0.02
401.37	0.02
401.575	0.05
401.78	0.04
401.986	0.03
402.191	0.05
402.396	0.05
402.601	0.07
402.807	0.04
403.012	0.04
403.217	0.07
403.422	0.05
403.627	0.04
403.832	0.04
404.037	0.06
404.243	0.09
404.448	0.07
404.653	0.02
404.858	0.07
405.063	0.09
405.268	0.01
405.473	0
405.678	0.03
405.883	0.16
406.088	0.05
406.293	0.02
406.498	0.05
406.703	0.09
406.907	0.03
407.112	-0
407.317	0.08
407.522	0.08
407.727	-0.02
407.932	0.09
408.136	0.11
408.341	0.09
408.546	0.06
408.751	0.04
408.956	0.09
409.16	0.11
409.365	0.1
409.57	0.05
409.774	0.04
409.979	0.13
410.184	0.08
410.388	0
410.593	0.11
410.798	0.09
411.002	0.06
411.207	0.12
411.411	0.08
411.616	0.06
411.82	0.1
412.025	0.14
412.229	0.08
412.434	0.16
412.638	0.1
412.843	0.1
413.047	0.14
413.252	0.08
413.456	0.14
413.66	0.14
413.865	0.11
414.069	0.18
414.273	0.09
414.478	0.13
414.682	0.13
414.886	0.1
415.091	0.09
415.295	0.08
415.499	0.2
415.703	0.14
415.908	0.16
416.112	0.08
416.316	0.21
416.52	0.18
416.724	0.13
416.929	0.13
417.133	0.28
417.337	0.22
417.541	0.16
417.745	0.2
417.949	0.23
418.153	0.26
418.357	0.18
418.561	0.32
418.765	0.26
418.969	0.35
419.173	0.35
419.377	0.26
419.581	0.38
419.785	0.28
419.989	0.29
420.193	0.31
420.397	0.34
420.601	0.38
420.804	0.42
421.008	0.33
421.212	0.46
421.416	0.42
421.62	0.41
421.823	0.43
422.027	0.5
422.231	0.42
422.435	0.4
422.638	0.44
422.842	0.41
423.046	0.44
423.249	0.54
423.453	0.5
423.657	0.5
423.86	0.52
424.064	0.57
424.268	0.63
424.471	0.54
424.675	0.66
424.878	0.67
425.082	0.61
425.285	0.72
425.489	0.64
425.692	0.66
425.896	0.67
426.099	0.71
426.303	0.65
426.506	0.67
426.71	0.74
426.913	0.82
427.116	0.82
427.32	0.84
427.523	0.75
427.726	0.92
427.93	0.85
428.133	0.88
428.336	0.87
428.54	0.89
428.743	1.01
428.946	1.02
429.149	0.96
429.353	1.04
429.556	0.96
429.759	1.01
429.962	0.93
430.165	0.99
430.368	1.01
430.571	1
430.775	0.96
430.978	0.99
431.181	1.01
431.384	1
431.587	1.02
431.79	1.13
431.993	1.03
432.196	1.08
432.399	1.05
432.602	1.24
432.805	1.17
433.008	1.18
433.211	1.11
433.414	1.28
433.616	1.33
433.819	1.26
434.022	1.24
434.225	1.4
434.428	1.32
434.631	1.52
434.833	1.38
435.036	1.34
435.239	1.4
435.442	1.43
435.645	1.42
435.847	1.44
436.05	1.54
436.253	1.57
436.455	1.48
436.658	1.52
436.861	1.61
437.063	1.55
437.266	1.61
437.468	1.65
437.671	1.78
437.874	1.71
438.076	1.63
438.279	1.7
438.481	1.74
438.684	1.83
438.886	1.84
439.089	1.78
439.291	1.85
439.494	1.97
439.696	1.86
439.899	2.07
440.101	2.2
440.303	2.08
440.506	2.3
440.708	2.22
440.91	2.32
441.113	2.3
441.315	2.4
441.517	2.32
441.72	2.41
441.922	2.36
442.124	2.33
442.326	2.46
442.529	2.52
442.731	2.43
442.933	2.65
443.135	2.51
443.337	2.45
443.539	2.63
443.742	2.58
443.944	2.72
444.146	2.61
444.348	2.7
444.55	2.63
444.752	2.71
444.954	2.7
445.156	2.78
445.358	2.8
445.56	2.9
445.762	2.8
445.964	2.9
446.166	2.83
446.368	2.86
446.57	2.91
446.772	2.8
446.974	2.83
447.175	2.86
447.377	2.81
447.579	2.93
447.781	2.74
447.983	2.89
448.184	2.74
448.386	2.8
448.588	2.66
448.79	2.75
448.991	2.82
449.193	2.81
449.395	2.68
449.597	2.73
449.798	2.67
450	2.62
450.202	2.51
450.403	2.66
450.605	2.57
450.806	2.46
451.008	2.37
451.21	2.41
451.411	2.3
451.613	2.18
451.814	2.23
452.016	2.32
452.217	2.1
452.419	2.17
452.62	2.08
452.821	2.02
453.023	2.09
453.224	1.96
453.426	1.84
453.627	1.74
453.828	1.76
454.03	1.72
454.231	1.79
454.432	1.66
454.634	1.71
454.835	1.61
455.036	1.54
455.238	1.58
455.439	1.53
455.64	1.41
455.841	1.36
456.042	1.56
456.244	1.38
456.445	1.29
456.646	1.17
456.847	1.17
457.048	1.28
457.249	1.3
457.45	1.49
457.651	1.1
457.852	1.16
458.054	1.06
458.255	1.05
458.456	1.1
458.657	1.06
458.858	0.98
459.058	0.97
459.259	0.98
459.46	0.86
459.661	0.9
459.862	1.01
460.063	0.86
460.264	0.95
460.465	0.8
460.666	0.99
460.866	0.78
461.067	0.78
461.268	0.74
461.469	0.74
461.67	0.68
461.87	0.7
462.071	0.68
462.272	0.67
462.473	0.74
462.673	0.77
462.874	0.66
463.075	0.71
463.275	0.7
463.476	0.72
463.676	0.71
463.877	0.7
464.078	0.7
464.278	0.67
464.479	0.68
464.679	0.64
464.88	0.6
465.08	0.76
465.281	0.62
465.481	0.6
465.682	0.59
465.882	0.67
466.083	0.58
466.283	0.56
466.483	0.55
466.684	0.5
466.884	0.48
467.085	0.52
467.285	0.48
467.485	0.46
467.686	0.47
467.886	0.45
468.086	0.48
468.286	0.48
468.487	0.49
468.687	0.41
468.887	0.44
469.087	0.48
469.287	0.41
469.488	0.38
469.688	0.46
469.888	0.47
470.088	0.48
470.288	0.45
470.488	0.43
470.688	0.39
470.888	0.3
471.088	0.33
471.288	0.37
471.488	0.36
471.688	0.38
471.888	0.37
472.088	0.44
472.288	0.38
472.488	0.35
472.688	0.3
472.888	0.34
473.088	0.35
473.288	0.36
473.488	0.3
473.688	0.42
473.887	0.31
474.087	0.31
474.287	0.38
474.487	0.32
474.687	0.34
474.886	0.31
475.086	0.33
475.286	0.32
475.486	0.29
475.685	0.31
475.885	0.26
476.085	0.32
476.284	0.33
476.484	0.31
476.684	0.3
476.883	0.34
477.083	0.29
477.282	0.24
477.482	0.32
477.681	0.3
477.881	0.31
478.08	0.26
478.28	0.25
478.479	0.3
478.679	0.37
478.878	0.22
479.078	0.26
479.277	0.26
479.477	0.27
479.676	0.3
479.875	0.27
480.075	0.2
480.274	0.28
480.473	0.32
480.673	0.24
480.872	0.31
481.071	0.26
481.271	0.29
481.47	0.24
481.669	0.25
481.868	0.26
482.067	0.22
482.267	0.22
482.466	0.24
482.665	0.21
482.864	0.21
483.063	0.23
483.262	0.25
483.461	0.33
483.661	0.28
483.86	0.26
484.059	0.29
484.258	0.27
484.457	0.3
484.656	0.27
484.855	0.31
485.054	0.21
485.253	0.24
485.452	0.21
485.651	0.29
485.849	0.26
486.048	0.24
486.247	0.23
486.446	0.31
486.645	0.25
486.844	0.26
487.043	0.26
487.241	0.31
487.44	0.24
487.639	0.26
487.838	0.29
488.037	0.31
488.235	0.35
488.434	0.28
488.633	0.25
488.831	0.33
489.03	0.3
489.229	0.28
489.427	0.33
489.626	0.34
489.825	0.36
490.023	0.32
490.222	0.3
490.42	0.34
490.619	0.34
490.817	0.33
491.016	0.3
491.214	0.36
491.413	0.32
491.611	0.32
491.81	0.35
492.008	0.35
492.207	0.37
492.405	0.36
492.604	0.31
492.802	0.34
493	0.37
493.199	0.35
493.397	0.38
493.595	0.41
493.794	0.35
493.992	0.41
494.19	0.37
494.388	0.39
494.587	0.37
494.785	0.4
494.983	0.35
495.181	0.39
495.379	0.43
495.578	0.42
495.776	0.41
495.974	0.42
496.172	0.4
496.37	0.43
496.568	0.42
496.766	0.39
496.964	0.47
497.162	0.47
497.36	0.44
497.558	0.48
497.756	0.52
497.954	0.48
498.152	0.47
498.35	0.49
498.548	0.46
498.746	0.5
498.944	0.48
499.142	0.49
499.34	0.5
499.538	0.53
499.736	0.49
499.933	0.54
500.131	0.55
500.329	0.54
500.527	0.58
500.725	0.59
500.922	0.57
501.12	0.57
501.318	0.59
501.516	0.57
501.713	0.61
501.911	0.59
502.109	0.57
502.306	0.62
502.504	0.59
502.701	0.62
502.899	0.63
503.097	0.67
503.294	0.64
503.492	0.65
503.689	0.67
503.887	0.67
504.084	0.68
504.282	0.68
504.479	0.62
504.677	0.67
504.874	0.68
505.072	0.67
505.269	0.71
505.466	0.75
505.664	0.74
505.861	0.67
506.059	0.71
506.256	0.77
506.453	0.73
506.651	0.8
506.848	0.77
507.045	0.77
507.242	0.76
507.44	0.77
507.637	0.79
507.834	0.76
508.031	0.78
508.229	0.76
508.426	0.79
508.623	0.82
508.82	0.81
509.017	0.8
509.214	0.79
509.411	0.83
509.608	0.78
509.805	0.83
510.003	0.84
510.2	0.85
510.397	0.88
510.594	0.85
510.791	0.87
510.988	0.9
511.184	0.86
511.381	0.84
511.578	0.83
511.775	0.93
511.972	0.88
512.169	0.9
512.366	0.92
512.563	0.95
512.76	0.93
512.956	0.96
513.153	0.9
513.35	0.92
513.547	0.91
513.744	0.91
513.94	0.9
514.137	0.96
514.334	0.93
514.53	0.97
514.727	1.02
514.924	1.02
515.12	0.97
515.317	0.94
515.514	0.96
515.71	0.97
515.907	1
516.103	1.01
516.3	1
516.497	1.02
516.693	1.05
516.89	1
517.086	0.98
517.283	1.07
517.479	1
517.676	1.08
517.872	1.06
518.068	1.02
518.265	1.04
518.461	1
518.658	1.04
518.854	1.08
519.05	1.05
519.247	1.04
519.443	1.07
519.639	1.09
519.836	1.07
520.032	1.06
520.228	1.08
520.424	1.14
520.621	1.1
520.817	1.08
521.013	1.1
521.209	1.13
521.405	1.15
521.601	1.11
521.798	1.1
521.994	1.15
522.19	1.08
522.386	1.09
522.582	1.12
522.778	1.12
522.974	1.09
523.17	1.14
523.366	1.08
523.562	1.17
523.758	1.17
523.954	1.06
524.15	1.13
524.346	1.15
524.542	1.14
524.738	1.14
524.934	1.18
525.129	1.14
525.325	1.14
525.521	1.13
525.717	1.22
525.913	1.14
526.109	1.17
526.304	1.19
526.5	1.15
526.696	1.21
526.892	1.12
527.087	1.21
527.283	1.14
527.479	1.18
527.674	1.16
527.87	1.21
528.066	1.15
528.261	1.2
528.457	1.17
528.653	1.18
528.848	1.18
529.044	1.22
529.239	1.17
529.435	1.23
529.63	1.19
529.826	1.22
530.021	1.16
530.217	1.2
530.412	1.18
530.608	1.15
530.803	1.22
530.999	1.2
531.194	1.14
531.389	1.21
531.585	1.15
531.78	1.23
531.975	1.18
532.171	1.23
532.366	1.2
532.561	1.23
532.757	1.2
532.952	1.23
533.147	1.2
533.342	1.24
533.538	1.2
533.733	1.29
533.928	1.2
534.123	1.19
534.318	1.21
534.513	1.2
534.709	1.23
534.904	1.21
535.099	1.25
535.294	1.25
535.489	1.26
535.684	1.22
535.879	1.21
536.074	1.24
536.269	1.23
536.464	1.23
536.659	1.25
536.854	1.26
537.049	1.24
537.244	1.23
537.439	1.26
537.634	1.25
537.828	1.25
538.023	1.28
538.218	1.22
538.413	1.23
538.608	1.21
538.803	1.28
538.997	1.15
539.192	1.24
539.387	1.24
539.582	1.27
539.776	1.23
539.971	1.25
540.166	1.25
540.36	1.22
540.555	1.29
540.75	1.23
540.944	1.26
541.139	1.19
541.334	1.26
541.528	1.24
541.723	1.24
541.917	1.24
542.112	1.17
542.306	1.23
542.501	1.22
542.695	1.25
542.89	1.21
543.084	1.28
543.279	1.26
543.473	1.26
543.668	1.25
543.862	1.25
544.056	1.26
544.251	1.25
544.445	1.28
544.64	1.27
544.834	1.22
545.028	1.2
545.222	1.26
545.417	1.3
545.611	1.25
545.805	1.25
546	1.2
546.194	1.25
546.388	1.25
546.582	1.29
546.776	1.23
546.97	1.25
547.165	1.24
547.359	1.28
547.553	1.21
547.747	1.26
547.941	1.28
548.135	1.23
548.329	1.26
548.523	1.26
548.717	1.23
548.911	1.25
549.105	1.22
549.299	1.26
549.493	1.28
549.687	1.28
549.881	1.26
550.075	1.24
550.269	1.19
550.463	1.31
550.657	1.28
550.85	1.25
551.044	1.22
551.238	1.28
551.432	1.24
551.626	1.24
551.82	1.24
552.013	1.19
552.207	1.28
552.401	1.26
552.594	1.24
552.788	1.23
552.982	1.27
553.176	1.21
553.369	1.3
553.563	1.24
553.756	1.26
553.95	1.26
554.144	1.25
554.337	1.3
554.531	1.25
554.724	1.29
554.918	1.24
555.111	1.26
555.305	1.26
555.498	1.29
555.692	1.31
555.885	1.26
556.079	1.26
556.272	1.23
556.466	1.28
556.659	1.29
556.852	1.24
557.046	1.22
557.239	1.26
557.432	1.22
557.626	1.25
557.819	1.29
558.012	1.25
558.206	1.31
558.399	1.28
558.592	1.27
558.785	1.22
558.979	1.27
559.172	1.26
559.365	1.3
559.558	1.24
559.751	1.24
559.944	1.26
560.138	1.25
560.331	1.23
560.524	1.26
560.717	1.27
560.91	1.25
561.103	1.29
561.296	1.23
561.489	1.26
561.682	1.25
561.875	1.29
562.068	1.29
562.261	1.24
562.454	1.31
562.647	1.26
562.84	1.22
563.032	1.25
563.225	1.27
563.418	1.24
563.611	1.26
563.804	1.25
563.997	1.21
564.19	1.22
564.382	1.24
564.575	1.22
564.768	1.24
564.961	1.25
565.153	1.24
565.346	1.25
565.539	1.27
565.731	1.28
565.924	1.29
566.117	1.29
566.309	1.27
566.502	1.23
566.695	1.24
566.887	1.27
567.08	1.24
567.272	1.27
567.465	1.2
567.657	1.26
567.85	1.27
568.042	1.23
568.235	1.3
568.427	1.2
568.62	1.28
568.812	1.26
569.005	1.28
569.197	1.21
569.389	1.28
569.582	1.27
569.774	1.25
569.966	1.19
570.159	1.2
570.351	1.24
570.543	1.22
570.736	1.23
570.928	1.21
571.12	1.27
571.312	1.22
571.505	1.21
571.697	1.28
571.889	1.23
572.081	1.26
572.273	1.2
572.465	1.3
572.658	1.22
572.85	1.25
573.042	1.25
573.234	1.24
573.426	1.27
573.618	1.21
573.81	1.24
574.002	1.28
574.194	1.25
574.386	1.23
574.578	1.16
574.77	1.21
574.962	1.23
575.154	1.19
575.346	1.22
575.538	1.21
575.729	1.18
575.921	1.24
576.113	1.21
576.305	1.25
576.497	1.23
576.689	1.23
576.88	1.16
577.072	1.25
577.264	1.23
577.456	1.23
577.647	1.18
577.839	1.25
578.031	1.25
578.223	1.2
578.414	1.17
578.606	1.24
578.798	1.24
578.989	1.19
579.181	1.23
579.372	1.21
579.564	1.17
579.755	1.2
579.947	1.16
580.139	1.26
580.33	1.14
580.522	1.18
580.713	1.13
580.905	1.19
581.096	1.2
581.287	1.19
581.479	1.2
581.67	1.19
581.862	1.18
582.053	1.2
582.244	1.16
582.436	1.21
582.627	1.21
582.818	1.17
583.01	1.14
583.201	1.21
583.392	1.22
583.583	1.18
583.775	1.13
583.966	1.16
584.157	1.19
584.348	1.17
584.54	1.14
584.731	1.2
584.922	1.16
585.113	1.12
585.304	1.2
585.495	1.17
585.686	1.18
585.877	1.21
586.068	1.19
586.259	1.2
586.45	1.17
586.641	1.11
586.832	1.13
587.023	1.16
587.214	1.13
587.405	1.18
587.596	1.12
587.787	1.2
587.978	1.19
588.169	1.13
588.36	1.12
588.551	1.18
588.742	1.16
588.932	1.22
589.123	1.13
589.314	1.19
589.505	1.13
589.696	1.15
589.886	1.07
590.077	1.09
590.268	1.14
590.458	1.08
590.649	1.06
590.84	1.18
591.03	1.1
591.221	1.09
591.412	1.08
591.602	1.14
591.793	1.15
591.984	1.09
592.174	1.07
592.365	1.22
592.555	1.05
592.746	1.12
592.936	1.12
593.127	1.14
593.317	1.13
593.508	1.12
593.698	1.09
593.889	1.11
594.079	1.05
594.269	1.08
594.46	1.1
594.65	1.1
594.84	1.1
595.031	1.05
595.221	1.07
595.411	1.07
595.602	1.09
595.792	1.12
595.982	1.07
596.172	1.15
596.363	1.08
596.553	1.06
596.743	1.08
596.933	1.07
597.123	1.07
597.314	1.02
597.504	1.02
597.694	1.12
597.884	1.04
598.074	1.03
598.264	1.03
598.454	1.05
598.644	1.02
598.834	1.03
599.024	1.01
599.214	1.02
599.404	1.08
599.594	1.02
599.784	1
599.974	1.04
600.164	1.05
600.354	0.97
600.544	0.99
600.734	1.03
600.924	1.08
601.114	0.99
601.303	1.02
601.493	1
601.683	1.01
601.873	1.03
602.063	0.95
602.252	1
602.442	0.93
602.632	0.95
602.821	0.98
603.011	1
603.201	0.99
603.39	0.96
603.58	0.95
603.77	0.99
603.959	1
604.149	0.99
604.339	0.94
604.528	1.03
604.718	1
604.907	0.98
605.097	0.95
605.286	0.92
605.476	0.95
605.665	0.98
605.855	0.93
606.044	1.01
606.234	0.97
606.423	0.91
606.612	0.92
606.802	0.93
606.991	0.94
607.181	0.97
607.37	0.92
607.559	0.87
607.749	0.91
607.938	0.94
608.127	0.95
608.316	0.89
608.506	0.89
608.695	0.94
608.884	0.89
609.073	0.91
609.263	0.94
609.452	0.94
609.641	0.86
609.83	0.87
610.019	0.92
610.208	0.85
610.397	0.87
610.586	0.94
610.775	0.89
610.965	0.88
611.154	0.86
611.343	0.87
611.532	0.88
611.721	0.84
611.91	0.85
612.099	0.88
612.287	0.87
612.476	0.8
612.665	0.88
612.854	0.85
613.043	0.9
613.232	0.84
613.421	0.8
613.61	0.85
613.798	0.84
613.987	0.87
614.176	0.86
614.365	0.85
614.554	0.84
614.742	0.88
614.931	0.77
615.12	0.89
615.309	0.83
615.497	0.85
615.686	0.76
615.875	0.8
616.063	0.79
616.252	0.76
616.44	0.81
616.629	0.78
616.818	0.82
617.006	0.81
617.195	0.75
617.383	0.79
617.572	0.8
617.76	0.77
617.949	0.77
618.137	0.83
618.326	0.84
618.514	0.73
618.703	0.7
618.891	0.8
619.079	0.69
619.268	0.8
619.456	0.73
619.644	0.8
619.833	0.76
620.021	0.74
620.209	0.67
620.398	0.76
620.586	0.73
620.774	0.78
620.962	0.72
621.151	0.79
621.339	0.72
621.527	0.72
621.715	0.7
621.903	0.72
622.092	0.68
622.28	0.75
622.468	0.72
622.656	0.68
622.844	0.77
623.032	0.75
623.22	0.65
623.408	0.73
623.596	0.7
623.784	0.74
623.972	0.64
624.16	0.67
624.348	0.72
624.536	0.69
624.724	0.69
624.912	0.72
625.1	0.7
625.288	0.65
625.476	0.68
625.664	0.7
625.851	0.66
626.039	0.68
626.227	0.68
626.415	0.65
626.603	0.6
626.79	0.64
626.978	0.62
627.166	0.7
627.354	0.63
627.541	0.63
627.729	0.56
627.917	0.72
628.104	0.65
628.292	0.66
628.48	0.63
628.667	0.63
628.855	0.65
629.042	0.69
629.23	0.57
629.418	0.63
629.605	0.61
629.793	0.64
629.98	0.63
630.168	0.62
630.355	0.61
630.543	0.64
630.73	0.58
630.917	0.65
631.105	0.65
631.292	0.64
631.48	0.58
631.667	0.64
631.854	0.6
632.042	0.6
632.229	0.54
632.416	0.57
632.604	0.56
632.791	0.55
632.978	0.64
633.165	0.6
633.353	0.65
633.54	0.59
633.727	0.49
633.914	0.55
634.101	0.61
634.289	0.64
634.476	0.54
634.663	0.52
634.85	0.55
635.037	0.5
635.224	0.49
635.411	0.58
635.598	0.57
635.785	0.55
635.972	0.53
636.159	0.6
636.346	0.51
636.533	0.5
636.72	0.54
636.907	0.54
637.094	0.54
637.281	0.48
637.468	0.53
637.655	0.5
637.842	0.53
638.029	0.5
638.215	0.51
638.402	0.5
638.589	0.48
638.776	0.5
638.963	0.46
639.149	0.56
639.336	0.58
639.523	0.53
639.709	0.48
639.896	0.51
640.083	0.53
640.27	0.52
640.456	0.45
640.643	0.5
640.829	0.42
641.016	0.47
641.203	0.44
641.389	0.49
641.576	0.45
641.762	0.47
641.949	0.44
642.135	0.48
642.322	0.49
642.508	0.4
642.695	0.44
642.881	0.45
643.068	0.42
643.254	0.45
643.441	0.48
643.627	0.48
643.813	0.39
644	0.47
644.186	0.41
644.372	0.42
644.559	0.48
644.745	0.44
644.931	0.37
645.118	0.42
645.304	0.44
645.49	0.44
645.676	0.4
645.862	0.42
646.049	0.45
646.235	0.44
646.421	0.51
646.607	0.45
646.793	0.41
646.979	0.37
647.165	0.45
647.352	0.41
647.538	0.46
647.724	0.42
647.91	0.43
648.096	0.44
648.282	0.4
648.468	0.38
648.654	0.42
648.84	0.44
649.026	0.4
649.212	0.41
649.397	0.36
649.583	0.37
649.769	0.44
649.955	0.37
650.141	0.38
650.327	0.44
650.513	0.35
650.698	0.4
650.884	0.32
651.07	0.4
651.256	0.37
651.442	0.37
651.627	0.32
651.813	0.38
651.999	0.35
652.184	0.35
652.37	0.36
652.556	0.31
652.741	0.37
652.927	0.26
653.113	0.35
653.298	0.36
653.484	0.32
653.669	0.29
653.855	0.37
654.04	0.4
654.226	0.33
654.412	0.3
654.597	0.3
654.782	0.36
654.968	0.38
655.153	0.38
655.339	0.3
655.524	0.26
655.71	0.34
655.895	0.33
656.08	0.3
656.266	0.37
656.451	0.35
656.636	0.29
656.822	0.29
657.007	0.28
657.192	0.3
657.378	0.27
657.563	0.31
657.748	0.3
657.933	0.32
658.118	0.29
658.304	0.25
658.489	0.35
658.674	0.35
658.859	0.26
659.044	0.32
659.229	0.32
659.414	0.26
659.599	0.31
659.785	0.24
659.97	0.3
660.155	0.35
660.34	0.29
660.525	0.29
660.71	0.27
660.895	0.32
661.08	0.27
661.264	0.26
661.449	0.32
661.634	0.3
661.819	0.3
662.004	0.26
662.189	0.22
662.374	0.23
662.559	0.25
662.743	0.24
662.928	0.25
663.113	0.27
663.298	0.21
663.483	0.22
663.667	0.27
663.852	0.25
664.037	0.31
664.221	0.26
664.406	0.28
664.591	0.28
664.775	0.25
664.96	0.27
665.145	0.26
665.329	0.28
665.514	0.23
665.698	0.22
665.883	0.21
666.068	0.33
666.252	0.24
666.437	0.2
666.621	0.28
666.806	0.27
666.99	0.22
667.174	0.18
667.359	0.31
667.543	0.2
667.728	0.25
667.912	0.17
668.096	0.27
668.281	0.22
668.465	0.24
668.649	0.23
668.834	0.22
669.018	0.2
669.202	0.21
669.387	0.17
669.571	0.28
669.755	0.15
669.939	0.22
670.124	0.2
670.308	0.31
670.492	0.27
670.676	0.25
670.86	0.21
671.044	0.17
671.228	0.25
671.413	0.21
671.597	0.18
671.781	0.19
671.965	0.26
672.149	0.21
672.333	0.21
672.517	0.18
672.701	0.21
672.885	0.2
673.069	0.14
673.253	0.29
673.437	0.21
673.621	0.19
673.804	0.16
673.988	0.21
674.172	0.24
674.356	0.19
674.54	0.2
674.724	0.3
674.908	0.2
675.091	0.25
675.275	0.16
675.459	0.24
675.643	0.16
675.826	0.21
676.01	0.19
676.194	0.15
676.377	0.26
676.561	0.23
676.745	0.2
676.928	0.23
677.112	0.27
677.296	0.12
677.479	0.12
677.663	0.16
677.846	0.23
678.03	0.14
678.213	0.15
678.397	0.19
678.58	0.16
678.764	0.16
678.947	0.11
679.131	0.15
679.314	0.26
679.498	0.17
679.681	0.19
679.865	0.22
680.048	0.22
680.231	0.16
680.415	0.18
680.598	0.15
680.781	0.14
680.965	0.15
681.148	0.2
681.331	0.11
681.514	0.18
681.698	0.11
681.881	0.2
682.064	0.18
682.247	0.21
682.43	0.09
682.614	0.19
682.797	0.23
682.98	0.18
683.163	0.13
683.346	0.17
683.529	0.13
683.712	0.15
683.895	0.14
684.078	0.09
684.261	0.15
684.444	0.18
684.627	0.18
684.81	0.14
684.993	0.1
685.176	0.2
685.359	0.15
685.542	0.13
685.725	0.23
685.908	0.15
686.091	0.16
686.274	0.16
686.457	0.17
686.639	0.21
686.822	0.17
687.005	0.14
687.188	0.15
687.371	0.21
687.553	0.21
687.736	0.16
687.919	0.2
688.102	0.2
688.284	0.11
688.467	0.16
688.65	0.09
688.832	0.09
689.015	0.12
689.197	0.1
689.38	0.21
689.563	0.19
689.745	0.12
689.928	0.09
690.11	0.13
690.293	0.1
690.475	0.05
690.658	0.19
690.84	0.12
691.023	0.14
691.205	0.11
691.388	0.15
691.57	0.17
691.752	0.19
691.935	0.06
692.117	0.07
692.3	0.15
692.482	0.1
692.664	0.09
692.847	0.11
693.029	0.15
693.211	0.16
693.393	0.11
693.576	0.15
693.758	0.15
693.94	0.09
694.122	0.07
694.304	0.09
694.487	0.15
694.669	0.23
694.851	0.07
695.033	0.16
695.215	0.02
695.397	0.11
695.579	0.12
695.761	0.06
695.943	0.04
696.125	0.14
696.308	0.16
696.49	0.02
696.671	0.27
696.853	0.12
697.035	0.22
697.217	0.15
697.399	0.15
697.581	0.13
697.763	0.15
697.945	0.09
698.127	0.09
698.309	0.16
698.491	0.12
698.672	0.1
698.854	0.16
699.036	0.13
699.218	0.08
699.399	0.16
699.581	0.16
699.763	0.1
699.945	0.09
700.126	0.07
700.308	0.05
700.49	0.08
700.671	0.05
700.853	0.06
701.035	0.08
701.216	0.07
701.398	0.1
701.579	0.09
701.761	0.2
701.943	0.03
702.124	0.07
702.306	0.11
702.487	0.25
702.669	0.1
702.85	0.01
703.031	0.04
703.213	0.17
703.394	0.15
703.576	0.04
703.757	0.16
703.938	0.1
704.12	0.25
704.301	0.08
704.483	0.11
704.664	0.13
704.845	0.2
705.026	0.1
705.208	0.07
705.389	0.08
705.57	0.1
705.751	0.08
705.933	0.08
706.114	0.17
706.295	0.12
706.476	-0.01
706.657	0.2
706.838	0.1
707.02	0.13
707.201	0.08
707.382	0.05
707.563	0.1
707.744	0.07
707.925	-0
708.106	0.09
708.287	0.05
708.468	0.17
708.649	0.08
708.83	0.14
709.011	0.07
709.192	0.12
709.373	0.03
709.554	0.14
709.734	0.14
709.915	0.14
710.096	0.03
710.277	0.01
710.458	0.06
710.639	0.12
710.819	-0.05
711	0.04
711.181	0.16
711.362	0.09
711.542	0.07
711.723	0.08
711.904	0.1
712.085	0.09
712.265	0.08
712.446	0.01
712.627	0.04
712.807	0.08
712.988	0.09
713.168	0.03
713.349	0.06
713.53	-0.08
713.71	-0.01
713.891	-0
714.071	0.09
714.252	0
714.432	0.04
714.613	-0.08
714.793	0
714.974	0.1
715.154	0.12
715.334	0.11
715.515	0.13
715.695	-0.03
715.876	0.05
716.056	0.05
716.236	0.09
716.417	0.1
716.597	0.01
716.777	0.2
716.957	0.13
717.138	0.02
717.318	0.03
717.498	-0.06
717.678	0.03
717.859	0.12
718.039	-0.03
718.219	0.07
718.399	0.11
718.579	0
718.759	0.02
718.939	0.15
719.12	0
719.3	0.09
719.48	-0.03
719.66	-0.08
719.84	0.25
720.02	0.08
720.2	-0.05
720.38	0.04
720.56	0.15
720.74	-0.01
720.92	0.04
721.1	0.12
721.279	0.12
721.459	0.04
721.639	0.06
721.819	0.04
721.999	0.06
722.179	0.14
722.359	0.03
722.538	-0.01
722.718	0.08
722.898	-0.01
723.078	0.06
723.257	0.01
723.437	0.1
723.617	0.07
723.797	0.07
723.976	0.03
724.156	0.08
724.336	0.17
724.515	0.14
724.695	-0.04
724.874	0.05
725.054	0.17
725.234	-0.06
725.413	0.07
725.593	0.02
725.772	-0.03
725.952	0.03
726.131	0.05
726.311	0.07
726.49	0.07
726.67	0
726.849	-0.04
727.028	0.07
727.208	0.07
727.387	0.11
727.567	0
727.746	-0
727.925	0.05
728.105	-0.05
728.284	0.06
728.463	-0.02
728.643	0.02
728.822	-0.07
729.001	-0.01
729.18	0.08
729.359	0.1
729.539	-0.03
729.718	-0
729.897	0.12
730.076	0.05
730.255	-0.04
730.434	0.04
730.614	0.09
730.793	0.03
730.972	-0.02
731.151	-0.02
731.33	0.16
731.509	0.09
731.688	0.04
731.867	0.12
732.046	-0.1
732.225	0.32
732.404	-0.01
732.583	-0.09
732.762	-0.01
732.941	0.14
733.12	0.08
733.298	-0.01
733.477	0.05
733.656	0.02
733.835	-0.08
734.014	0.16
734.193	0.05
734.371	0.18
734.55	0.16
734.729	0
734.908	0.05
735.086	0.06
735.265	0.17
735.444	-0.06
735.623	0.01
735.801	0.04
735.98	0.1
736.159	-0.01
736.337	0.15
736.516	0.05
736.694	0.07
736.873	0.07
737.052	0.19
737.23	0.13
737.409	-0
737.587	0.23
737.766	-0
737.944	-0
738.123	0.1
738.301	0.05
738.479	0.08
738.658	0.14
738.836	-0.06
739.015	0.04
739.193	0.14
739.371	-0.14
739.55	0.05
739.728	-0.19
739.906	0.08
740.085	0.2
740.263	-0.04
740.441	-0.08
740.62	0.25
740.798	0.11
740.976	-0.01
741.154	-0.02
741.332	0.26
741.511	-0
741.689	0.14
741.867	0.13
742.045	0.1
742.223	0.08
742.401	-0.06
742.579	-0.05
742.757	0.08
742.935	-0.03
743.114	-0
743.292	-0.1
743.47	0.04
743.648	0.09
743.826	0.02
744.004	0.12
744.181	0.07
744.359	-0.05
744.537	0.09
744.715	-0.04
744.893	0.06
745.071	0.01
745.249	0.04
745.427	-0.07
745.605	0.07
745.782	0.05
745.96	0.08
746.138	0.1
746.316	0.12
746.493	0.03
746.671	0.07
746.849	-0.03
747.027	0.2
747.204	-0.12
747.382	0.15
747.56	-0.01
747.737	0.05
747.915	0.01
748.093	0.01
748.27	0.03
748.448	0.04
748.625	-0.11
748.803	-0.04
748.98	0.04
749.158	0.14
749.335	0.07
749.513	0.08
749.69	0.11
749.868	-0.05
750.045	0.12
750.223	0.03
750.4	-0.18
750.578	0.22
750.755	-0.01
750.932	-0.12
751.11	0.16
751.287	-0.19
751.464	0.1
751.642	0.01
751.819	0.03
751.996	0.15
752.173	0.02
752.351	-0.03
752.528	0.05
752.705	-0.07
752.882	0.07
753.06	0.07
753.237	0.08
753.414	0.25
753.591	0.14
753.768	0.02
753.945	-0.06
754.122	-0.09
754.299	0.05
754.476	-0.14
754.654	-0.06
754.831	0.13
755.008	0.09
755.185	-0.02
755.362	-0.09
755.539	0.09
755.716	-0.08
755.892	0.02
756.069	0.11
756.246	-0.01
756.423	0.05
756.6	0.22
756.777	-0.07
756.954	0.21
757.131	-0.06
757.307	-0.08
757.484	-0.05
757.661	0.03
757.838	0.13
758.015	-0.08
758.191	0.17
758.368	0.12
758.545	0.15
758.721	-0.02
758.898	-0.08
759.075	0.07
759.251	0.18
759.428	0.14
759.605	-0.03
759.781	0.09
759.958	0.04
760.134	0.06
760.311	0.03
760.488	0.13
760.664	0.19
760.841	0.04
761.017	-0
761.194	0.13
761.37	0.15
761.547	0.03
761.723	0.07
761.899	0.11
762.076	-0
762.252	-0.08
762.429	0.04
762.605	0.16
762.781	-0.05
762.958	0.21
763.134	-0.03
763.31	-0.02
763.486	0.1
763.663	-0.11
763.839	0.04
764.015	-0.16
764.191	-0.07
764.368	-0.02
764.544	-0.06
764.72	0.1
764.896	0.08
765.072	-0.02
765.248	0.07
765.425	-0.03
765.601	0.05
765.777	0.1
765.953	-0.19
766.129	0.01
766.305	-0.1
766.481	0.13
766.657	0.08
766.833	0.16
767.009	-0.14
767.185	-0.13
767.361	0.12
767.537	-0.1
767.713	0.17
767.889	0
768.065	0.1
768.24	-0.12
768.416	0.18
768.592	-0.09
768.768	0.04
768.944	0.02
769.12	-0.11
769.295	-0.06
769.471	-0.06
769.647	-0.06
769.823	0.15
769.998	-0.11
770.174	-0.15
770.35	0.37
770.525	0.28
770.701	-0
770.877	-0.01
771.052	-0.12
771.228	0.25
771.403	0.1
771.579	0.12
771.755	0.34
771.93	0.03
772.106	-0.13
772.281	-0.21
772.457	0.16
772.632	0.11
772.808	-0.1
772.983	-0.06
773.159	-0.08
773.334	0.16
773.509	0.11
773.685	-0.14
773.86	0.42
774.036	0.08
774.211	-0.02
774.386	-0.14
774.562	-0.07
774.737	0.16
774.912	-0.15
775.087	0.09
775.263	0.02
775.438	-0
775.613	-0.08
775.788	0.03
775.964	0.21
776.139	0.35
776.314	-0.1
776.489	0
776.664	0.08
776.839	-0.1
777.014	0.21
777.19	0.12
777.365	0.27
777.54	0.24
777.715	0.01
777.89	-0.05
778.065	-0.17
778.24	-0.01
778.415	0.15
778.59	-0.07
778.765	-0.1
778.94	-0.1
779.115	-0.09
779.289	0.02
779.464	0.03
779.639	0.07
779.814	-0.11
779.989	-0.08
780.164	0.18
780.339	0.17
780.513	-0.1
780.688	-0.19
780.863	0.01
781.038	0.26
781.212	-0.24
781.387	-0
781.562	0.27
781.737	-0.15
781.911	0.17
782.086	-0.11
782.261	0
782.435	0.36
782.61	0.04
782.784	-0.06
782.959	0.15
783.134	-0.11
783.308	-0.06
783.483	0.01
783.657	0.17
783.832	0.16
784.006	-0.22
784.181	0.03
784.355	0.12
784.53	-0.12
784.704	-0.17
784.878	0.33
785.053	0.16
785.227	0.2
785.402	0.34
785.576	-0.25
785.75	0.03
785.925	-0.12
786.099	0.07
786.273	-0.05
786.448	0.12
786.622	0.17
786.796	0.04
786.97	-0.03
787.145	0.37
787.319	-0.45
787.493	0.07
787.667	-0.34
787.841	-0.07
788.015	0.31
788.19	-0.17
788.364	-0.03
788.538	0.18
788.712	0.13
788.886	0.11
789.06	0.02
789.234	0.34
789.408	-0.34
789.582	0.02
789.756	-0.1
789.93	-0.24
790.104	0.02
790.278	-0.15
790.452	-0.4
790.626	0.25
790.8	0.05
790.973	0.34
791.147	0.26
791.321	0.19
791.495	0.35
791.669	-0
791.843	0.22
792.016	0.05
792.19	0.28
792.364	-0.3
792.538	0.72
792.711	0.36
792.885	-0.01
793.059	-0.06
793.233	-0.25
793.406	0.06
793.58	-0.07
793.754	0.04
793.927	0.08
794.101	0.23
794.274	-0.23
794.448	0.31
794.622	-0.06
794.795	0.48
794.969	-0.02
795.142	0.34
795.316	-0
795.489	-0.17
795.663	0.18
795.836	-0.04
796.009	-0.25
796.183	0.18
796.356	0.12
796.53	0.02
796.703	-0.01
796.876	0.56
797.05	-0
797.223	0.08
797.396	0
797.57	0.16
797.743	0.33
797.916	0.17
798.09	0.01
798.263	0.24
798.436	0.12
798.609	-0.12
798.782	-0.21
798.956	0.26
799.129	0.07
799.302	0.1
799.475	-0.09
799.648	-0.35
799.821	-0.1
799.994	0.03
800.167	-0.38
800.34	-0.01
800.514	0.06
800.687	-0.04
800.86	0.01
801.033	-0.06
801.206	0.03
801.379	-0.46
801.551	0.42
801.724	0.54
801.897	0.2
802.07	-0.21
802.243	-0.34
802.416	-0.1
802.589	-0.14
802.762	0.22
802.935	0.06
803.107	0.32
803.28	0.28
803.453	0.06
803.626	-0.16
803.798	-0.07
803.971	-0.04
804.144	-0.07
804.317	0.24
804.489	0.15
804.662	-0.06
804.835	0.2
805.007	-0.37
805.18	0.39
805.353	0.08
805.525	0.05
805.698	0.02
805.87	0.33
806.043	0.31
806.215	-0.01
806.388	0.12
806.56	0.19
806.733	0.37
806.905	-0.13
807.078	-0.19
807.25	0.04
807.423	0.3
807.595	0.17
807.768	0.04
807.94	0.4
808.112	0.14
808.285	0.32
808.457	-0.15
808.629	0.01
808.802	0.32
808.974	0.14
809.146	-0.06
809.318	-0.41
809.491	0.47
809.663	0.32
809.835	0.29
810.007	0.36
810.18	-0.1
810.352	-0.41
810.524	0.08
810.696	0.17
810.868	0.4
811.04	-0
811.212	-0.02
811.384	0.44
811.556	0.19
811.728	-0.26
811.901	0.3
812.073	-0.09
812.245	0.15
812.417	0.05
812.589	-0.76
812.76	0.2
812.932	0.24
813.104	0.36
813.276	0.27
813.448	0.46
813.62	-0.03
813.792	0.22
813.964	-0.11
814.136	0.14
814.307	0.28
814.479	-0.5
814.651	-0.3
814.823	0.91
814.995	0.15
815.166	0.29
815.338	-0.36
815.51	-0.41
815.681	0.76
815.853	-0.01
816.025	-0.44
816.196	0.57
816.368	0.08
816.54	-0.58
816.711	-0.07
816.883	0.44
817.054	1.15
817.226	-0.45
817.398	0.69
817.569	-0.32
817.741	-0.1
817.912	0.26
818.084	-0.71
818.255	0.52
818.426	-0.19
818.598	-0.45
818.769	0
818.941	0.11
819.112	0.67
819.283	0.28
819.455	-0.47
819.626	0.03
819.798	0.07
819.969	-0.12
820.14	-0.15
820.311	-0.29
820.483	0.37
820.654	0.25
820.825	0.28
820.996	-0.29
821.168	-0.4
821.339	0.13
821.51	-0.35
821.681	-0.16
821.852	0.5
822.023	-0.1
822.195	-0.82
822.366	0.18
822.537	-0.09
822.708	-0.3
822.879	-0.46
823.05	0.38
823.221	-0.1
823.392	0.23
823.563	0.15
823.734	0.16
823.905	-0.16
824.076	-0.29
824.247	-0.28
824.418	-0.15
824.589	0.84
824.759	0.16
824.93	0.11
825.101	-0.35
825.272	0.11
825.443	0.8
825.614	0.81
825.784	-0.98
825.955	1.06
826.126	0.57
826.297	0.24
826.467	0.68
826.638	0.6
826.809	-0.73
826.98	-0.06
827.15	0.98
827.321	0.04
827.492	0.86
827.662	0.1
827.833	1.16
828.003	0.3
828.174	-0.3
828.345	-0.43
828.515	0.12
828.686	0.12
828.856	-0.32
829.027	0.3
829.197	0.24
829.368	-0.09
829.538	-0.23
829.709	-0.52
829.879	0.33
830.049	0.12
830.22	0.08
830.39	-0.37
830.56	0.22
830.731	-0.12
830.901	-0.49
831.072	0.39
831.242	0.33
831.412	0.44
831.582	0.01
831.753	-0.18
831.923	0.74
832.093	0.08
832.263	0.38
832.434	-0.53
832.604	-0.14
832.774	0.54
832.944	0.18
833.114	-0.1
833.284	0.32
833.454	0.23
833.624	-0.28
833.795	-0.17
833.965	0.37
834.135	0.79
834.305	-0.69
834.475	-0.52
834.645	-0.16
834.815	0.02
834.985	0.13
835.155	-0.44
835.325	0.16
835.494	0.21
835.664	0.16
835.834	-0.79
836.004	0.26
836.174	0.62
836.344	-0.26
836.514	-0.63
836.684	-0.06
836.853	-0.37
837.023	-0
837.193	-0.22
837.363	0.5
837.532	0.71
837.702	0.09
837.872	-1.25
838.041	0.78
838.211	1.33
838.381	-0.56
838.55	0.13
838.72	2.45
838.89	1.45
839.059	0.28
839.229	-0.05
839.398	1.55
839.568	0.4
839.738	0.26
839.907	1.33
840.077	0.13
840.246	-0.46
840.416	-0.6
840.585	-0.8
840.755	1.06
840.924	1.46
841.093	-0.51
841.263	0.46
841.432	0.04
841.602	-0.71
841.771	-0.42
841.94	-0.42
842.11	1.45
842.279	0.95
842.448	-0.86
842.617	-0.16
842.787	1.18
842.956	-0.92
843.125	-0.06
843.294	0.3
843.464	1.68
843.633	0.2
843.802	-0.8
843.971	0.28
844.14	1.18
844.309	0.51
844.479	-1.22
844.648	-1
844.817	-0.29
844.986	-0.14
845.155	-0.63
845.324	-0.47
845.493	-0.11
845.662	-1.25
845.831	-0.05
846	0.38
846.169	0.06
846.338	0.78
846.507	0.65
846.676	0.32
846.844	-0.17
847.013	-0.64
847.182	-0.1
847.351	-0.34
847.52	-0.12
847.689	0.15
847.858	0.16
848.026	-0.91
848.195	-0.31
848.364	-0.5
848.533	-0.16
848.701	-0.99
848.87	0.22
849.039	0.29
849.207	0.49
849.376	1.48
849.545	1.3
849.713	-1.43
849.882	-0.51
850.051	-0.27
850.219	0.8
850.388	0.76
850.556	0.48
850.725	-0.9
850.893	0.14
851.062	0.84
851.23	0.17
851.399	-0.92
851.567	-0.31
851.736	-0.02
851.904	-0.17
852.073	0.04
852.241	-0.42
852.41	0.1
852.578	0.12
852.746	-1.69
852.915	0.05
853.083	-0.29
853.251	-0.75
853.42	0.49
853.588	0.57
853.756	0.76
853.924	-0.56
854.093	-0.47
854.261	-0.36
854.429	-0.93
854.597	0.05
854.765	-1.29
854.934	0.14
855.102	0.5
855.27	-0.12
855.438	1.8
855.606	1.62
855.774	1.01
855.942	-2.37
856.11	-1.61
856.278	0.75
856.446	0.79
856.614	0.46
856.782	0.11
856.95	1.76
857.118	0.3
857.286	-0.11
857.454	-1.63
857.622	0.34
857.79	-0.49
857.958	-1.22
858.126	-0.49
858.294	-1.78
858.462	0.08
858.629	-0.37
858.797	-1.33
858.965	-0.59
859.133	0.39
859.301	-0.52
859.468	-0.22
859.636	-0.03
859.804	0.65
859.971	0.4
860.139	-1.22
860.307	0.46
860.474	0.29
860.642	-1.07
860.81	-0.45
860.977	0.27
861.145	1.22
861.313	-0.56
861.48	0.81
861.648	-0.04
861.815	0.46
861.983	-2.15
862.15	0.32
862.318	0.91
862.485	0.49
862.653	-0.93
862.82	-0.54
862.988	1.06
863.155	0.59
863.322	-1.23
863.49	-1.33
863.657	0.28
863.824	2.42
863.992	-0
864.159	0.54
864.326	0.92
864.494	-0.17
864.661	2.18
864.828	-1.1
864.996	1.89
865.163	1.17
865.33	-0.41
865.497	-1.52
865.664	-1.21
865.832	-1.91
865.999	-0.15
866.166	-1.94
866.333	-0.63
866.5	-1.44
866.667	1.14
866.834	0.13
867.001	1.19
867.168	-1.01
867.335	-0.46
867.502	-1.08
867.669	1.09
867.836	0.89
868.003	-0.4
868.17	1.13
868.337	0.1
868.504	2.01
868.671	-0.68
868.838	-0.66
869.005	-0.03
869.172	1.48
869.339	-0.08
869.505	-0.18
869.672	0.69
869.839	0.04
870.006	0.75
870.173	-1.74
870.339	1.43
870.506	2.76
870.673	-1.68
870.84	0.57
871.006	0.06
871.173	-0.94
871.34	-1.22
871.506	-0.56
871.673	1.26
871.839	-1.44
872.006	-0.61
872.173	0.21
872.339	-0.58
872.506	2.35
872.672	0.33
872.839	-2.03
873.005	0.53
873.172	2.08
873.338	1.35
873.505	1.54
873.671	1.23
873.838	1.86
874.004	-1.64
874.171	-0.29
874.337	0.17
874.503	1.56
874.67	0.08
874.836	-0.88
875.002	2.8
875.169	-0.47
875.335	-0.79
875.501	-1.02
875.668	1.23
875.834	0.05
876	-0.77
876.166	1.3
876.332	0.01
876.499	4.71
876.665	-1.05
876.831	0.27
876.997	2.32
877.163	0.29
877.329	0.03
877.495	-1.12
877.662	-0.15
877.828	0.77
877.994	-0.78
878.16	-1.24
878.326	-0.08
878.492	-0.32
878.658	-0.17
878.824	0.7
878.99	1.63
879.156	-2.35
879.322	2.33
879.487	0.63
879.653	1.77
879.819	0.46
879.985	-1.01
880.151	-0.08
880.317	0.43
880.483	0.33
880.648	0.93
880.814	-1.87
880.98	0.5
881.146	-2.74
881.312	-0.9
881.477	0.49
881.643	0.13
881.809	2.73
881.974	0.56
882.14	-1.37
882.306	0.15
882.471	3.73
882.637	-0.51
882.803	0.73
882.968	3.08
883.134	3.74
883.299	0.65
883.465	-0.6
883.63	0.74
883.796	2.51
883.961	0.3
884.127	0.03
884.292	-2.71
884.458	-2.53
884.623	-2.53
