Data from Apollo_Calib_20240827__AbsoluteIrradiance__424__06-13-03-001.txt Node

Date: Wed Aug 28 06:13:03 BST 2024
User: biology
Spectrometer: FLMT08252
Trigger mode: 0
Integration Time (sec): 5.000000E-1
Scans to average: 5
Electric dark correction enabled: true
Nonlinearity correction enabled: false
Boxcar width: 0
XAxis mode: Wavelengths
Number of Pixels in Spectrum: 3648
>>>>>Begin Spectral Data<<<<<
179.588	-0
179.809	-0
180.03	-0
180.251	-0
180.473	-0
180.694	0
180.915	0
181.136	-0
181.357	-0
181.578	-0
181.799	0
182.02	0
182.241	-0
182.462	-0
182.683	0
182.904	-0
183.125	-0
183.346	0
183.567	0
183.788	0
184.009	0
184.23	0
184.451	0
184.672	0
184.892	0
185.113	0
185.334	0
185.555	0
185.776	0
185.996	0
186.217	0
186.438	0
186.659	0
186.879	0
187.1	0
187.321	0
187.541	0
187.762	0
187.983	0
188.203	0
188.424	0
188.644	0
188.865	0
189.086	0
189.306	0
189.527	0
189.747	0
189.968	0
190.188	0
190.409	0
190.629	0
190.849	0
191.07	0
191.29	0
191.511	0
191.731	0
191.951	0
192.172	0
192.392	0
192.612	0
192.833	0
193.053	0
193.273	0
193.493	0
193.714	0
193.934	0
194.154	0
194.374	0
194.594	0
194.815	0
195.035	0
195.255	0
195.475	0
195.695	0
195.915	0
196.135	0
196.355	0
196.575	0
196.795	0
197.015	0
197.235	0
197.455	0
197.675	0
197.895	0
198.115	0
198.335	0
198.555	0
198.775	0
198.995	0
199.214	0
199.434	0
199.654	0
199.874	0
200.094	1.51
200.313	0
200.533	0.35
200.753	0.14
200.973	1.35
201.192	1.36
201.412	-0.46
201.632	0.46
201.851	1.61
202.071	0.5
202.291	0.48
202.51	0.19
202.73	0.91
202.95	0.32
203.169	0.39
203.389	1.07
203.608	1.06
203.828	-0.03
204.047	0.29
204.267	0.86
204.486	0.57
204.706	0.96
204.925	0.63
205.145	0.29
205.364	1.12
205.583	1.2
205.803	0.34
206.022	0.25
206.242	0.84
206.461	0.6
206.68	-0.06
206.9	0.4
207.119	1.15
207.338	0.97
207.557	0.25
207.777	0.43
207.996	0.45
208.215	1.06
208.434	0.22
208.654	-0.09
208.873	0.48
209.092	1
209.311	0.51
209.53	0.29
209.749	0.24
209.968	0.16
210.187	0.32
210.407	-0.05
210.626	0.14
210.845	0.63
211.064	0.26
211.283	0.12
211.502	0.51
211.721	0.45
211.94	0.44
212.159	0.51
212.377	0.34
212.596	0.44
212.815	0.52
213.034	0.49
213.253	0.52
213.472	0.59
213.691	0.22
213.91	0.4
214.128	0.22
214.347	0.72
214.566	-0.18
214.785	-0.11
215.003	0.29
215.222	0.48
215.441	0.18
215.66	-0.06
215.878	0.43
216.097	0.56
216.316	-0.09
216.534	0.21
216.753	0.43
216.972	0.17
217.19	0.15
217.409	0.05
217.627	0.07
217.846	0.17
218.064	0.28
218.283	0.16
218.501	0.71
218.72	0.3
218.938	0.08
219.157	0.18
219.375	0.41
219.594	0.44
219.812	0.1
220.031	0.07
220.249	0.49
220.467	0.6
220.686	0.13
220.904	-0.05
221.122	0.16
221.341	0.47
221.559	0.3
221.777	-0.06
221.995	0.24
222.214	0.37
222.432	0.12
222.65	0.24
222.868	0.18
223.086	0.33
223.305	0.28
223.523	0.1
223.741	0.51
223.959	0.29
224.177	-0.06
224.395	0.24
224.613	0.19
224.831	0.42
225.049	0.09
225.267	0.19
225.485	0.26
225.703	0.12
225.921	0.21
226.139	0.19
226.357	0.25
226.575	0.24
226.793	0.04
227.011	0.82
227.229	0.28
227.447	0.34
227.665	0.18
227.883	0.07
228.1	0.2
228.318	0.39
228.536	-0.04
228.754	0.11
228.972	0.2
229.189	0.29
229.407	0.19
229.625	0.09
229.843	0.26
230.06	0.2
230.278	0.13
230.496	0.14
230.713	0.18
230.931	0.41
231.149	0.03
231.366	0.01
231.584	0.19
231.801	0.47
232.019	0.1
232.236	0.07
232.454	0
232.671	0.33
232.889	0.19
233.106	-0
233.324	0.18
233.541	0.11
233.759	0.2
233.976	0.1
234.194	0.2
234.411	0.2
234.628	0.09
234.846	0.1
235.063	0.14
235.28	0.23
235.498	0.12
235.715	0.04
235.932	0.25
236.149	0.19
236.367	0.02
236.584	0.23
236.801	0.16
237.018	0.35
237.236	0.17
237.453	0.09
237.67	0.21
237.887	0.21
238.104	0.13
238.321	-0.01
238.538	-0.02
238.755	0.26
238.973	-0.1
239.19	0.14
239.407	0.26
239.624	0.2
239.841	-0.04
240.058	0.03
240.275	0.09
240.492	0.07
240.709	0.15
240.925	0.15
241.142	0.06
241.359	0.07
241.576	0.1
241.793	0.08
242.01	0.13
242.227	0.26
242.444	0.17
242.66	0.31
242.877	0.14
243.094	0.12
243.311	0.11
243.527	0.11
243.744	0.26
243.961	0.23
244.178	0.03
244.394	0.11
244.611	0.31
244.828	0.24
245.044	-0.01
245.261	0.16
245.477	0.18
245.694	0.14
245.911	0.16
246.127	0.15
246.344	0.35
246.56	0.13
246.777	0.1
246.993	0.05
247.21	0.13
247.426	0.26
247.643	0.02
247.859	0.01
248.076	0.05
248.292	0.31
248.508	0.1
248.725	0.13
248.941	0.2
249.157	0.22
249.374	0.12
249.59	0.15
249.806	0.2
250.023	0.34
250.239	0.12
250.455	0.06
250.671	0.1
250.888	0.19
251.104	0.19
251.32	0.04
251.536	0.1
251.752	0.13
251.969	0.19
252.185	0.06
252.401	0.29
252.617	0.22
252.833	0.14
253.049	0.21
253.265	0.14
253.481	0.15
253.697	0.15
253.913	0.08
254.129	0.13
254.345	0.12
254.561	0.1
254.777	0.07
254.993	0.14
255.209	0.13
255.425	0.08
255.641	0.06
255.857	0.23
256.073	0.17
256.288	0.07
256.504	0.09
256.72	0.12
256.936	0.25
257.152	0.16
257.367	0
257.583	0.16
257.799	0.18
258.015	0.02
258.23	0.1
258.446	0.3
258.662	0.11
258.877	0.07
259.093	0.07
259.309	0.16
259.524	0.15
259.74	0.04
259.955	0.05
260.171	0.07
260.387	0.14
260.602	0.15
260.818	0.18
261.033	0.09
261.249	0.07
261.464	0.11
261.68	-0.01
261.895	0.13
262.11	0.11
262.326	0.05
262.541	0.05
262.757	0.21
262.972	0.08
263.187	0.13
263.403	0.1
263.618	0.11
263.833	0.13
264.049	0.01
264.264	0.11
264.479	0.18
264.694	0.17
264.91	0.06
265.125	0.11
265.34	0.18
265.555	0.29
265.77	0.18
265.986	0.09
266.201	0.18
266.416	0.21
266.631	0.17
266.846	0.05
267.061	0.13
267.276	0.15
267.491	-0.03
267.706	0.15
267.921	0.26
268.136	0.15
268.351	0.1
268.566	0.06
268.781	0.17
268.996	0.16
269.211	0.14
269.426	0.04
269.641	0.03
269.856	0.16
270.071	0.02
270.285	-0.01
270.5	0.13
270.715	0.16
270.93	0.14
271.145	0.11
271.359	0.14
271.574	0.07
271.789	0.11
272.004	0.05
272.218	0.07
272.433	0.17
272.648	0.07
272.862	0.21
273.077	0.13
273.292	0.12
273.506	0.1
273.721	0.08
273.936	0.14
274.15	0.17
274.365	0.08
274.579	0.14
274.794	0.16
275.008	0.18
275.223	-0.02
275.437	0.15
275.652	0.13
275.866	0.1
276.081	0.12
276.295	0.22
276.509	0.09
276.724	0.06
276.938	0.12
277.153	0.14
277.367	0.14
277.581	-0.03
277.796	0.07
278.01	0.06
278.224	0.17
278.438	0.19
278.653	0.08
278.867	0.1
279.081	-0.06
279.295	0.09
279.51	0.12
279.724	0.01
279.938	0.2
280.152	0.11
280.366	0.03
280.58	0.1
280.794	0.17
281.008	0.15
281.222	0.15
281.437	0.19
281.651	0.14
281.865	0.16
282.079	0.13
282.293	0
282.507	0.03
282.721	0.1
282.935	0.06
283.148	0.01
283.362	0.09
283.576	0.07
283.79	0.08
284.004	0.01
284.218	0.12
284.432	0.09
284.646	0.1
284.859	0.06
285.073	0.09
285.287	0.09
285.501	0.15
285.714	0.13
285.928	0.08
286.142	0.09
286.356	0.05
286.569	0.1
286.783	0.12
286.997	0.17
287.21	0.11
287.424	0.1
287.637	0.07
287.851	0.03
288.065	0.18
288.278	0.09
288.492	0.14
288.705	0.08
288.919	0.11
289.132	0.06
289.346	0.13
289.559	0.02
289.773	0.04
289.986	0.07
290.2	0.11
290.413	0.17
290.626	0.02
290.84	0.05
291.053	0.07
291.267	0.21
291.48	0.1
291.693	0.11
291.906	0.05
292.12	0.07
292.333	0.07
292.546	0.08
292.76	0.16
292.973	0.12
293.186	0.13
293.399	0.07
293.612	0.15
293.826	0.1
294.039	0.08
294.252	0.1
294.465	0.12
294.678	0.12
294.891	0.11
295.104	0.1
295.317	0.08
295.53	0.1
295.743	0.06
295.956	0.11
296.169	0.18
296.382	0.11
296.595	0.09
296.808	0.02
297.021	0.16
297.234	0.16
297.447	0.07
297.66	0.11
297.873	0.13
298.086	0.15
298.299	0.02
298.511	0.04
298.724	0.06
298.937	0.05
299.15	0.06
299.363	0.09
299.575	0.12
299.788	0.11
300.001	0.07
300.213	0.02
300.426	0.06
300.639	0.06
300.852	0.05
301.064	0.17
301.277	0.17
301.489	0.1
301.702	0.13
301.915	0.06
302.127	0.08
302.34	0.13
302.552	0.1
302.765	0.04
302.977	0.12
303.19	0.03
303.402	0.05
303.615	0.07
303.827	0.01
304.04	0.07
304.252	0.12
304.464	0.09
304.677	0.18
304.889	0.19
305.102	0.05
305.314	0.05
305.526	0.16
305.739	0.11
305.951	0.01
306.163	0.04
306.375	0.16
306.588	0.05
306.8	0.05
307.012	0.05
307.224	0.1
307.436	0.09
307.649	0.05
307.861	0.09
308.073	0.11
308.285	0.06
308.497	0.03
308.709	0.03
308.921	0.1
309.133	0.16
309.346	0.08
309.558	0.1
309.77	0.1
309.982	0.14
310.194	0.15
310.406	0.05
310.617	0.15
310.829	0.06
311.041	0.13
311.253	0.06
311.465	0.04
311.677	0.09
311.889	0.08
312.101	0.05
312.313	0.08
312.524	0.11
312.736	0.04
312.948	0.08
313.16	0.15
313.372	0.12
313.583	0.09
313.795	0.06
314.007	0.04
314.218	0.1
314.43	0.06
314.642	0.06
314.853	0.02
315.065	0.12
315.277	0.03
315.488	0.13
315.7	0.13
315.912	0.09
316.123	0.07
316.335	0.06
316.546	0.18
316.758	0.1
316.969	0.06
317.181	0.08
317.392	0.06
317.604	0.12
317.815	0.03
318.026	0.06
318.238	0.07
318.449	0.11
318.661	-0
318.872	-0
319.083	0.02
319.295	0.11
319.506	0.03
319.717	0.13
319.929	0.11
320.14	0.1
320.351	0.1
320.562	0.05
320.774	0.13
320.985	0.07
321.196	0.05
321.407	0.01
321.618	0.12
321.829	0.09
322.041	0.08
322.252	0.08
322.463	0.13
322.674	0.09
322.885	0.02
323.096	0.01
323.307	0.09
323.518	0.07
323.729	0.07
323.94	0.11
324.151	0.1
324.362	0.08
324.573	0.11
324.784	0.04
324.995	0.11
325.206	0.13
325.417	0.04
325.628	0.02
325.838	0.08
326.049	0.11
326.26	0.1
326.471	0.05
326.682	0.1
326.892	0.07
327.103	0
327.314	0.01
327.525	0.1
327.735	0.06
327.946	0.08
328.157	0.06
328.368	0.08
328.578	0.08
328.789	0.15
328.999	0.09
329.21	0.09
329.421	0.09
329.631	0.04
329.842	0.07
330.052	0.11
330.263	0.08
330.473	0.12
330.684	0.09
330.894	0.08
331.105	0.14
331.315	0.09
331.526	0.05
331.736	0.17
331.947	0.07
332.157	0.13
332.367	0.06
332.578	0.12
332.788	0.18
332.999	0.12
333.209	0.07
333.419	0.03
333.629	0.09
333.84	0.12
334.05	0.08
334.26	0.12
334.47	0.11
334.681	0.11
334.891	0.05
335.101	0.08
335.311	0.1
335.521	0.06
335.732	0.05
335.942	0.16
336.152	0.12
336.362	0.09
336.572	0.06
336.782	0.11
336.992	0.1
337.202	0.07
337.412	0.02
337.622	0.13
337.832	0.02
338.042	0.1
338.252	0.01
338.462	0.04
338.672	0.08
338.882	-0.01
339.092	0.05
339.302	0.15
339.511	0.14
339.721	0.08
339.931	-0
340.141	0.16
340.351	0.14
340.561	0.09
340.77	0.11
340.98	0.09
341.19	0.12
341.4	0.04
341.609	0.03
341.819	0.07
342.029	0.04
342.238	0.1
342.448	0.05
342.658	0.13
342.867	0.02
343.077	0.07
343.286	0.1
343.496	0.07
343.706	0.15
343.915	0.04
344.125	0.1
344.334	0.08
344.544	0.04
344.753	0.06
344.963	0.08
345.172	0.04
345.381	0.05
345.591	0.08
345.8	0.12
346.01	0.13
346.219	0.14
346.428	-0.07
346.638	0.06
346.847	0.07
347.056	0.15
347.266	0.05
347.475	0.07
347.684	0.12
347.893	0.09
348.103	0.09
348.312	0.05
348.521	0.11
348.73	0.09
348.94	0.03
349.149	0.09
349.358	0.06
349.567	0.02
349.776	0.03
349.985	0.03
350.194	0.1
350.403	0.09
350.612	0.04
350.821	0.08
351.03	0.07
351.239	0.02
351.448	0.05
351.657	0.09
351.866	0.14
352.075	0.08
352.284	0.12
352.493	0.04
352.702	0.13
352.911	0.09
353.12	0.09
353.329	0.05
353.538	0.14
353.746	0.09
353.955	0.06
354.164	0.11
354.373	0.06
354.582	0.09
354.79	0.13
354.999	0.13
355.208	0.07
355.416	0.18
355.625	0.03
355.834	0.07
356.042	0.09
356.251	0.06
356.46	0.06
356.668	0.11
356.877	0.2
357.085	0.1
357.294	-0
357.503	0.1
357.711	0.05
357.92	0.2
358.128	0.1
358.337	0.05
358.545	0.12
358.754	0.06
358.962	0.12
359.17	0.03
359.379	0.09
359.587	0.09
359.796	0.06
360.004	0.09
360.212	0.12
360.421	0.11
360.629	0.08
360.837	0.05
361.046	0.08
361.254	0.13
361.462	0.1
361.67	0.06
361.879	0.09
362.087	0.14
362.295	0.07
362.503	0.03
362.711	0.03
362.92	0.06
363.128	0.06
363.336	0.05
363.544	-0.01
363.752	0.06
363.96	0.07
364.168	0.06
364.376	0.04
364.584	0.02
364.792	0.1
365	0.12
365.208	0.09
365.416	0.05
365.624	0.09
365.832	0.05
366.04	0.11
366.248	0.1
366.456	0.08
366.664	0.11
366.872	0.1
367.079	0.09
367.287	0.07
367.495	0.11
367.703	0.08
367.911	0.07
368.118	0.05
368.326	0.1
368.534	0.03
368.742	0.14
368.949	0.01
369.157	0.04
369.365	0.11
369.572	0.03
369.78	0.08
369.988	0.17
370.195	0.08
370.403	0.11
370.61	0.07
370.818	0.09
371.026	0.15
371.233	0.04
371.441	0.05
371.648	0.04
371.856	0.1
372.063	0.1
372.271	0.05
372.478	0.07
372.685	0.03
372.893	0.14
373.1	0.05
373.308	0.02
373.515	0.16
373.722	0.13
373.93	0.1
374.137	0.13
374.344	0.17
374.552	0.14
374.759	0.11
374.966	0.11
375.173	0.05
375.381	0.13
375.588	0.08
375.795	0.03
376.002	0.04
376.209	0.05
376.417	0.09
376.624	0.1
376.831	0.03
377.038	0.13
377.245	0
377.452	0.09
377.659	0.11
377.866	0.09
378.073	0.06
378.28	0.08
378.487	0.1
378.694	0.11
378.901	0.07
379.108	0.1
379.315	0.15
379.522	0.17
379.729	0.1
379.936	0.05
380.143	0.04
380.35	0.07
380.557	0.05
380.763	0.09
380.97	0.05
381.177	0.11
381.384	0.12
381.591	0.02
381.797	0.06
382.004	0.09
382.211	0.13
382.418	0.07
382.624	0.13
382.831	0.14
383.038	0.08
383.244	0.08
383.451	0.06
383.658	0.12
383.864	0.08
384.071	0.04
384.277	0.16
384.484	0.06
384.69	0.09
384.897	0.07
385.103	0.08
385.31	0.04
385.516	0.09
385.723	0.06
385.929	0.13
386.136	0.08
386.342	0.1
386.549	0.04
386.755	0.13
386.961	0.08
387.168	0.08
387.374	0.1
387.58	0.11
387.787	0.02
387.993	0.12
388.199	0.06
388.406	0.09
388.612	0.08
388.818	0.04
389.024	0.07
389.231	0.08
389.437	0.16
389.643	0.11
389.849	0.09
390.055	0.05
390.261	0.08
390.467	0.11
390.674	0.01
390.88	0.08
391.086	0.12
391.292	0.05
391.498	0.09
391.704	0.08
391.91	0.07
392.116	0.07
392.322	-0
392.528	0.09
392.734	0.07
392.94	0.09
393.146	0.07
393.352	0.08
393.557	0.1
393.763	0.06
393.969	0.11
394.175	0.11
394.381	0.11
394.587	0.05
394.792	0.12
394.998	0.15
395.204	0.14
395.41	0.04
395.615	0.16
395.821	0.12
396.027	0.1
396.233	0.05
396.438	0.11
396.644	0.16
396.85	0.16
397.055	0.06
397.261	0.11
397.466	0.2
397.672	0.14
397.878	0.13
398.083	0.11
398.289	0.08
398.494	0.13
398.7	0.11
398.905	0.03
399.111	0.16
399.316	0.07
399.522	0.12
399.727	0.11
399.932	0.1
400.138	0.08
400.343	0.14
400.549	0.12
400.754	0.08
400.959	0.12
401.165	0.11
401.37	0.11
401.575	0.18
401.78	0.13
401.986	0.09
402.191	0.09
402.396	0.15
402.601	0.13
402.807	0.1
403.012	0.14
403.217	0.16
403.422	0.11
403.627	0.07
403.832	0.12
404.037	0.13
404.243	0.13
404.448	0.11
404.653	0.11
404.858	0.13
405.063	0.15
405.268	0.05
405.473	0.09
405.678	0.12
405.883	0.2
406.088	0.16
406.293	0.05
406.498	0.06
406.703	0.16
406.907	0.08
407.112	0.06
407.317	0.15
407.522	0.13
407.727	0.05
407.932	0.08
408.136	0.14
408.341	0.07
408.546	0.07
408.751	0.12
408.956	0.14
409.16	0.17
409.365	0.13
409.57	0.1
409.774	0.13
409.979	0.18
410.184	0.13
410.388	0.11
410.593	0.12
410.798	0.15
411.002	0.11
411.207	0.14
411.411	0.15
411.616	0.05
411.82	0.1
412.025	0.13
412.229	0.06
412.434	0.18
412.638	0.14
412.843	0.08
413.047	0.12
413.252	0.08
413.456	0.09
413.66	0.16
413.865	0.11
414.069	0.18
414.273	0.15
414.478	0.13
414.682	0.08
414.886	0.1
415.091	0.05
415.295	0.09
415.499	0.12
415.703	0.08
415.908	0.15
416.112	0.07
416.316	0.15
416.52	0.1
416.724	0.04
416.929	0.12
417.133	0.22
417.337	0.1
417.541	0.09
417.745	0.08
417.949	0.19
418.153	0.09
418.357	0.11
418.561	0.18
418.765	0.12
418.969	0.23
419.173	0.18
419.377	0.12
419.581	0.23
419.785	0.14
419.989	0.05
420.193	0.13
420.397	0.09
420.601	0.23
420.804	0.15
421.008	0.11
421.212	0.13
421.416	0.17
421.62	0.12
421.823	0.13
422.027	0.24
422.231	0.11
422.435	0.12
422.638	0.14
422.842	0.16
423.046	0.09
423.249	0.2
423.453	0.16
423.657	0.18
423.86	0.15
424.064	0.11
424.268	0.2
424.471	0.16
424.675	0.28
424.878	0.22
425.082	0.14
425.285	0.21
425.489	0.17
425.692	0.14
425.896	0.08
426.099	0.17
426.303	0.13
426.506	0.08
426.71	0.15
426.913	0.15
427.116	0.24
427.32	0.13
427.523	0.12
427.726	0.22
427.93	0.09
428.133	0.14
428.336	0.12
428.54	0.13
428.743	0.17
428.946	0.17
429.149	0.16
429.353	0.19
429.556	0.15
429.759	0.13
429.962	0.11
430.165	0.14
430.368	0.15
430.571	0.12
430.775	0.17
430.978	0.1
431.181	0.16
431.384	0.18
431.587	0.15
431.79	0.13
431.993	0.07
432.196	0.12
432.399	0.11
432.602	0.17
432.805	0.16
433.008	0.11
433.211	0.12
433.414	0.18
433.616	0.19
433.819	0.16
434.022	0.09
434.225	0.23
434.428	0.19
434.631	0.24
434.833	0.19
435.036	0.16
435.239	0.21
435.442	0.18
435.645	0.12
435.847	0.17
436.05	0.25
436.253	0.17
436.455	0.12
436.658	0.15
436.861	0.15
437.063	0.11
437.266	0.13
437.468	0.17
437.671	0.26
437.874	0.19
438.076	0.13
438.279	0.11
438.481	0.17
438.684	0.13
438.886	0.21
439.089	0.08
439.291	0.17
439.494	0.18
439.696	0.09
439.899	0.17
440.101	0.17
440.303	0.08
440.506	0.23
440.708	0.17
440.91	0.21
441.113	0.12
441.315	0.21
441.517	0.07
441.72	0.2
441.922	0.13
442.124	0.1
442.326	0.16
442.529	0.22
442.731	0.1
442.933	0.25
443.135	0.17
443.337	0.15
443.539	0.16
443.742	0.13
443.944	0.16
444.146	0.14
444.348	0.09
444.55	0.15
444.752	0.17
444.954	0.12
445.156	0.14
445.358	0.13
445.56	0.2
445.762	0.13
445.964	0.2
446.166	0.12
446.368	0.17
446.57	0.18
446.772	0.18
446.974	0.14
447.175	0.14
447.377	0.09
447.579	0.14
447.781	0.12
447.983	0.19
448.184	0.15
448.386	0.21
448.588	0.1
448.79	0.19
448.991	0.17
449.193	0.17
449.395	0.18
449.597	0.22
449.798	0.16
450	0.19
450.202	0.17
450.403	0.17
450.605	0.19
450.806	0.17
451.008	0.12
451.21	0.2
451.411	0.19
451.613	0.15
451.814	0.2
452.016	0.19
452.217	0.17
452.419	0.24
452.62	0.21
452.821	0.19
453.023	0.26
453.224	0.24
453.426	0.15
453.627	0.17
453.828	0.16
454.03	0.17
454.231	0.21
454.432	0.14
454.634	0.31
454.835	0.16
455.036	0.12
455.238	0.21
455.439	0.25
455.64	0.15
455.841	0.16
456.042	0.29
456.244	0.25
456.445	0.12
456.646	0.15
456.847	0.17
457.048	0.26
457.249	0.24
457.45	0.42
457.651	0.13
457.852	0.28
458.054	0.24
458.255	0.19
458.456	0.29
458.657	0.2
458.858	0.18
459.058	0.22
459.259	0.22
459.46	0.16
459.661	0.22
459.862	0.35
460.063	0.16
460.264	0.26
460.465	0.19
460.666	0.36
460.866	0.19
461.067	0.21
461.268	0.19
461.469	0.18
461.67	0.25
461.87	0.26
462.071	0.17
462.272	0.15
462.473	0.24
462.673	0.27
462.874	0.19
463.075	0.22
463.275	0.23
463.476	0.21
463.676	0.25
463.877	0.26
464.078	0.27
464.278	0.33
464.479	0.22
464.679	0.2
464.88	0.22
465.08	0.35
465.281	0.21
465.481	0.24
465.682	0.24
465.882	0.25
466.083	0.27
466.283	0.25
466.483	0.21
466.684	0.21
466.884	0.19
467.085	0.27
467.285	0.3
467.485	0.21
467.686	0.23
467.886	0.3
468.086	0.29
468.286	0.26
468.487	0.31
468.687	0.24
468.887	0.3
469.087	0.33
469.287	0.27
469.488	0.23
469.688	0.32
469.888	0.31
470.088	0.35
470.288	0.35
470.488	0.39
470.688	0.27
470.888	0.31
471.088	0.24
471.288	0.35
471.488	0.36
471.688	0.33
471.888	0.26
472.088	0.38
472.288	0.37
472.488	0.3
472.688	0.32
472.888	0.35
473.088	0.39
473.288	0.35
473.488	0.35
473.688	0.45
473.887	0.39
474.087	0.36
474.287	0.4
474.487	0.38
474.687	0.43
474.886	0.38
475.086	0.39
475.286	0.42
475.486	0.45
475.685	0.39
475.885	0.41
476.085	0.48
476.284	0.47
476.484	0.46
476.684	0.5
476.883	0.51
477.083	0.45
477.282	0.49
477.482	0.56
477.681	0.54
477.881	0.51
478.08	0.49
478.28	0.49
478.479	0.55
478.679	0.57
478.878	0.52
479.078	0.54
479.277	0.59
479.477	0.55
479.676	0.62
479.875	0.59
480.075	0.55
480.274	0.63
480.473	0.62
480.673	0.63
480.872	0.73
481.071	0.67
481.271	0.68
481.47	0.69
481.669	0.67
481.868	0.7
482.067	0.69
482.267	0.71
482.466	0.73
482.665	0.74
482.864	0.73
483.063	0.75
483.262	0.82
483.461	0.88
483.661	0.9
483.86	0.88
484.059	0.89
484.258	0.88
484.457	0.91
484.656	0.88
484.855	1
485.054	0.85
485.253	0.96
485.452	0.94
485.651	1.04
485.849	1.05
486.048	1.05
486.247	1.04
486.446	1.11
486.645	1.09
486.844	1.12
487.043	1.12
487.241	1.18
487.44	1.16
487.639	1.25
487.838	1.28
488.037	1.25
488.235	1.38
488.434	1.35
488.633	1.3
488.831	1.43
489.03	1.45
489.229	1.44
489.427	1.44
489.626	1.49
489.825	1.53
490.023	1.56
490.222	1.58
490.42	1.61
490.619	1.68
490.817	1.68
491.016	1.71
491.214	1.79
491.413	1.8
491.611	1.8
491.81	1.82
492.008	1.85
492.207	1.96
492.405	1.94
492.604	1.92
492.802	2.03
493	2.08
493.199	2.15
493.397	2.2
493.595	2.23
493.794	2.25
493.992	2.37
494.19	2.33
494.388	2.43
494.587	2.39
494.785	2.45
494.983	2.37
495.181	2.52
495.379	2.6
495.578	2.69
495.776	2.7
495.974	2.73
496.172	2.76
496.37	2.96
496.568	2.98
496.766	2.96
496.964	3.13
497.162	3.13
497.36	3.2
497.558	3.25
497.756	3.3
497.954	3.33
498.152	3.42
498.35	3.55
498.548	3.55
498.746	3.61
498.944	3.67
499.142	3.75
499.34	3.83
499.538	4.02
499.736	3.92
499.933	4.04
500.131	4.14
500.329	4.34
500.527	4.34
500.725	4.56
500.922	4.54
501.12	4.58
501.318	4.72
501.516	4.73
501.713	4.91
501.911	4.89
502.109	4.9
502.306	5.16
502.504	5.12
502.701	5.22
502.899	5.45
503.097	5.64
503.294	5.51
503.492	5.79
503.689	5.87
503.887	5.92
504.084	6.06
504.282	6.09
504.479	6.11
504.677	6.39
504.874	6.46
505.072	6.43
505.269	6.73
505.466	6.74
505.664	7
505.861	6.92
506.059	7.13
506.256	7.23
506.453	7.38
506.651	7.57
506.848	7.73
507.045	7.66
507.242	7.76
507.44	7.94
507.637	8.1
507.834	8.11
508.031	8.44
508.229	8.43
508.426	8.36
508.623	8.67
508.82	8.89
509.017	8.93
509.214	9
509.411	9.25
509.608	9.18
509.805	9.52
510.003	9.57
510.2	9.69
510.397	9.98
510.594	9.93
510.791	10.1
510.988	10.14
511.184	10.24
511.381	10.07
511.578	10.51
511.775	10.77
511.972	10.62
512.169	10.93
512.366	10.96
512.563	11.23
512.76	11.37
512.956	11.51
513.153	11.38
513.35	11.4
513.547	11.54
513.744	11.8
513.94	11.85
514.137	12
514.334	12.02
514.53	12.17
514.727	12.67
514.924	12.39
515.12	12.46
515.317	12.56
515.514	12.45
515.71	12.51
515.907	12.87
516.103	12.95
516.3	12.78
516.497	13.14
516.693	13.13
516.89	13.13
517.086	13.24
517.283	13.3
517.479	13
517.676	13.45
517.872	13.53
518.068	13.55
518.265	13.51
518.461	13.36
518.658	13.68
518.854	13.61
519.05	13.8
519.247	13.92
519.443	13.63
519.639	14.02
519.836	13.67
520.032	13.58
520.228	13.87
520.424	13.72
520.621	13.72
520.817	13.81
521.013	13.65
521.209	13.95
521.405	13.89
521.601	13.75
521.798	13.67
521.994	13.6
522.19	13.5
522.386	13.51
522.582	13.61
522.778	13.8
522.974	13.38
523.17	13.4
523.366	13.21
523.562	13.32
523.758	13.35
523.954	12.94
524.15	13.21
524.346	13.13
524.542	13.16
524.738	12.97
524.934	13.12
525.129	12.85
525.325	12.64
525.521	12.55
525.717	12.85
525.913	12.48
526.109	12.4
526.304	12.45
526.5	12.35
526.696	12.24
526.892	12.07
527.087	12.31
527.283	12.1
527.479	11.92
527.674	11.51
527.87	11.73
528.066	11.59
528.261	11.62
528.457	11.23
528.653	11.47
528.848	11.32
529.044	11.32
529.239	10.88
529.435	10.83
529.63	10.63
529.826	10.63
530.021	10.52
530.217	10.5
530.412	10.32
530.608	10.3
530.803	10.16
530.999	9.9
531.194	9.91
531.389	9.95
531.585	9.81
531.78	9.87
531.975	9.55
532.171	9.5
532.366	9.45
532.561	9.35
532.757	9.2
532.952	9.35
533.147	8.93
533.342	9.01
533.538	8.77
533.733	8.96
533.928	8.39
534.123	8.54
534.318	8.48
534.513	8.34
534.709	8.43
534.904	8.28
535.099	8.24
535.294	8.1
535.489	8.01
535.684	7.87
535.879	7.72
536.074	7.76
536.269	7.7
536.464	7.65
536.659	7.38
536.854	7.34
537.049	7.38
537.244	7.25
537.439	7.12
537.634	7.11
537.828	6.99
538.023	6.95
538.218	6.86
538.413	6.71
538.608	6.71
538.803	6.63
538.997	6.58
539.192	6.46
539.387	6.37
539.582	6.35
539.776	6.18
539.971	6.24
540.166	6.17
540.36	6.06
540.555	6.12
540.75	5.99
540.944	5.93
541.139	5.84
541.334	5.76
541.528	5.78
541.723	5.68
541.917	5.64
542.112	5.5
542.306	5.35
542.501	5.31
542.695	5.34
542.89	5.19
543.084	5.2
543.279	5.18
543.473	5.13
543.668	5.11
543.862	4.91
544.056	4.86
544.251	4.94
544.445	4.87
544.64	4.88
544.834	4.58
545.028	4.49
545.222	4.62
545.417	4.7
545.611	4.52
545.805	4.49
546	4.31
546.194	4.34
546.388	4.3
546.582	4.21
546.776	4.18
546.97	4.17
547.165	4.08
547.359	4.08
547.553	3.95
547.747	3.94
547.941	4
548.135	3.84
548.329	3.82
548.523	3.76
548.717	3.67
548.911	3.63
549.105	3.62
549.299	3.58
549.493	3.57
549.687	3.43
549.881	3.46
550.075	3.39
550.269	3.26
550.463	3.37
550.657	3.23
550.85	3.2
551.044	3.17
551.238	3.17
551.432	3.1
551.626	3.03
551.82	3.03
552.013	2.96
552.207	2.94
552.401	2.9
552.594	2.86
552.788	2.79
552.982	2.79
553.176	2.69
553.369	2.78
553.563	2.71
553.756	2.67
553.95	2.63
554.144	2.59
554.337	2.65
554.531	2.42
554.724	2.49
554.918	2.46
555.111	2.35
555.305	2.4
555.498	2.39
555.692	2.35
555.885	2.29
556.079	2.24
556.272	2.23
556.466	2.22
556.659	2.12
556.852	2.15
557.046	2.09
557.239	2.07
557.432	2.03
557.626	2.04
557.819	2
558.012	2.01
558.206	1.97
558.399	1.93
558.592	1.92
558.785	1.85
558.979	1.86
559.172	1.83
559.365	1.81
559.558	1.75
559.751	1.71
559.944	1.78
560.138	1.7
560.331	1.68
560.524	1.7
560.717	1.65
560.91	1.61
561.103	1.6
561.296	1.6
561.489	1.57
561.682	1.53
561.875	1.6
562.068	1.57
562.261	1.47
562.454	1.55
562.647	1.46
562.84	1.48
563.032	1.39
563.225	1.38
563.418	1.35
563.611	1.35
563.804	1.33
563.997	1.31
564.19	1.25
564.382	1.33
564.575	1.21
564.768	1.26
564.961	1.25
565.153	1.19
565.346	1.23
565.539	1.23
565.731	1.2
565.924	1.18
566.117	1.19
566.309	1.13
566.502	1.12
566.695	1.09
566.887	1.11
567.08	1.08
567.272	1.06
567.465	1.03
567.657	1.04
567.85	1.02
568.042	1.03
568.235	1.02
568.427	0.98
568.62	0.97
568.812	0.98
569.005	0.95
569.197	0.88
569.389	0.97
569.582	0.93
569.774	0.94
569.966	0.85
570.159	0.84
570.351	0.83
570.543	0.82
570.736	0.88
570.928	0.81
571.12	0.82
571.312	0.77
571.505	0.75
571.697	0.82
571.889	0.76
572.081	0.77
572.273	0.76
572.465	0.82
572.658	0.74
572.85	0.75
573.042	0.72
573.234	0.7
573.426	0.73
573.618	0.67
573.81	0.73
574.002	0.73
574.194	0.7
574.386	0.65
574.578	0.58
574.77	0.63
574.962	0.63
575.154	0.6
575.346	0.63
575.538	0.62
575.729	0.57
575.921	0.6
576.113	0.61
576.305	0.63
576.497	0.59
576.689	0.57
576.88	0.53
577.072	0.59
577.264	0.55
577.456	0.56
577.647	0.48
577.839	0.51
578.031	0.57
578.223	0.5
578.414	0.48
578.606	0.52
578.798	0.5
578.989	0.47
579.181	0.5
579.372	0.49
579.564	0.45
579.755	0.49
579.947	0.47
580.139	0.48
580.33	0.38
580.522	0.42
580.713	0.37
580.905	0.43
581.096	0.46
581.287	0.42
581.479	0.44
581.67	0.39
581.862	0.39
582.053	0.39
582.244	0.36
582.436	0.39
582.627	0.4
582.818	0.36
583.01	0.36
583.201	0.42
583.392	0.4
583.583	0.37
583.775	0.34
583.966	0.35
584.157	0.36
584.348	0.37
584.54	0.3
584.731	0.36
584.922	0.32
585.113	0.3
585.304	0.32
585.495	0.35
585.686	0.34
585.877	0.33
586.068	0.35
586.259	0.32
586.45	0.32
586.641	0.28
586.832	0.28
587.023	0.32
587.214	0.29
587.405	0.29
587.596	0.26
587.787	0.36
587.978	0.28
588.169	0.25
588.36	0.26
588.551	0.28
588.742	0.26
588.932	0.28
589.123	0.28
589.314	0.3
589.505	0.28
589.696	0.26
589.886	0.25
590.077	0.23
590.268	0.26
590.458	0.21
590.649	0.21
590.84	0.3
591.03	0.22
591.221	0.2
591.412	0.19
591.602	0.3
591.793	0.26
591.984	0.21
592.174	0.23
592.365	0.33
592.555	0.21
592.746	0.23
592.936	0.24
593.127	0.23
593.317	0.24
593.508	0.22
593.698	0.21
593.889	0.22
594.079	0.22
594.269	0.18
594.46	0.21
594.65	0.19
594.84	0.21
595.031	0.19
595.221	0.2
595.411	0.17
595.602	0.23
595.792	0.17
595.982	0.19
596.172	0.23
596.363	0.19
596.553	0.2
596.743	0.2
596.933	0.17
597.123	0.19
597.314	0.15
597.504	0.19
597.694	0.2
597.884	0.18
598.074	0.15
598.264	0.15
598.454	0.18
598.644	0.16
598.834	0.2
599.024	0.13
599.214	0.15
599.404	0.21
599.594	0.17
599.784	0.13
599.974	0.19
600.164	0.18
600.354	0.15
600.544	0.15
600.734	0.18
600.924	0.17
601.114	0.15
601.303	0.15
601.493	0.22
601.683	0.14
601.873	0.17
602.063	0.1
602.252	0.2
602.442	0.12
602.632	0.13
602.821	0.1
603.011	0.16
603.201	0.15
603.39	0.11
603.58	0.12
603.77	0.13
603.959	0.19
604.149	0.14
604.339	0.11
604.528	0.18
604.718	0.16
604.907	0.11
605.097	0.12
605.286	0.11
605.476	0.15
605.665	0.15
605.855	0.13
606.044	0.13
606.234	0.15
606.423	0.14
606.612	0.09
606.802	0.13
606.991	0.14
607.181	0.13
607.37	0.09
607.559	0.11
607.749	0.1
607.938	0.13
608.127	0.1
608.316	0.11
608.506	0.15
608.695	0.13
608.884	0.09
609.073	0.12
609.263	0.16
609.452	0.11
609.641	0.14
609.83	0.09
610.019	0.13
610.208	0.08
610.397	0.1
610.586	0.15
610.775	0.1
610.965	0.1
611.154	0.1
611.343	0.13
611.532	0.09
611.721	0.1
611.91	0.09
612.099	0.11
612.287	0.1
612.476	0.1
612.665	0.11
612.854	0.1
613.043	0.15
613.232	0.11
613.421	0.09
613.61	0.14
613.798	0.09
613.987	0.15
614.176	0.11
614.365	0.09
614.554	0.1
614.742	0.14
614.931	0.12
615.12	0.13
615.309	0.11
615.497	0.11
615.686	0.07
615.875	0.12
616.063	0.1
616.252	0.09
616.44	0.07
616.629	0.13
616.818	0.11
617.006	0.11
617.195	0.08
617.383	0.08
617.572	0.09
617.76	0.07
617.949	0.1
618.137	0.1
618.326	0.11
618.514	0.09
618.703	0.05
618.891	0.16
619.079	0.04
619.268	0.12
619.456	0.08
619.644	0.14
619.833	0.08
620.021	0.09
620.209	0.04
620.398	0.1
620.586	0.1
620.774	0.12
620.962	0.1
621.151	0.15
621.339	0.11
621.527	0.07
621.715	0.05
621.903	0.04
622.092	0.07
622.28	0.1
622.468	0.09
622.656	0.07
622.844	0.1
623.032	0.1
623.22	0.07
623.408	0.15
623.596	0.1
623.784	0.12
623.972	0.06
624.16	0.08
624.348	0.15
624.536	0.06
624.724	0.07
624.912	0.13
625.1	0.13
625.288	0.06
625.476	0.08
625.664	0.15
625.851	0.07
626.039	0.07
626.227	0.11
626.415	0.09
626.603	0.04
626.79	0.09
626.978	0.06
627.166	0.11
627.354	0.08
627.541	0.07
627.729	0.04
627.917	0.1
628.104	0.12
628.292	0.08
628.48	0.08
628.667	0.09
628.855	0.06
629.042	0.1
629.23	0.08
629.418	0.06
629.605	0.08
629.793	0.1
629.98	0.06
630.168	0.08
630.355	0.07
630.543	0.09
630.73	0.04
630.917	0.09
631.105	0.16
631.292	0.08
631.48	0.05
631.667	0.13
631.854	0.09
632.042	0.05
632.229	0.04
632.416	0.09
632.604	0.08
632.791	0.05
632.978	0.08
633.165	0.06
633.353	0.13
633.54	0.12
633.727	0
633.914	0.06
634.101	0.01
634.289	0.12
634.476	0.03
634.663	0.07
634.85	0.1
635.037	0.01
635.224	0.01
635.411	0.13
635.598	0.14
635.785	0.06
635.972	0.08
636.159	0.09
636.346	0.01
636.533	0.08
636.72	0.06
636.907	0.06
637.094	0.08
637.281	0.04
637.468	0.12
637.655	0.04
637.842	0.07
638.029	0.06
638.215	0.08
638.402	0.05
638.589	0.04
638.776	0.05
638.963	0.06
639.149	0.12
639.336	0.14
639.523	0.09
639.709	0.09
639.896	0.05
640.083	0.12
640.27	0.08
640.456	0.05
640.643	0.08
640.829	0.01
641.016	0.03
641.203	0.05
641.389	0.13
641.576	0.08
641.762	0.07
641.949	0.02
642.135	0.07
642.322	0.11
642.508	0.03
642.695	0.07
642.881	0.08
643.068	0.07
643.254	0.07
643.441	0.09
643.627	0.08
643.813	0.06
644	0.09
644.186	0.05
644.372	0.01
644.559	0.09
644.745	0.06
644.931	0.05
645.118	0.08
645.304	0.06
645.49	0.06
645.676	0.07
645.862	0.08
646.049	0.13
646.235	0.07
646.421	0.12
646.607	0.13
646.793	0.09
646.979	0.06
647.165	0.07
647.352	0.04
647.538	0.13
647.724	0.06
647.91	0.06
648.096	0.14
648.282	0.1
648.468	0.08
648.654	0.09
648.84	0.07
649.026	0.08
649.212	0.07
649.397	0.05
649.583	0.01
649.769	0.11
649.955	0.08
650.141	0.08
650.327	0.09
650.513	0.06
650.698	0.09
650.884	-0.01
651.07	0.08
651.256	0.04
651.442	0.06
651.627	0.08
651.813	0.08
651.999	0.09
652.184	0.08
652.37	0.04
652.556	0.05
652.741	0.11
652.927	0.01
653.113	0.08
653.298	0.07
653.484	0.05
653.669	0.04
653.855	0.05
654.04	0.09
654.226	0.07
654.412	0.06
654.597	-0
654.782	0.11
654.968	0.09
655.153	0.1
655.339	0.07
655.524	0.03
655.71	0.12
655.895	0.04
656.08	0.07
656.266	0.08
656.451	0.07
656.636	0.05
656.822	0.08
657.007	0.03
657.192	0.05
657.378	0.03
657.563	0.08
657.748	0.11
657.933	0.1
658.118	0.06
658.304	0.05
658.489	0.09
658.674	0.08
658.859	0.05
659.044	0.07
659.229	0.08
659.414	0.06
659.599	0.06
659.785	0
659.97	0.04
660.155	0.08
660.34	0.08
660.525	0.08
660.71	0.06
660.895	0.1
661.08	0.06
661.264	0.05
661.449	0.13
661.634	0.11
661.819	0.1
662.004	0.1
662.189	-0.01
662.374	0.06
662.559	0.03
662.743	-0
662.928	0.05
663.113	0.01
663.298	-0
663.483	0.03
663.667	0.08
663.852	0.03
664.037	0.13
664.221	0.05
664.406	0.11
664.591	0.09
664.775	0.07
664.96	0.07
665.145	0.08
665.329	0.1
665.514	0.03
665.698	0.08
665.883	-0.01
666.068	0.14
666.252	0.06
666.437	0.05
666.621	0.04
666.806	0.07
666.99	0.08
667.174	0.07
667.359	0.15
667.543	0.03
667.728	0.07
667.912	0.01
668.096	0.1
668.281	0.08
668.465	0.08
668.649	0.05
668.834	0.06
669.018	0.04
669.202	0.1
669.387	0.06
669.571	0.14
669.755	0.03
669.939	0.06
670.124	0.09
670.308	0.13
670.492	0.11
670.676	0.09
670.86	0.1
671.044	0.01
671.228	0.14
671.413	0.06
671.597	0.08
671.781	0.03
671.965	0.11
672.149	0.07
672.333	0.09
672.517	0.04
672.701	0.09
672.885	0.07
673.069	0.02
673.253	0.14
673.437	0.07
673.621	0.07
673.804	0.12
673.988	0.07
674.172	0.09
674.356	0.05
674.54	0.06
674.724	0.16
674.908	0.11
675.091	0.13
675.275	0.13
675.459	0.12
675.643	0.14
675.826	0.1
676.01	0.09
676.194	0.1
676.377	0.15
676.561	0.13
676.745	0.11
676.928	0.1
677.112	0.14
677.296	0.05
677.479	0.1
677.663	0.08
677.846	0.11
678.03	0.12
678.213	0.08
678.397	0.11
678.58	0.11
678.764	0.08
678.947	0.06
679.131	0.1
679.314	0.11
679.498	0.1
679.681	0.1
679.865	0.2
680.048	0.11
680.231	0.12
680.415	0.05
680.598	0.07
680.781	0.05
680.965	0.01
681.148	0.09
681.331	0.04
681.514	0.12
681.698	0.05
681.881	0.08
682.064	0.1
682.247	0.08
682.43	0.02
682.614	0.14
682.797	0.16
682.98	0.13
683.163	0.04
683.346	0.11
683.529	0.07
683.712	0.01
683.895	0.1
684.078	0.05
684.261	0.04
684.444	0.12
684.627	0.09
684.81	0.03
684.993	0.16
685.176	0.14
685.359	0.03
685.542	0.08
685.725	0.13
685.908	0.1
686.091	0.08
686.274	0.15
686.457	0.12
686.639	0.06
686.822	0.16
687.005	0.12
687.188	0.09
687.371	0.18
687.553	0.12
687.736	0.11
687.919	0.16
688.102	0.16
688.284	0.06
688.467	0.1
688.65	0.09
688.832	0.09
689.015	0.09
689.197	-0.01
689.38	0.14
689.563	0.12
689.745	0.06
689.928	0.03
690.11	0.11
690.293	0.1
690.475	0.05
690.658	0.09
690.84	0.11
691.023	0.04
691.205	0.06
691.388	0.08
691.57	0.1
691.752	0.1
691.935	-0.01
692.117	0.06
692.3	0.04
692.482	0.08
692.664	0.06
692.847	0.07
693.029	0.13
693.211	0.1
693.393	0.05
693.576	0.02
693.758	0.05
693.94	0.1
694.122	0.09
694.304	0.03
694.487	0.02
694.669	0.17
694.851	0.07
695.033	0.1
695.215	0.09
695.397	0.08
695.579	0.09
695.761	0.07
695.943	-0
696.125	0.14
696.308	0.16
696.49	-0.04
696.671	0.23
696.853	0.06
697.035	0.18
697.217	0.07
697.399	0.12
697.581	0.05
697.763	0.08
697.945	0.04
698.127	0.09
698.309	0.13
698.491	0.13
698.672	0.09
698.854	0.1
699.036	0.13
699.218	0.07
699.399	0.14
699.581	0.11
699.763	0.12
699.945	0.05
700.126	0.03
700.308	0.13
700.49	0.08
700.671	0.05
700.853	0.03
701.035	0.05
701.216	0.14
701.398	0.05
701.579	0.03
701.761	0.13
701.943	0.04
702.124	0.05
702.306	0.06
702.487	0.23
702.669	0.06
702.85	0.1
703.031	0.03
703.213	0.2
703.394	0.12
703.576	0.06
703.757	0.17
703.938	0.16
704.12	0.27
704.301	0.08
704.483	0.05
704.664	0.12
704.845	0.19
705.026	0.13
705.208	0.01
705.389	0.14
705.57	0.05
705.751	0.08
705.933	0.07
706.114	0.12
706.295	0.06
706.476	0.06
706.657	0.13
706.838	0.13
707.02	0.16
707.201	0.1
707.382	0.03
707.563	0.13
707.744	0.06
707.925	0.06
708.106	0.03
708.287	0.13
708.468	0.2
708.649	0.07
708.83	0.13
709.011	0.05
709.192	0.17
709.373	-0.01
709.554	0.05
709.734	0.15
709.915	0.17
710.096	0.1
710.277	-0.14
710.458	0.1
710.639	0.14
710.819	0.03
711	0.07
711.181	0.12
711.362	0.1
711.542	0.11
711.723	0.06
711.904	0.17
712.085	0.04
712.265	0.14
712.446	0.1
712.627	0.02
712.807	0.14
712.988	0.04
713.168	0.01
713.349	0.14
713.53	-0.05
713.71	0.09
713.891	0.02
714.071	0.06
714.252	0.08
714.432	0.03
714.613	0.02
714.793	0.09
714.974	0.16
715.154	0.18
715.334	0.11
715.515	0.2
715.695	0.01
715.876	0.09
716.056	0.09
716.236	0.08
716.417	0.11
716.597	0.1
716.777	0.26
716.957	0.07
717.138	0.15
717.318	0.09
717.498	-0.01
717.678	0.07
717.859	0.1
718.039	-0.02
718.219	0.15
718.399	0.18
718.579	-0.05
718.759	0.06
718.939	0.11
719.12	0.05
719.3	0.08
719.48	-0.06
719.66	-0.06
719.84	0.15
720.02	0.12
720.2	0.02
720.38	0.05
720.56	0.19
720.74	0.02
720.92	0.06
721.1	0.2
721.279	0.2
721.459	0.1
721.639	-0.04
721.819	0.12
721.999	0.04
722.179	0.1
722.359	0.04
722.538	0.19
722.718	0.1
722.898	0.02
723.078	0.1
723.257	0.1
723.437	0.15
723.617	0.1
723.797	0.06
723.976	0.1
724.156	0.15
724.336	0.1
724.515	0.31
724.695	-0.06
724.874	0.07
725.054	0.17
725.234	0.05
725.413	0.17
725.593	0.07
725.772	0.1
725.952	0.09
726.131	0.09
726.311	0.07
726.49	-0.01
726.67	0.02
726.849	0.11
727.028	0.13
727.208	-0.01
727.387	0.16
727.567	0.04
727.746	0.06
727.925	0.05
728.105	0.01
728.284	0.12
728.463	0.04
728.643	0.11
728.822	-0.09
729.001	0.08
729.18	0.13
729.359	0.13
729.539	0.11
729.718	0.08
729.897	0.18
730.076	0.04
730.255	-0.08
730.434	0.09
730.614	0.13
730.793	0.19
730.972	0.04
731.151	0.05
731.33	0.18
731.509	0.2
731.688	0.08
731.867	0.06
732.046	0.01
732.225	0.26
732.404	0.08
732.583	0.02
732.762	0.06
732.941	0.16
733.12	0.17
733.298	0.09
733.477	0.23
733.656	0.12
733.835	0.04
734.014	0.13
734.193	0.14
734.371	0.15
734.55	0.16
734.729	0.02
734.908	0.13
735.086	0.17
735.265	0.18
735.444	-0.04
735.623	0.02
735.801	-0.04
735.98	0.14
736.159	0.08
736.337	0.19
736.516	0.1
736.694	0.17
736.873	0.05
737.052	0.19
737.23	0.28
737.409	0.08
737.587	0.27
737.766	-0.05
737.944	0.05
738.123	0.19
738.301	0.08
738.479	0.04
738.658	0.1
738.836	-0.01
739.015	0.12
739.193	0.22
739.371	-0.05
739.55	0.04
739.728	-0.05
739.906	0.25
740.085	0.22
740.263	0.09
740.441	-0.03
740.62	0.2
740.798	0.24
740.976	-0.02
741.154	0.04
741.332	0.29
741.511	0.11
741.689	0.16
741.867	0.27
742.045	0.08
742.223	-0.02
742.401	-0.04
742.579	-0.04
742.757	0.15
742.935	-0.04
743.114	0.09
743.292	-0.02
743.47	0.1
743.648	0.15
743.826	0.09
744.004	0.11
744.181	0.17
744.359	0.06
744.537	0.18
744.715	0.03
744.893	0.08
745.071	0.04
745.249	0.06
745.427	0.05
745.605	0.1
745.782	0.16
745.96	0.19
746.138	0.11
746.316	0.19
746.493	0.07
746.671	0.16
746.849	0.1
747.027	0.23
747.204	-0.01
747.382	0.19
747.56	0.01
747.737	0.12
747.915	-0.06
748.093	0.09
748.27	-0.04
748.448	0.07
748.625	-0.07
748.803	-0.04
748.98	0.02
749.158	0.11
749.335	0.1
749.513	0.07
749.69	0.03
749.868	0.1
750.045	0.15
750.223	0.1
750.4	-0.11
750.578	0.2
750.755	0.06
750.932	-0.05
751.11	0.23
751.287	-0.03
751.464	0.25
751.642	0.04
751.819	0.11
751.996	0.16
752.173	0.1
752.351	-0.07
752.528	0.13
752.705	0.13
752.882	0.13
753.06	0.17
753.237	0.13
753.414	0.22
753.591	0.26
753.768	0.1
753.945	0.01
754.122	-0
754.299	0.16
754.476	0.08
754.654	0.16
754.831	0.1
755.008	0.15
755.185	0.02
755.362	-0
755.539	0.15
755.716	0.07
755.892	0.04
756.069	0.17
756.246	0.05
756.423	0.09
756.6	0.25
756.777	0.07
756.954	0.17
757.131	0.15
757.307	0.01
757.484	0.06
757.661	0.06
757.838	0.21
758.015	-0.01
758.191	0.19
758.368	0.17
758.545	0.28
758.721	0.16
758.898	-0.01
759.075	0.26
759.251	0.13
759.428	0.2
759.605	0.02
759.781	0.08
759.958	0.06
760.134	-0.04
760.311	0.07
760.488	0.2
760.664	0.28
760.841	-0.01
761.017	0.03
761.194	0.19
761.37	0.1
761.547	0.13
761.723	0.09
761.899	0.18
762.076	0.06
762.252	-0.05
762.429	0.03
762.605	0.26
762.781	0.15
762.958	0.18
763.134	0.13
763.31	0.08
763.486	0.18
763.663	-0.11
763.839	0.14
764.015	-0.08
764.191	0.07
764.368	-0.02
764.544	-0
764.72	0.13
764.896	0.1
765.072	0.07
765.248	0.08
765.425	0.03
765.601	0.14
765.777	0.04
765.953	-0.1
766.129	-0
766.305	-0
766.481	0.07
766.657	0.09
766.833	0.25
767.009	-0.16
767.185	-0.02
767.361	0.04
767.537	-0.1
767.713	0.23
767.889	0
768.065	0.12
768.24	0.27
768.416	0.19
768.592	-0.06
768.768	0.21
768.944	0.19
769.12	0.04
769.295	0.08
769.471	0.01
769.647	0.02
769.823	0.06
769.998	0.09
770.174	-0.09
770.35	0.32
770.525	0.41
770.701	0.05
770.877	-0.02
771.052	0.06
771.228	0.17
771.403	0.05
771.579	0.11
771.755	0.37
771.93	0.03
772.106	0.03
772.281	-0.04
772.457	0.03
772.632	0.04
772.808	-0.03
772.983	0.02
773.159	-0.09
773.334	0.37
773.509	0.04
773.685	-0.02
773.86	0.25
774.036	0.2
774.211	0.18
774.386	-0.07
774.562	0.09
774.737	0.22
774.912	0.03
775.087	0.2
775.263	0.1
775.438	0.17
775.613	-0.1
775.788	0.04
775.964	0.29
776.139	0.48
776.314	0.01
776.489	0.1
776.664	0.03
776.839	-0.06
777.014	0.13
777.19	0.06
777.365	0.41
777.54	0.26
777.715	-0.05
777.89	0.1
778.065	-0
778.24	0.09
778.415	0.27
778.59	-0.11
778.765	0.12
778.94	0.2
779.115	0
779.289	0.12
779.464	-0.05
779.639	-0.01
779.814	-0.13
779.989	0.06
780.164	0.44
780.339	0.14
780.513	0.09
780.688	-0.08
780.863	0.07
781.038	0.25
781.212	-0.15
781.387	0.27
781.562	0.44
781.737	0.05
781.911	0.21
782.086	-0.05
782.261	0.21
782.435	0.35
782.61	-0.02
782.784	0.02
782.959	0.29
783.134	-0.13
783.308	0.08
783.483	-0
783.657	0.39
783.832	0.43
784.006	-0.06
784.181	0.08
784.355	0.38
784.53	-0.16
784.704	0.05
784.878	0.21
785.053	0.47
785.227	0.16
785.402	0.45
785.576	-0.21
785.75	0.02
785.925	0.02
786.099	0.21
786.273	0.25
786.448	0.37
786.622	0.22
786.796	0.19
786.97	0.26
787.145	0.64
787.319	-0.14
787.493	0.11
787.667	-0.17
787.841	0.52
788.015	0.28
788.19	0.07
788.364	0.22
788.538	0.14
788.712	0.37
788.886	0.03
789.06	0.35
789.234	0.34
789.408	-0.17
789.582	0.05
789.756	-0.02
789.93	-0.03
790.104	-0.02
790.278	0.1
790.452	-0.04
790.626	0.42
790.8	0.04
790.973	0.28
791.147	0.43
791.321	0.2
791.495	0.37
791.669	0.23
791.843	0.32
792.016	0.11
792.19	0.25
792.364	0.04
792.538	0.52
792.711	0.38
792.885	-0.05
793.059	-0.05
793.233	-0.29
793.406	0.32
793.58	0.21
793.754	0.23
793.927	-0.01
794.101	0.3
794.274	-0.02
794.448	0.32
794.622	0.04
794.795	0.4
794.969	0.09
795.142	0.35
795.316	0.4
795.489	-0.22
795.663	0.37
795.836	-0.02
796.009	-0.09
796.183	0.52
796.356	0.15
796.53	0.12
796.703	-0.05
796.876	0.57
797.05	-0.05
797.223	-0.01
797.396	0.31
797.57	-0.03
797.743	0.46
797.916	0.32
798.09	0.28
798.263	0.24
798.436	0.41
798.609	0.06
798.782	0.07
798.956	0.15
799.129	0.16
799.302	-0.17
799.475	0.09
799.648	0.02
799.821	-0.04
799.994	0.35
800.167	-0.11
800.34	0.27
800.514	0.2
800.687	-0.05
800.86	0.11
801.033	-0.02
801.206	0.14
801.379	-0.18
801.551	0.47
801.724	0.33
801.897	0.47
802.07	0.18
802.243	-0.34
802.416	-0.03
802.589	-0.04
802.762	0.09
802.935	-0.19
803.107	0.37
803.28	0.39
803.453	0.41
803.626	-0.34
803.798	-0.06
803.971	-0.03
804.144	0.21
804.317	0.31
804.489	0.59
804.662	0.12
804.835	0.18
805.007	-0.41
805.18	0.46
805.353	0.05
805.525	-0.06
805.698	-0.19
805.87	0.45
806.043	0.41
806.215	-0
806.388	0.04
806.56	0.14
806.733	0.51
806.905	0.25
807.078	0.1
807.25	-0.07
807.423	0.3
807.595	0.2
807.768	0.34
807.94	0.59
808.112	0.11
808.285	0.27
808.457	0.02
808.629	0.1
808.802	0.41
808.974	0.12
809.146	0.34
809.318	-0.35
809.491	0.23
809.663	0.46
809.835	-0.27
810.007	0.22
810.18	0.17
810.352	-0.15
810.524	0.33
810.696	0.43
810.868	0.3
811.04	-0.13
811.212	-0.09
811.384	0.57
811.556	0.27
811.728	0.22
811.901	0.61
812.073	0.08
812.245	0.71
812.417	0.06
812.589	-0.53
812.76	0.37
812.932	0.29
813.104	0.57
813.276	0.06
813.448	0.69
813.62	0.07
813.792	0.56
813.964	0.43
814.136	0.27
814.307	0.2
814.479	0.26
814.651	-0.17
814.823	0.98
814.995	-0.07
815.166	0.64
815.338	-0.24
815.51	-0.36
815.681	1.08
815.853	0.3
816.025	0.18
816.196	0.46
816.368	0.4
816.54	-0.2
816.711	-0.21
816.883	0.29
817.054	0.84
817.226	-0.53
817.398	0.51
817.569	0.24
817.741	0.2
817.912	0.38
818.084	0.14
818.255	0.34
818.426	-0.15
818.598	0.27
818.769	0.11
818.941	0.74
819.112	0.54
819.283	0.48
819.455	-0.45
819.626	0.16
819.798	0.48
819.969	0.09
820.14	-0.52
820.311	-0.32
820.483	0.16
820.654	0.07
820.825	0.04
820.996	0.1
821.168	-0.26
821.339	0.26
821.51	-0.01
821.681	0.18
821.852	0.18
822.023	-0.26
822.195	-0.45
822.366	0.32
822.537	-0.03
822.708	0.22
822.879	-0.15
823.05	0.97
823.221	0.18
823.392	0.19
823.563	0.19
823.734	0.79
823.905	0.32
824.076	-0.19
824.247	-0.22
824.418	-0.28
824.589	0.52
824.759	0.04
824.93	-0.63
825.101	-0.6
825.272	0.8
825.443	0.84
825.614	0.71
825.784	-0.41
825.955	0.87
826.126	0.75
826.297	0.08
826.467	0.93
826.638	0.65
826.809	-0.28
826.98	0.13
827.15	0.46
827.321	-0.21
827.492	0.97
827.662	-0.03
827.833	1.55
828.003	0.2
828.174	-0
828.345	-0.28
828.515	0.89
828.686	0.13
828.856	-0.27
829.027	0.68
829.197	0.61
829.368	0.28
829.538	-0.39
829.709	0.06
829.879	0.87
830.049	0.14
830.22	-0.13
830.39	-0.15
830.56	0.77
830.731	0.86
830.901	0.03
831.072	0.22
831.242	-0.01
831.412	0.64
831.582	-0.51
831.753	-0.33
831.923	1.08
832.093	0.43
832.263	0.18
832.434	-0.16
832.604	-0.24
832.774	0.71
832.944	-0.32
833.114	-0.46
833.284	0.63
833.454	-0.1
833.624	0.07
833.795	-0.86
833.965	0.65
834.135	0.82
834.305	-0.75
834.475	-0.62
834.645	0.13
834.815	-0.9
834.985	-0.27
835.155	-0.26
835.325	0.88
835.494	0.8
835.664	-0.5
835.834	-0.01
836.004	0.45
836.174	0.16
836.344	-0.06
836.514	-0.23
836.684	-0.13
836.853	0.66
837.023	0.95
837.193	-0.06
837.363	0.97
837.532	0.75
837.702	0.1
837.872	-0.04
838.041	1.1
838.211	1.4
838.381	-0.7
838.55	0.23
838.72	1.26
838.89	1.32
839.059	-0.58
839.229	0.1
839.398	1.54
839.568	0.64
839.738	0.42
839.907	1.05
840.077	1.35
840.246	0.09
840.416	-0.34
840.585	-0.41
840.755	1.05
840.924	0.56
841.093	-0.45
841.263	0.4
841.432	1.03
841.602	-0.11
841.771	-0.6
841.94	0.28
842.11	2.21
842.279	1.12
842.448	-0.07
842.617	0.32
842.787	0.98
842.956	-0.19
843.125	-0
843.294	0.28
843.464	0.9
843.633	-0.17
843.802	-0.63
843.971	0.61
844.14	0.5
844.309	1.07
844.479	-0.67
844.648	-0.21
844.817	0.04
844.986	-0.14
845.155	0.1
845.324	-0.23
845.493	0.13
845.662	-0.49
845.831	-0.94
846	0.23
846.169	0.5
846.338	0.87
846.507	0.8
846.676	0.38
846.844	-0.23
847.013	0.38
847.182	0.1
847.351	-0
847.52	0.46
847.689	0.18
847.858	0.85
848.026	-0.52
848.195	0.64
848.364	-0.28
848.533	0.36
848.701	-0.02
848.87	0.42
849.039	2.17
849.207	1.9
849.376	1.26
849.545	2.13
849.713	-0.36
849.882	0.5
850.051	0.5
850.219	0.71
850.388	1.28
850.556	-0.59
850.725	-1.18
850.893	0.54
851.062	0.43
851.23	1.32
851.399	-0.82
851.567	-0.59
851.736	0.28
851.904	-0.48
852.073	0.94
852.241	0.99
852.41	0.55
852.578	-0.48
852.746	0.37
852.915	0.83
853.083	1.11
853.251	-0.37
853.42	-0.86
853.588	0.23
853.756	1.11
853.924	0.19
854.093	-0.34
854.261	0.35
854.429	-0.37
854.597	-0.01
854.765	-0.39
854.934	-0.19
855.102	1.57
855.27	0.61
855.438	1.23
855.606	0.66
855.774	1.7
855.942	-0.61
856.11	-1.33
856.278	0.32
856.446	1.55
856.614	-0.03
856.782	-0.33
856.95	2.33
857.118	1.36
857.286	0.57
857.454	-0.36
857.622	1.02
857.79	1.17
857.958	0
858.126	-0.8
858.294	-1.32
858.462	-0.35
858.629	-0.95
858.797	-0.3
858.965	1.34
859.133	1.94
859.301	0.09
859.468	0.28
859.636	0.45
859.804	2.94
859.971	1.01
860.139	-0.48
860.307	1.28
860.474	0.59
860.642	-0.2
860.81	-0.29
860.977	0.95
861.145	0.99
861.313	0.51
861.48	1.29
861.648	1.13
861.815	0.52
861.983	-1.48
862.15	0.25
862.318	0.57
862.485	0.86
862.653	-0.14
862.82	1.03
862.988	1.21
863.155	1.49
863.322	-0.21
863.49	-0.35
863.657	1.26
863.824	3.9
863.992	0.82
864.159	1.15
864.326	1.35
864.494	-0.27
864.661	3.16
864.828	0.06
864.996	1.08
865.163	1.6
865.33	-0.66
865.497	-1.74
865.664	-1.09
865.832	-1.89
865.999	1.16
866.166	-0.63
866.333	-0.56
866.5	0.46
866.667	1.55
866.834	0.22
867.001	1.17
867.168	-0.54
867.335	1.62
867.502	-0.99
867.669	0.41
867.836	1.15
868.003	0.18
868.17	2.37
868.337	4.57
868.504	1.86
868.671	-2.19
868.838	-0.59
869.005	-0.38
869.172	2.23
869.339	-0.13
869.505	0.67
869.672	-0.07
869.839	3.7
870.006	-0.04
870.173	-1.18
870.339	0.2
870.506	3.01
870.673	-1.23
870.84	2.03
871.006	1.29
871.173	1.14
871.34	0.96
871.506	-0.64
871.673	2
871.839	-1.27
872.006	0.3
872.173	-0.14
872.339	0.4
872.506	1.96
872.672	-0.23
872.839	-3.19
873.005	0.57
873.172	4.66
873.338	0.24
873.505	-0.63
873.671	0.76
873.838	1.8
874.004	-1.98
874.171	-1.27
874.337	2.25
874.503	2.55
874.67	-1.46
874.836	0.02
875.002	2.95
875.169	1.38
875.335	0.6
875.501	0.08
875.668	2.58
875.834	0.08
876	0.72
876.166	-0.17
876.332	1.86
876.499	3.18
876.665	0.01
876.831	0.65
876.997	4.55
877.163	1.84
877.329	0.23
877.495	0.48
877.662	2.66
877.828	-0.62
877.994	0.36
878.16	-3
878.326	0.49
878.492	1.45
878.658	-0.73
878.824	0.94
878.99	2.18
879.156	-1.33
879.322	1.93
879.487	0.61
879.653	0.9
879.819	1.76
879.985	-0.61
880.151	2.73
880.317	-0.52
880.483	-0.22
880.648	1.76
880.814	-1.11
880.98	1.56
881.146	-2.69
881.312	-0.5
881.477	1.81
881.643	1.27
881.809	2.57
881.974	1.51
882.14	-2.23
882.306	-1.18
882.471	4.34
882.637	-1.18
882.803	0.42
882.968	4.18
883.134	3.28
883.299	0.91
883.465	0.47
883.63	0.77
883.796	2.1
883.961	0.84
884.127	1.48
884.292	-4.48
884.458	-1.1
884.623	-1.1
