Data from Apollo_Calib_20240827__AbsoluteIrradiance__607__09-16-01-778.txt Node

Date: Wed Aug 28 09:16:01 BST 2024
User: biology
Spectrometer: FLMT08252
Trigger mode: 0
Integration Time (sec): 5.000000E-1
Scans to average: 5
Electric dark correction enabled: true
Nonlinearity correction enabled: false
Boxcar width: 0
XAxis mode: Wavelengths
Number of Pixels in Spectrum: 3648
>>>>>Begin Spectral Data<<<<<
179.588	-0
179.809	-0
180.03	-0
180.251	-0
180.473	-0
180.694	0
180.915	0
181.136	-0
181.357	0
181.578	0
181.799	-0
182.02	-0
182.241	0
182.462	-0
182.683	0
182.904	-0
183.125	-0
183.346	0
183.567	0
183.788	0
184.009	-0
184.23	0
184.451	0
184.672	0
184.892	-0
185.113	0
185.334	0
185.555	0
185.776	0
185.996	0
186.217	0
186.438	0
186.659	0
186.879	0
187.1	0
187.321	0
187.541	-0
187.762	0
187.983	0
188.203	0
188.424	0
188.644	0
188.865	0
189.086	0
189.306	0
189.527	0
189.747	0
189.968	0
190.188	0
190.409	0
190.629	0
190.849	0
191.07	0
191.29	0
191.511	0
191.731	0
191.951	0
192.172	0
192.392	0
192.612	0
192.833	0
193.053	0
193.273	0
193.493	0
193.714	0
193.934	0
194.154	0
194.374	0
194.594	0
194.815	0
195.035	0
195.255	0
195.475	0
195.695	0
195.915	0
196.135	0
196.355	0
196.575	0
196.795	0
197.015	0
197.235	0
197.455	0
197.675	0
197.895	0
198.115	0
198.335	0
198.555	0
198.775	0
198.995	0
199.214	0
199.434	0
199.654	0
199.874	0
200.094	1.68
200.313	1.2
200.533	0.68
200.753	-0.24
200.973	1.92
201.192	1.43
201.412	0.33
201.632	1.17
201.851	1.81
202.071	0.62
202.291	0.69
202.51	0.35
202.73	1.26
202.95	0.95
203.169	0.33
203.389	0.77
203.608	0.55
203.828	0.13
204.047	0.22
204.267	1.3
204.486	0.83
204.706	1.23
204.925	0.91
205.145	0.7
205.364	1.14
205.583	1.52
205.803	0.29
206.022	0.14
206.242	0.65
206.461	0.68
206.68	0.38
206.9	0.52
207.119	1.07
207.338	1.17
207.557	0.2
207.777	0.05
207.996	0.48
208.215	0.98
208.434	0.37
208.654	0.07
208.873	0.49
209.092	0.92
209.311	0.5
209.53	0.47
209.749	0.42
209.968	0.3
210.187	0.33
210.407	-0.1
210.626	0.42
210.845	0.55
211.064	0.41
211.283	0.1
211.502	0.74
211.721	0.76
211.94	0.42
212.159	0.47
212.377	0.5
212.596	0.81
212.815	0.67
213.034	0.51
213.253	0.87
213.472	0.62
213.691	0.28
213.91	0.17
214.128	0.33
214.347	0.77
214.566	-0
214.785	-0.03
215.003	0.43
215.222	0.4
215.441	0.51
215.66	0.12
215.878	0.36
216.097	0.63
216.316	0.03
216.534	0.23
216.753	0.35
216.972	0.52
217.19	0.39
217.409	0.2
217.627	0.25
217.846	0.24
218.064	0.33
218.283	0.13
218.501	0.74
218.72	0.65
218.938	0.19
219.157	0.2
219.375	0.43
219.594	0.28
219.812	0.24
220.031	0.2
220.249	0.5
220.467	0.64
220.686	0.21
220.904	0.09
221.122	0.16
221.341	0.52
221.559	0.36
221.777	0.15
221.995	0.35
222.214	0.52
222.432	0.09
222.65	0.35
222.868	0.46
223.086	0.33
223.305	0.56
223.523	0.24
223.741	0.42
223.959	0.01
224.177	-0.1
224.395	0.22
224.613	0.14
224.831	0.36
225.049	0.07
225.267	0.04
225.485	0.4
225.703	0.26
225.921	0.29
226.139	0.25
226.357	0.33
226.575	0.42
226.793	0.08
227.011	0.78
227.229	0.22
227.447	0.37
227.665	0.12
227.883	-0.05
228.1	0.16
228.318	0.32
228.536	0.08
228.754	0.06
228.972	0.31
229.189	0.34
229.407	0.07
229.625	0.12
229.843	0.27
230.06	0.39
230.278	0.08
230.496	0.16
230.713	0.3
230.931	0.4
231.149	0.23
231.366	0.02
231.584	0.17
231.801	0.54
232.019	0.15
232.236	0.02
232.454	0.1
232.671	0.34
232.889	0.3
233.106	0.14
233.324	0.19
233.541	0.2
233.759	0.21
233.976	0.15
234.194	0.17
234.411	0.21
234.628	0.11
234.846	0.18
235.063	0.29
235.28	0.24
235.498	0.23
235.715	0.02
235.932	0.34
236.149	0.26
236.367	0.13
236.584	0.23
236.801	0.12
237.018	0.24
237.236	0.26
237.453	-0.05
237.67	0.29
237.887	0.14
238.104	0.12
238.321	0.06
238.538	0.09
238.755	0.35
238.973	0.06
239.19	0.21
239.407	0.2
239.624	0.19
239.841	0.06
240.058	0.11
240.275	0.25
240.492	0.1
240.709	0.12
240.925	0.11
241.142	0.16
241.359	0.09
241.576	0.11
241.793	0.08
242.01	0.17
242.227	0.33
242.444	0.18
242.66	0.14
242.877	0.23
243.094	0.15
243.311	0.21
243.527	0.16
243.744	0.21
243.961	0.23
244.178	0.13
244.394	0.17
244.611	0.25
244.828	0.34
245.044	0.1
245.261	0.18
245.477	0.21
245.694	0.13
245.911	0.13
246.127	0.18
246.344	0.2
246.56	0.19
246.777	0.18
246.993	0.22
247.21	0.19
247.426	0.14
247.643	0.06
247.859	0.08
248.076	0.15
248.292	0.36
248.508	0.1
248.725	0.15
248.941	0.19
249.157	0.23
249.374	0.13
249.59	0.16
249.806	0.11
250.023	0.17
250.239	0.03
250.455	0.07
250.671	0.15
250.888	0.23
251.104	0.18
251.32	0.12
251.536	0.18
251.752	0.12
251.969	0.09
252.185	0.11
252.401	0.37
252.617	0.11
252.833	0.17
253.049	0.13
253.265	0.16
253.481	0.23
253.697	0.09
253.913	0.06
254.129	0.13
254.345	0.18
254.561	0.12
254.777	0.13
254.993	0.18
255.209	0.09
255.425	0.1
255.641	0.11
255.857	0.23
256.073	0.09
256.288	0.1
256.504	0.13
256.72	0.16
256.936	0.28
257.152	0.2
257.367	0.05
257.583	0.15
257.799	0.16
258.015	0.08
258.23	0.07
258.446	0.23
258.662	0.09
258.877	0.1
259.093	0.02
259.309	0.19
259.524	0.2
259.74	0.11
259.955	0.05
260.171	0.13
260.387	0.15
260.602	0.17
260.818	0.18
261.033	0.11
261.249	0.08
261.464	0.05
261.68	0.04
261.895	0.11
262.11	0.16
262.326	0.04
262.541	-0.01
262.757	0.26
262.972	0.13
263.187	0.07
263.403	0.09
263.618	0.17
263.833	0.16
264.049	0.01
264.264	0.12
264.479	0.17
264.694	0.23
264.91	0
265.125	0.1
265.34	0.16
265.555	0.21
265.77	0.09
265.986	0.13
266.201	0.22
266.416	0.16
266.631	0.06
266.846	0.11
267.061	0.12
267.276	0.16
267.491	-0.01
267.706	0.17
267.921	0.19
268.136	0.14
268.351	0.16
268.566	0.03
268.781	0.2
268.996	0.14
269.211	0.15
269.426	-0.03
269.641	0.12
269.856	0.19
270.071	0.14
270.285	0.02
270.5	0.2
270.715	0.19
270.93	0.13
271.145	0.09
271.359	0.18
271.574	0.04
271.789	0.14
272.004	0.04
272.218	0.05
272.433	0.14
272.648	0.02
272.862	0.15
273.077	0.13
273.292	0.11
273.506	0.07
273.721	0.07
273.936	0.18
274.15	0.16
274.365	0.09
274.579	0.2
274.794	0.18
275.008	0.23
275.223	0.03
275.437	0.13
275.652	0.13
275.866	0.19
276.081	0.13
276.295	0.13
276.509	0.09
276.724	0.09
276.938	0.1
277.153	0.1
277.367	0.16
277.581	0.07
277.796	0.09
278.01	0.02
278.224	0.14
278.438	0.18
278.653	0.04
278.867	0.11
279.081	0.16
279.295	0.03
279.51	0.12
279.724	0.02
279.938	0.15
280.152	0.11
280.366	0.08
280.58	0.12
280.794	0.23
281.008	0.17
281.222	0.12
281.437	0.21
281.651	0.18
281.865	0.14
282.079	0.12
282.293	0.01
282.507	-0
282.721	0.11
282.935	0.15
283.148	0.01
283.362	0.04
283.576	0.04
283.79	0.07
284.004	0.06
284.218	0.16
284.432	0.03
284.646	0.11
284.859	0.13
285.073	0.07
285.287	0.06
285.501	0.08
285.714	0.09
285.928	0.13
286.142	0.11
286.356	0.1
286.569	0.06
286.783	0.14
286.997	0.12
287.21	0.08
287.424	0.14
287.637	0.11
287.851	0.07
288.065	0.14
288.278	0.11
288.492	0.11
288.705	0.08
288.919	0.13
289.132	0.03
289.346	0.15
289.559	0.02
289.773	0.05
289.986	0.06
290.2	0.1
290.413	0.12
290.626	0.08
290.84	0.07
291.053	0.07
291.267	0.17
291.48	0.09
291.693	0.11
291.906	0.02
292.12	0.1
292.333	0.05
292.546	0.09
292.76	0.12
292.973	0.11
293.186	0.09
293.399	0.07
293.612	0.15
293.826	0.11
294.039	0.11
294.252	0.09
294.465	0.11
294.678	0.1
294.891	0.06
295.104	0
295.317	0.1
295.53	0.08
295.743	0.07
295.956	0.07
296.169	0.11
296.382	0.16
296.595	0.09
296.808	0.02
297.021	0.11
297.234	0.13
297.447	0.09
297.66	0.09
297.873	0.11
298.086	0.1
298.299	0.06
298.511	0.06
298.724	0.06
298.937	0.1
299.15	0.04
299.363	0.08
299.575	0.08
299.788	0.12
300.001	0.04
300.213	0.09
300.426	0.06
300.639	0.09
300.852	0.06
301.064	0.11
301.277	0.14
301.489	0.1
301.702	0.11
301.915	0.07
302.127	0.11
302.34	0.07
302.552	0.12
302.765	0.07
302.977	0.11
303.19	0.04
303.402	0.08
303.615	0.1
303.827	0.05
304.04	0.05
304.252	0.15
304.464	0.05
304.677	0.19
304.889	0.08
305.102	0.05
305.314	0.04
305.526	0.14
305.739	0.08
305.951	0.06
306.163	0.06
306.375	0.11
306.588	0.05
306.8	0.04
307.012	0.04
307.224	0.12
307.436	0.13
307.649	0
307.861	0.09
308.073	0.08
308.285	0.07
308.497	0.05
308.709	0.04
308.921	0.09
309.133	0.13
309.346	0.04
309.558	0.06
309.77	0.09
309.982	0.1
310.194	0.11
310.406	0.01
310.617	0.19
310.829	0.09
311.041	0.13
311.253	0.05
311.465	0.06
311.677	0.09
311.889	0.08
312.101	0.07
312.313	0.12
312.524	0.12
312.736	0.01
312.948	0.05
313.16	0.21
313.372	0.12
313.583	0.08
313.795	0.08
314.007	0.04
314.218	0.09
314.43	0.04
314.642	0
314.853	0.05
315.065	0.13
315.277	0.06
315.488	0.12
315.7	0.14
315.912	0.04
316.123	0.07
316.335	0.07
316.546	0.17
316.758	0.08
316.969	0.07
317.181	0.08
317.392	0.12
317.604	0.11
317.815	0.05
318.026	0.08
318.238	0.09
318.449	0.07
318.661	0.03
318.872	0.01
319.083	0.03
319.295	0.12
319.506	0.07
319.717	0.05
319.929	0.15
320.14	0.09
320.351	0.09
320.562	0.05
320.774	0.09
320.985	0.09
321.196	-0
321.407	0.02
321.618	0.12
321.829	0.09
322.041	0.14
322.252	0.09
322.463	0.1
322.674	0.1
322.885	0.04
323.096	0.09
323.307	0.1
323.518	0.07
323.729	0.06
323.94	0.07
324.151	0.07
324.362	0.06
324.573	0.04
324.784	0.07
324.995	0.11
325.206	0.1
325.417	0.09
325.628	0.03
325.838	0.08
326.049	0.07
326.26	0.14
326.471	0.07
326.682	0.09
326.892	0.09
327.103	0.04
327.314	0.07
327.525	0.19
327.735	0.11
327.946	0.1
328.157	0.04
328.368	0.11
328.578	0.08
328.789	0.11
328.999	0.07
329.21	0.06
329.421	0.12
329.631	0.03
329.842	0.05
330.052	0.12
330.263	0.11
330.473	0.12
330.684	0.03
330.894	0.07
331.105	0.1
331.315	0.09
331.526	0.03
331.736	0.16
331.947	0.07
332.157	0.13
332.367	0.05
332.578	0.11
332.788	0.12
332.999	0.13
333.209	0.11
333.419	0.04
333.629	0.07
333.84	0.14
334.05	0.08
334.26	0.15
334.47	0.09
334.681	0.12
334.891	0.07
335.101	0.14
335.311	0.16
335.521	0.09
335.732	0.01
335.942	0.09
336.152	0.1
336.362	0.09
336.572	0.09
336.782	0.08
336.992	0.07
337.202	0.11
337.412	0.06
337.622	0.08
337.832	0.07
338.042	0.1
338.252	0.07
338.462	0.02
338.672	0.13
338.882	0.09
339.092	0.1
339.302	0.13
339.511	0.14
339.721	0.06
339.931	0.05
340.141	0.16
340.351	0.15
340.561	0.07
340.77	0.06
340.98	0.12
341.19	0.16
341.4	0.04
341.609	0.02
341.819	0.07
342.029	0.01
342.238	0.09
342.448	0.05
342.658	0.08
342.867	0.08
343.077	0.09
343.286	0.07
343.496	0.03
343.706	0.14
343.915	0.06
344.125	0.05
344.334	0.1
344.544	0.01
344.753	0.08
344.963	0.06
345.172	0.05
345.381	0.06
345.591	0.01
345.8	0.06
346.01	0.11
346.219	0.1
346.428	-0.04
346.638	0.04
346.847	0.06
347.056	0.13
347.266	0.01
347.475	0.05
347.684	0.1
347.893	0.09
348.103	0.07
348.312	0.03
348.521	0.07
348.73	0.09
348.94	0.08
349.149	0.05
349.358	0.05
349.567	0.03
349.776	0.03
349.985	0.08
350.194	0.16
350.403	0.14
350.612	0.02
350.821	0.04
351.03	0.06
351.239	0.05
351.448	0.04
351.657	0.03
351.866	0.11
352.075	0.1
352.284	0.12
352.493	0.05
352.702	0.16
352.911	0.11
353.12	0.07
353.329	0.09
353.538	0.09
353.746	0.08
353.955	0.05
354.164	0.12
354.373	0.07
354.582	0.08
354.79	0.08
354.999	0.1
355.208	0.07
355.416	0.13
355.625	0.03
355.834	0.09
356.042	0.09
356.251	0.04
356.46	0
356.668	0.08
356.877	0.16
357.085	0.11
357.294	-0.05
357.503	0.1
357.711	0.05
357.92	0.18
358.128	0.12
358.337	0.07
358.545	0.08
358.754	0.04
358.962	0.12
359.17	0.03
359.379	0.07
359.587	0.08
359.796	0.08
360.004	0.12
360.212	0.09
360.421	0.12
360.629	0.09
360.837	0.07
361.046	0.11
361.254	0.19
361.462	0.04
361.67	0.07
361.879	0.1
362.087	0.14
362.295	0.07
362.503	0.05
362.711	0.03
362.92	0.05
363.128	0.07
363.336	0.06
363.544	0.03
363.752	0.06
363.96	0.03
364.168	0.05
364.376	0.06
364.584	0.09
364.792	0.11
365	0.08
365.208	0.04
365.416	0.12
365.624	0.11
365.832	0.03
366.04	0.13
366.248	0.06
366.456	0.08
366.664	0.08
366.872	0.06
367.079	0.07
367.287	0.08
367.495	0.08
367.703	0.06
367.911	0.06
368.118	0.07
368.326	0.04
368.534	0.03
368.742	0.1
368.949	0.05
369.157	0.02
369.365	0.08
369.572	0.07
369.78	0.03
369.988	0.11
370.195	0.05
370.403	0.08
370.61	0.03
370.818	0.06
371.026	0.13
371.233	0.02
371.441	0.05
371.648	0.05
371.856	0.08
372.063	0.11
372.271	0.01
372.478	0.09
372.685	0.04
372.893	0.1
373.1	0.05
373.308	0.01
373.515	0.13
373.722	0.1
373.93	0.04
374.137	0.06
374.344	0.17
374.552	0.08
374.759	0.07
374.966	0.09
375.173	0.02
375.381	0.14
375.588	0.03
375.795	0.03
376.002	0.06
376.209	0.04
376.417	0.12
376.624	0.07
376.831	0.09
377.038	0.01
377.245	-0.03
377.452	0.02
377.659	0.04
377.866	0.03
378.073	0.06
378.28	0.07
378.487	0.12
378.694	0.06
378.901	0.09
379.108	0.08
379.315	0.08
379.522	0.18
379.729	0.05
379.936	0.06
380.143	0.1
380.35	0.09
380.557	0.05
380.763	0.09
380.97	0.06
381.177	0.07
381.384	0.08
381.591	0.04
381.797	0.1
382.004	0.08
382.211	0.09
382.418	0.01
382.624	0.1
382.831	0.11
383.038	0.04
383.244	0.07
383.451	0.04
383.658	0.08
383.864	0.06
384.071	0.04
384.277	0.14
384.484	0.04
384.69	0.1
384.897	0.07
385.103	0.04
385.31	0.03
385.516	0.03
385.723	0.04
385.929	0.03
386.136	0.03
386.342	0.1
386.549	0.07
386.755	0.13
386.961	0.07
387.168	0.03
387.374	0.09
387.58	0.07
387.787	0.03
387.993	0.09
388.199	0.05
388.406	0.03
388.612	0.08
388.818	0.08
389.024	0.02
389.231	0.12
389.437	0.06
389.643	0.09
389.849	0.06
390.055	0.06
390.261	0.06
390.467	0.1
390.674	0.05
390.88	0.07
391.086	0.12
391.292	0.01
391.498	0.11
391.704	0.1
391.91	0.05
392.116	0.09
392.322	-0.02
392.528	0.08
392.734	0.03
392.94	0.08
393.146	0.05
393.352	0.06
393.557	0.06
393.763	0.07
393.969	0.08
394.175	0.06
394.381	0.1
394.587	0
394.792	0.06
394.998	0.07
395.204	0.1
395.41	0.02
395.615	0.05
395.821	0.03
396.027	0.08
396.233	0.02
396.438	0.09
396.644	0.15
396.85	0.11
397.055	0.05
397.261	0.12
397.466	0.02
397.672	0.07
397.878	0.1
398.083	0.1
398.289	0
398.494	0.1
398.7	0.1
398.905	-0.03
399.111	0.07
399.316	0.02
399.522	0.06
399.727	0.06
399.932	0.03
400.138	0.03
400.343	0.09
400.549	0.06
400.754	0.02
400.959	0.09
401.165	0.06
401.37	0.1
401.575	0.16
401.78	0.02
401.986	0.05
402.191	0.02
402.396	0.09
402.601	0.07
402.807	0.05
403.012	0.08
403.217	0.1
403.422	0.04
403.627	0.07
403.832	0.06
404.037	0.11
404.243	0.03
404.448	0.04
404.653	0.04
404.858	0.09
405.063	0.11
405.268	0.05
405.473	0.05
405.678	0.04
405.883	0.22
406.088	0.08
406.293	-0
406.498	0.01
406.703	0.07
406.907	0.05
407.112	0.03
407.317	0.1
407.522	0.11
407.727	0
407.932	0.07
408.136	0.18
408.341	0.08
408.546	0.04
408.751	0.04
408.956	0.07
409.16	0.12
409.365	0.03
409.57	0.06
409.774	0.06
409.979	0.09
410.184	0.09
410.388	0.04
410.593	0.06
410.798	0.05
411.002	0.09
411.207	0.1
411.411	0.07
411.616	0.06
411.82	0
412.025	0.12
412.229	0.01
412.434	0.13
412.638	0.1
412.843	0.04
413.047	0.05
413.252	0.03
413.456	0.07
413.66	0.09
413.865	0.01
414.069	0.12
414.273	0.06
414.478	0.05
414.682	0.07
414.886	-0.03
415.091	0
415.295	-0
415.499	0.05
415.703	0.08
415.908	0.11
416.112	0.02
416.316	0.1
416.52	0.05
416.724	0.04
416.929	0.04
417.133	0.19
417.337	0.07
417.541	0.1
417.745	0.08
417.949	0.1
418.153	0.07
418.357	0.01
418.561	0.1
418.765	0.07
418.969	0.17
419.173	0.08
419.377	0.04
419.581	0.13
419.785	0.03
419.989	-0.02
420.193	0.05
420.397	0.05
420.601	0.1
420.804	0.11
421.008	0.08
421.212	0.13
421.416	0.13
421.62	-0.02
421.823	0.09
422.027	0.1
422.231	0.08
422.435	0.07
422.638	0.12
422.842	0.05
423.046	0.04
423.249	0.11
423.453	0.1
423.657	0.04
423.86	0.09
424.064	0.07
424.268	0.13
424.471	0.05
424.675	0.17
424.878	0.12
425.082	0.06
425.285	0.13
425.489	0.08
425.692	0.07
425.896	-0.04
426.099	0.12
426.303	-0
426.506	-0
426.71	0.09
426.913	0.11
427.116	0.11
427.32	0.04
427.523	0.05
427.726	0.14
427.93	-0
428.133	0.08
428.336	0.02
428.54	0.01
428.743	0.1
428.946	0.1
429.149	0.03
429.353	0.1
429.556	0.04
429.759	0.09
429.962	-0.01
430.165	0.07
430.368	0.02
430.571	0.05
430.775	0.09
430.978	0.04
431.181	0.1
431.384	0.08
431.587	0.07
431.79	0.05
431.993	0.03
432.196	0.06
432.399	0.05
432.602	0.11
432.805	0.04
433.008	0.06
433.211	0.05
433.414	0.09
433.616	0.08
433.819	0.02
434.022	0
434.225	0.12
434.428	0.08
434.631	0.16
434.833	0.06
435.036	0.04
435.239	0.11
435.442	0.1
435.645	0.04
435.847	0.12
436.05	0.11
436.253	0.09
436.455	0.07
436.658	0.03
436.861	0.11
437.063	0.05
437.266	0.06
437.468	0.12
437.671	0.22
437.874	0.05
438.076	-0
438.279	0.03
438.481	0.06
438.684	0.05
438.886	0.14
439.089	-0.03
439.291	0.09
439.494	0.14
439.696	0.02
439.899	0.03
440.101	0.07
440.303	0.01
440.506	0.07
440.708	0.02
440.91	0.1
441.113	0.05
441.315	0.09
441.517	0.06
441.72	0.08
441.922	0.01
442.124	0.02
442.326	0.1
442.529	0.14
442.731	0.04
442.933	0.14
443.135	0.06
443.337	0.04
443.539	0.07
443.742	0.01
443.944	0.06
444.146	0.06
444.348	0.04
444.55	0
444.752	0.04
444.954	0.03
445.156	0.08
445.358	0.01
445.56	0.14
445.762	0.01
445.964	0
446.166	0.04
446.368	0.04
446.57	0.12
446.772	0.06
446.974	0.05
447.175	0.11
447.377	0.04
447.579	0.04
447.781	0.03
447.983	0.13
448.184	0.06
448.386	0.05
448.588	0.01
448.79	0.1
448.991	0.06
449.193	0.11
449.395	0.09
449.597	0.08
449.798	0.05
450	0.07
450.202	0.07
450.403	0.06
450.605	0.08
450.806	0.04
451.008	-0.03
451.21	0.08
451.411	0.07
451.613	0.03
451.814	0.06
452.016	0.12
452.217	0.09
452.419	0.11
452.62	0.06
452.821	0.08
453.023	0.16
453.224	0.13
453.426	0.06
453.627	0.07
453.828	0.12
454.03	0.06
454.231	0.05
454.432	0.05
454.634	0.16
454.835	0.04
455.036	-0
455.238	0.1
455.439	0.15
455.64	0.04
455.841	0.07
456.042	0.17
456.244	0.1
456.445	0.07
456.646	0.01
456.847	0.05
457.048	0.08
457.249	0.13
457.45	0.22
457.651	0.05
457.852	0.15
458.054	0.08
458.255	0.04
458.456	0.06
458.657	0.07
458.858	0.03
459.058	0.08
459.259	0.17
459.46	0.11
459.661	0.08
459.862	0.2
460.063	0.11
460.264	0.1
460.465	0.02
460.666	0.23
460.866	0.07
461.067	0.06
461.268	0.07
461.469	0.11
461.67	0.06
461.87	0.05
462.071	0.03
462.272	-0
462.473	0.06
462.673	0.09
462.874	0.04
463.075	0.11
463.275	0.04
463.476	0.06
463.676	0.08
463.877	0.06
464.078	0.05
464.278	0.13
464.479	0.08
464.679	0.08
464.88	0.08
465.08	0.12
465.281	0.02
465.481	0.04
465.682	0.07
465.882	0.09
466.083	0.08
466.283	0.06
466.483	0.06
466.684	0.03
466.884	0.06
467.085	0.1
467.285	0.12
467.485	0.01
467.686	0.04
467.886	-0.01
468.086	0.08
468.286	0.08
468.487	0.1
468.687	0.05
468.887	0.07
469.087	0.1
469.287	0.09
469.488	0.03
469.688	0.1
469.888	0.08
470.088	0.1
470.288	0.09
470.488	0.12
470.688	0.03
470.888	0.03
471.088	0.05
471.288	0.11
471.488	0.08
471.688	0.09
471.888	0.05
472.088	0.09
472.288	0.07
472.488	0.08
472.688	0.03
472.888	0.07
473.088	0.08
473.288	0.07
473.488	0.07
473.688	0.1
473.887	0.09
474.087	0.07
474.287	0.05
474.487	0.01
474.687	0.11
474.886	0.02
475.086	0.07
475.286	0.1
475.486	0.07
475.685	0.07
475.885	0.09
476.085	0.04
476.284	0.1
476.484	0.02
476.684	0.07
476.883	0.13
477.083	0.09
477.282	0.05
477.482	0.11
477.681	0.12
477.881	0.04
478.08	0.06
478.28	0.02
478.479	0.06
478.679	0.13
478.878	0.05
479.078	0.01
479.277	0.03
479.477	0.04
479.676	0.07
479.875	0.06
480.075	-0.03
480.274	0.07
480.473	0.07
480.673	0.04
480.872	0.08
481.071	0.08
481.271	0.04
481.47	0.04
481.669	0.05
481.868	0.04
482.067	0.02
482.267	0.06
482.466	0.05
482.665	0.03
482.864	0.01
483.063	0.02
483.262	0.03
483.461	0.13
483.661	0.08
483.86	0.06
484.059	0.06
484.258	0.06
484.457	0.07
484.656	0.06
484.855	0.08
485.054	-0.02
485.253	0.01
485.452	0.03
485.651	0.01
485.849	0.04
486.048	0.02
486.247	0.01
486.446	0.05
486.645	0.01
486.844	0.02
487.043	0.04
487.241	0.07
487.44	0.03
487.639	0.06
487.838	0.07
488.037	0.03
488.235	0.08
488.434	0.05
488.633	-0
488.831	0.03
489.03	0.08
489.229	0.05
489.427	0.03
489.626	0.06
489.825	0.1
490.023	0.05
490.222	0.03
490.42	0.05
490.619	0.09
490.817	0.04
491.016	0.03
491.214	0.08
491.413	0.03
491.611	0.05
491.81	0.04
492.008	0.07
492.207	0.06
492.405	0.06
492.604	0.02
492.802	0.03
493	0.05
493.199	0.02
493.397	0.05
493.595	0.05
493.794	-0
493.992	0.07
494.19	0.03
494.388	0.07
494.587	0.01
494.785	0.04
494.983	-0
495.181	0.03
495.379	0.04
495.578	0.02
495.776	0.05
495.974	0.04
496.172	0.03
496.37	0.01
496.568	0.01
496.766	-0.01
496.964	0.07
497.162	0.06
497.36	0.02
497.558	0.05
497.756	0.07
497.954	0.03
498.152	0.01
498.35	0.03
498.548	0.04
498.746	0.03
498.944	0.02
499.142	0
499.34	0.01
499.538	0.04
499.736	0.01
499.933	0.06
500.131	0.08
500.329	0.04
500.527	0.07
500.725	0.08
500.922	0.06
501.12	0.03
501.318	0.04
501.516	0.02
501.713	0.04
501.911	0.03
502.109	-0
502.306	0.04
502.504	0.03
502.701	0.02
502.899	0.03
503.097	0.09
503.294	0.03
503.492	0.04
503.689	0.03
503.887	0.05
504.084	0.09
504.282	0.04
504.479	0
504.677	0.03
504.874	0.04
505.072	0.04
505.269	0.03
505.466	0.07
505.664	0.04
505.861	0
506.059	-0
506.256	0.05
506.453	-0.01
506.651	0.09
506.848	0.05
507.045	0.02
507.242	0.03
507.44	0.04
507.637	0.04
507.834	0.04
508.031	0.04
508.229	0.01
508.426	0.05
508.623	0.06
508.82	0.03
509.017	0.03
509.214	0.04
509.411	0.02
509.608	-0.01
509.805	0.03
510.003	0.03
510.2	0.03
510.397	0.07
510.594	0.02
510.791	0.02
510.988	0.01
511.184	0.05
511.381	0.03
511.578	-0
511.775	0.05
511.972	0.02
512.169	0.04
512.366	0.03
512.563	0.03
512.76	0.02
512.956	0.05
513.153	0.02
513.35	0.05
513.547	0.02
513.744	0.01
513.94	0.01
514.137	0.02
514.334	0.05
514.53	0.04
514.727	0.04
514.924	0.1
515.12	0.02
515.317	-0.01
515.514	0.02
515.71	0.02
515.907	0.03
516.103	0.03
516.3	0.06
516.497	0.07
516.693	0.06
516.89	0.04
517.086	0.01
517.283	0.05
517.479	0.04
517.676	0.02
517.872	0.03
518.068	0.02
518.265	0.02
518.461	0.01
518.658	0
518.854	0.07
519.05	0.03
519.247	0.02
519.443	0.04
519.639	0.04
519.836	0.04
520.032	0.02
520.228	0.05
520.424	0.09
520.621	0.06
520.817	0.04
521.013	0.05
521.209	0.05
521.405	0.06
521.601	0.05
521.798	0.03
521.994	0.07
522.19	0.02
522.386	0.01
522.582	0.03
522.778	0.04
522.974	0.03
523.17	0.04
523.366	0.02
523.562	0.04
523.758	0.04
523.954	0
524.15	0
524.346	0.05
524.542	0.03
524.738	0.02
524.934	0.02
525.129	-0.03
525.325	0.03
525.521	0.02
525.717	0.06
525.913	0.03
526.109	0.03
526.304	0.04
526.5	0.03
526.696	0.07
526.892	0.03
527.087	0.04
527.283	0.01
527.479	0.05
527.674	0.01
527.87	0.04
528.066	0.03
528.261	0.04
528.457	0.03
528.653	0.03
528.848	0.02
529.044	0.06
529.239	0.04
529.435	0.06
529.63	0.05
529.826	0.08
530.021	0.04
530.217	0.06
530.412	0.02
530.608	0.03
530.803	0.04
530.999	0.03
531.194	-0.02
531.389	0.04
531.585	0
531.78	0.03
531.975	0.04
532.171	0.07
532.366	0.02
532.561	0.05
532.757	0.03
532.952	0.03
533.147	0.03
533.342	0.04
533.538	0.02
533.733	0.04
533.928	0.02
534.123	0.03
534.318	0.01
534.513	0.03
534.709	0.03
534.904	0.02
535.099	0.03
535.294	0.03
535.489	0.04
535.684	0.02
535.879	0.01
536.074	0.05
536.269	0.04
536.464	0.05
536.659	0.03
536.854	0.01
537.049	0.03
537.244	0.03
537.439	0.03
537.634	0.07
537.828	0.05
538.023	0.01
538.218	0
538.413	0.03
538.608	0.02
538.803	0.04
538.997	0.02
539.192	0.07
539.387	0.06
539.582	0.06
539.776	0.04
539.971	-0
540.166	0.03
540.36	0
540.555	0.03
540.75	0.03
540.944	0.03
541.139	0.01
541.334	0.02
541.528	0.04
541.723	0.06
541.917	0.02
542.112	-0.02
542.306	0.02
542.501	0.03
542.695	0.04
542.89	0.01
543.084	0.03
543.279	0.02
543.473	0.03
543.668	0.04
543.862	0.04
544.056	0.07
544.251	0.01
544.445	0.04
544.64	0.03
544.834	-0
545.028	0.05
545.222	0.04
545.417	0.05
545.611	0.05
545.805	0.03
546	0.03
546.194	0.04
546.388	0.03
546.582	0.05
546.776	0.03
546.97	0.04
547.165	0.07
547.359	0.05
547.553	0
547.747	0.03
547.941	0.05
548.135	0.05
548.329	0.04
548.523	0.04
548.717	0.03
548.911	0.03
549.105	0.03
549.299	0.04
549.493	0.06
549.687	0.05
549.881	0.08
550.075	0.02
550.269	-0
550.463	0.04
550.657	0.03
550.85	0.04
551.044	0.02
551.238	0.05
551.432	0.03
551.626	0.02
551.82	0.05
552.013	0.03
552.207	0.03
552.401	0.07
552.594	0.04
552.788	0.01
552.982	0.04
553.176	0.02
553.369	0.07
553.563	0.07
553.756	0.01
553.95	0.02
554.144	0.04
554.337	0.08
554.531	0.05
554.724	0.05
554.918	0.04
555.111	0.07
555.305	0.02
555.498	0.12
555.692	0.08
555.885	0.03
556.079	0.04
556.272	0.04
556.466	0.06
556.659	0.06
556.852	0.03
557.046	0.04
557.239	0.05
557.432	0.03
557.626	0.04
557.819	0.07
558.012	0.07
558.206	0.08
558.399	0.05
558.592	0.06
558.785	0.04
558.979	0.05
559.172	0.04
559.365	0.07
559.558	0.05
559.751	0.04
559.944	0.05
560.138	0.05
560.331	0.06
560.524	0.03
560.717	0.05
560.91	0.07
561.103	0.04
561.296	0.05
561.489	0.06
561.682	0.07
561.875	0.08
562.068	0.07
562.261	0.03
562.454	0.06
562.647	0.05
562.84	0.06
563.032	0.03
563.225	0.05
563.418	0.04
563.611	0.05
563.804	0.05
563.997	0.03
564.19	0.03
564.382	0
564.575	0.04
564.768	0.06
564.961	0.07
565.153	0.04
565.346	0.08
565.539	0.08
565.731	0.06
565.924	0.08
566.117	0.09
566.309	0.04
566.502	0.03
566.695	0.05
566.887	0.06
567.08	0.04
567.272	0.05
567.465	0.04
567.657	0.06
567.85	0.06
568.042	0.08
568.235	0.09
568.427	0.06
568.62	0.1
568.812	0.07
569.005	0.06
569.197	0.03
569.389	0.06
569.582	0.08
569.774	0.05
569.966	0.03
570.159	0.05
570.351	0.08
570.543	0.05
570.736	0.07
570.928	0.03
571.12	0.06
571.312	0.03
571.505	0.03
571.697	0.08
571.889	0.05
572.081	0.05
572.273	0.05
572.465	0.07
572.658	0.04
572.85	0.04
573.042	0.07
573.234	0.03
573.426	0.1
573.618	0.03
573.81	0.09
574.002	0.07
574.194	0.11
574.386	0.02
574.578	-0.02
574.77	0.05
574.962	0.06
575.154	0.02
575.346	0.07
575.538	0.06
575.729	0.03
575.921	0.05
576.113	0.05
576.305	0.09
576.497	0.06
576.689	0.04
576.88	0.06
577.072	0.08
577.264	0.04
577.456	0.06
577.647	0.02
577.839	0.06
578.031	0.09
578.223	0.04
578.414	0.01
578.606	0.08
578.798	0.07
578.989	0.04
579.181	0.09
579.372	0.06
579.564	0.07
579.755	0.08
579.947	0.07
580.139	0.1
580.33	0.02
580.522	0.05
580.713	0.03
580.905	0.08
581.096	0.05
581.287	0.07
581.479	0.08
581.67	0.09
581.862	0.08
582.053	0.04
582.244	0.06
582.436	0.05
582.627	0.09
582.818	0.06
583.01	0.06
583.201	0.09
583.392	0.1
583.583	0.09
583.775	0.07
583.966	0.05
584.157	0.05
584.348	0.09
584.54	0.05
584.731	0.1
584.922	0.09
585.113	0.07
585.304	0.09
585.495	0.09
585.686	0.1
585.877	0.11
586.068	0.09
586.259	0.08
586.45	0.09
586.641	0.08
586.832	0.04
587.023	0.12
587.214	0.08
587.405	0.1
587.596	0.09
587.787	0.11
587.978	0.11
588.169	0.06
588.36	0.07
588.551	0.1
588.742	0.07
588.932	0.1
589.123	0.1
589.314	0.13
589.505	0.11
589.696	0.12
589.886	0.07
590.077	0.09
590.268	0.12
590.458	0.05
590.649	0.06
590.84	0.14
591.03	0.09
591.221	0.07
591.412	0.1
591.602	0.14
591.793	0.13
591.984	0.06
592.174	0.09
592.365	0.16
592.555	0.08
592.746	0.13
592.936	0.15
593.127	0.13
593.317	0.13
593.508	0.11
593.698	0.11
593.889	0.13
594.079	0.12
594.269	0.12
594.46	0.12
594.65	0.12
594.84	0.12
595.031	0.12
595.221	0.14
595.411	0.08
595.602	0.16
595.792	0.13
595.982	0.12
596.172	0.18
596.363	0.15
596.553	0.16
596.743	0.15
596.933	0.17
597.123	0.17
597.314	0.13
597.504	0.13
597.694	0.17
597.884	0.18
598.074	0.14
598.264	0.13
598.454	0.17
598.644	0.17
598.834	0.17
599.024	0.13
599.214	0.17
599.404	0.23
599.594	0.15
599.784	0.17
599.974	0.2
600.164	0.22
600.354	0.15
600.544	0.13
600.734	0.2
600.924	0.23
601.114	0.17
601.303	0.22
601.493	0.2
601.683	0.16
601.873	0.23
602.063	0.16
602.252	0.24
602.442	0.16
602.632	0.2
602.821	0.17
603.011	0.26
603.201	0.21
603.39	0.2
603.58	0.21
603.77	0.23
603.959	0.26
604.149	0.27
604.339	0.23
604.528	0.31
604.718	0.3
604.907	0.26
605.097	0.25
605.286	0.24
605.476	0.28
605.665	0.3
605.855	0.27
606.044	0.28
606.234	0.31
606.423	0.28
606.612	0.27
606.802	0.31
606.991	0.33
607.181	0.33
607.37	0.33
607.559	0.32
607.749	0.31
607.938	0.35
608.127	0.32
608.316	0.33
608.506	0.36
608.695	0.36
608.884	0.35
609.073	0.4
609.263	0.39
609.452	0.4
609.641	0.4
609.83	0.36
610.019	0.42
610.208	0.39
610.397	0.43
610.586	0.45
610.775	0.42
610.965	0.41
611.154	0.42
611.343	0.44
611.532	0.46
611.721	0.46
611.91	0.46
612.099	0.53
612.287	0.46
612.476	0.46
612.665	0.56
612.854	0.48
613.043	0.59
613.232	0.56
613.421	0.52
613.61	0.58
613.798	0.57
613.987	0.61
614.176	0.63
614.365	0.61
614.554	0.64
614.742	0.68
614.931	0.63
615.12	0.66
615.309	0.67
615.497	0.7
615.686	0.67
615.875	0.72
616.063	0.72
616.252	0.74
616.44	0.74
616.629	0.75
616.818	0.77
617.006	0.81
617.195	0.81
617.383	0.85
617.572	0.82
617.76	0.87
617.949	0.85
618.137	0.86
618.326	0.92
618.514	0.88
618.703	0.88
618.891	1.01
619.079	0.92
619.268	1.06
619.456	0.96
619.644	1.05
619.833	1.04
620.021	1.04
620.209	1.03
620.398	1.11
620.586	1.11
620.774	1.18
620.962	1.19
621.151	1.24
621.339	1.18
621.527	1.22
621.715	1.22
621.903	1.26
622.092	1.24
622.28	1.36
622.468	1.32
622.656	1.39
622.844	1.39
623.032	1.41
623.22	1.38
623.408	1.56
623.596	1.5
623.784	1.57
623.972	1.54
624.16	1.58
624.348	1.67
624.536	1.7
624.724	1.61
624.912	1.75
625.1	1.81
625.288	1.8
625.476	1.79
625.664	1.86
625.851	1.85
626.039	1.96
626.227	1.93
626.415	1.96
626.603	1.92
626.79	2.05
626.978	2.11
627.166	2.13
627.354	2.12
627.541	2.13
627.729	2.19
627.917	2.37
628.104	2.35
628.292	2.38
628.48	2.42
628.667	2.41
628.855	2.52
629.042	2.59
629.23	2.57
629.418	2.58
629.605	2.73
629.793	2.72
629.98	2.8
630.168	2.81
630.355	2.88
630.543	2.92
630.73	2.92
630.917	3.02
631.105	3.17
631.292	3.18
631.48	3.22
631.667	3.32
631.854	3.32
632.042	3.37
632.229	3.34
632.416	3.5
632.604	3.57
632.791	3.52
632.978	3.71
633.165	3.69
633.353	3.82
633.54	3.94
633.727	3.81
633.914	3.91
634.101	3.96
634.289	4.16
634.476	4.11
634.663	4.18
634.85	4.26
635.037	4.31
635.224	4.32
635.411	4.49
635.598	4.53
635.785	4.59
635.972	4.64
636.159	4.74
636.346	4.83
636.533	4.83
636.72	4.98
636.907	5.08
637.094	5.04
637.281	5.05
637.468	5.3
637.655	5.34
637.842	5.41
638.029	5.39
638.215	5.51
638.402	5.62
638.589	5.71
638.776	5.84
638.963	5.92
639.149	6.05
639.336	6.18
639.523	6.18
639.709	6.3
639.896	6.3
640.083	6.36
640.27	6.62
640.456	6.67
640.643	6.68
640.829	6.65
641.016	6.85
641.203	6.96
641.389	7.12
641.576	7.17
641.762	7.3
641.949	7.36
642.135	7.49
642.322	7.54
642.508	7.57
642.695	8
642.881	7.93
643.068	8.05
643.254	8.21
643.441	8.32
643.627	8.54
643.813	8.44
644	8.77
644.186	8.75
644.372	9.08
644.559	9.17
644.745	9.22
644.931	9.34
645.118	9.58
645.304	9.65
645.49	9.81
645.676	10.09
645.862	10.18
646.049	10.45
646.235	10.45
646.421	10.87
646.607	11.05
646.793	10.97
646.979	11
647.165	11.39
647.352	11.54
647.538	11.6
647.724	11.88
647.91	12.01
648.096	12.25
648.282	12.43
648.468	12.63
648.654	12.96
648.84	13.02
649.026	13.32
649.212	13.35
649.397	13.49
649.583	14.01
649.769	14.12
649.955	14.21
650.141	14.69
650.327	14.58
650.513	14.93
650.698	15.21
650.884	15.21
651.07	15.66
651.256	15.8
651.442	16.24
651.627	16.02
651.813	16.63
651.999	16.57
652.184	16.9
652.37	17.31
652.556	17.51
652.741	17.66
652.927	17.48
653.113	18.23
653.298	18.43
653.484	18.61
653.669	18.84
653.855	19.16
654.04	19.43
654.226	19.46
654.412	19.71
654.597	19.85
654.782	20.27
654.968	20.42
655.153	20.69
655.339	20.99
655.524	21.03
655.71	21.5
655.895	21.72
656.08	21.83
656.266	22.26
656.451	22.06
656.636	22.33
656.822	22.63
657.007	22.98
657.192	23.09
657.378	23.19
657.563	23.14
657.748	23.42
657.933	24.07
658.118	23.35
658.304	24.32
658.489	24.38
658.674	24.25
658.859	24.3
659.044	24.48
659.229	24.61
659.414	24.92
659.599	24.86
659.785	24.88
659.97	24.96
660.155	24.9
660.34	25.2
660.525	24.82
660.71	24.9
660.895	24.93
661.08	24.79
661.264	24.4
661.449	24.4
661.634	24.1
661.819	24.26
662.004	23.69
662.189	23.78
662.374	23.65
662.559	23
662.743	22.8
662.928	22.53
663.113	22.17
663.298	21.95
663.483	21.59
663.667	21.08
663.852	20.81
664.037	20.38
664.221	20.13
664.406	19.57
664.591	19.24
664.775	18.72
664.96	18.31
665.145	17.59
665.329	17.51
665.514	16.98
665.698	16.23
665.883	15.86
666.068	15.49
666.252	15.21
666.437	14.63
666.621	14.16
666.806	13.76
666.99	13.28
667.174	12.96
667.359	12.5
667.543	12.16
667.728	11.82
667.912	11.24
668.096	10.82
668.281	10.57
668.465	10.33
668.649	9.95
668.834	9.44
669.018	9.37
669.202	9.05
669.387	8.65
669.571	8.46
669.755	8.04
669.939	7.82
670.124	7.62
670.308	7.34
670.492	7.07
670.676	6.88
670.86	6.65
671.044	6.26
671.228	6.16
671.413	5.98
671.597	5.83
671.781	5.62
671.965	5.46
672.149	5.3
672.333	5.07
672.517	4.92
672.701	4.73
672.885	4.63
673.069	4.33
673.253	4.42
673.437	4.17
673.621	4.08
673.804	3.91
673.988	3.9
674.172	3.64
674.356	3.49
674.54	3.49
674.724	3.4
674.908	3.3
675.091	3.17
675.275	3.05
675.459	3
675.643	2.82
675.826	2.83
676.01	2.72
676.194	2.62
676.377	2.58
676.561	2.52
676.745	2.39
676.928	2.37
677.112	2.32
677.296	2.18
677.479	2.11
677.663	1.99
677.846	2.03
678.03	1.95
678.213	1.81
678.397	1.88
678.58	1.81
678.764	1.69
678.947	1.66
679.131	1.58
679.314	1.61
679.498	1.51
679.681	1.54
679.865	1.47
680.048	1.39
680.231	1.35
680.415	1.27
680.598	1.3
680.781	1.24
680.965	1.22
681.148	1.23
681.331	1.15
681.514	1.14
681.698	1.07
681.881	1.06
682.064	1.04
682.247	0.98
682.43	0.94
682.614	1
682.797	0.96
682.98	0.93
683.163	0.79
683.346	0.9
683.529	0.8
683.712	0.76
683.895	0.81
684.078	0.75
684.261	0.72
684.444	0.78
684.627	0.76
684.81	0.69
684.993	0.67
685.176	0.71
685.359	0.68
685.542	0.6
685.725	0.67
685.908	0.62
686.091	0.55
686.274	0.61
686.457	0.62
686.639	0.59
686.822	0.64
687.005	0.6
687.188	0.55
687.371	0.57
687.553	0.52
687.736	0.54
687.919	0.59
688.102	0.55
688.284	0.51
688.467	0.46
688.65	0.41
688.832	0.4
689.015	0.44
689.197	0.4
689.38	0.58
689.563	0.51
689.745	0.39
689.928	0.38
690.11	0.41
690.293	0.35
690.475	0.32
690.658	0.37
690.84	0.35
691.023	0.42
691.205	0.36
691.388	0.32
691.57	0.36
691.752	0.39
691.935	0.28
692.117	0.28
692.3	0.39
692.482	0.34
692.664	0.33
692.847	0.35
693.029	0.34
693.211	0.32
693.393	0.3
693.576	0.29
693.758	0.33
693.94	0.3
694.122	0.25
694.304	0.28
694.487	0.3
694.669	0.34
694.851	0.18
695.033	0.26
695.215	0.21
695.397	0.21
695.579	0.3
695.761	0.24
695.943	0.22
696.125	0.33
696.308	0.25
696.49	0.15
696.671	0.36
696.853	0.23
697.035	0.37
697.217	0.25
697.399	0.29
697.581	0.17
697.763	0.22
697.945	0.18
698.127	0.21
698.309	0.25
698.491	0.21
698.672	0.25
698.854	0.25
699.036	0.3
699.218	0.19
699.399	0.27
699.581	0.25
699.763	0.21
699.945	0.21
700.126	0.18
700.308	0.25
700.49	0.17
700.671	0.15
700.853	0.14
701.035	0.17
701.216	0.21
701.398	0.12
701.579	0.17
701.761	0.19
701.943	0.15
702.124	0.15
702.306	0.18
702.487	0.33
702.669	0.24
702.85	0.19
703.031	0.14
703.213	0.27
703.394	0.22
703.576	0.17
703.757	0.27
703.938	0.25
704.12	0.27
704.301	0.14
704.483	0.13
704.664	0.18
704.845	0.26
705.026	0.23
705.208	0.16
705.389	0.15
705.57	0.18
705.751	0.14
705.933	0.2
706.114	0.24
706.295	0.11
706.476	0.13
706.657	0.26
706.838	0.13
707.02	0.17
707.201	0.17
707.382	0.17
707.563	0.19
707.744	0.13
707.925	0.08
708.106	0.11
708.287	0.13
708.468	0.26
708.649	0.16
708.83	0.23
709.011	0.17
709.192	0.19
709.373	0.12
709.554	0.13
709.734	0.15
709.915	0.24
710.096	0.22
710.277	0.01
710.458	0.15
710.639	0.17
710.819	0.02
711	0.13
711.181	0.18
711.362	0.21
711.542	0.12
711.723	0.17
711.904	0.26
712.085	0.2
712.265	0.16
712.446	0.11
712.627	0.19
712.807	0.16
712.988	0.15
713.168	0.01
713.349	0.16
713.53	0.06
713.71	-0.02
713.891	0.04
714.071	0.13
714.252	0.12
714.432	0.14
714.613	0.08
714.793	0.2
714.974	0.2
715.154	0.21
715.334	0.2
715.515	0.19
715.695	0.09
715.876	0.1
716.056	0.1
716.236	0.03
716.417	0.13
716.597	0.16
716.777	0.21
716.957	0.16
717.138	0.17
717.318	0.16
717.498	0.06
717.678	0.14
717.859	0.17
718.039	0.1
718.219	0.17
718.399	0.25
718.579	0.08
718.759	0.08
718.939	0.18
719.12	0.15
719.3	0.14
719.48	0.06
719.66	-0.04
719.84	0.28
720.02	0.13
720.2	0.08
720.38	0.14
720.56	0.22
720.74	0.11
720.92	0.16
721.1	0.2
721.279	0.18
721.459	0.07
721.639	0.07
721.819	0.16
721.999	0.15
722.179	0.2
722.359	0.08
722.538	0.23
722.718	0.17
722.898	0.14
723.078	0.07
723.257	0.08
723.437	0.11
723.617	0.14
723.797	0.14
723.976	0.12
724.156	0.14
724.336	0.22
724.515	0.3
724.695	0.13
724.874	0.12
725.054	0.17
725.234	0.08
725.413	0.17
725.593	0.13
725.772	0.11
725.952	0.14
726.131	0.16
726.311	0.09
726.49	0.11
726.67	0.01
726.849	0.04
727.028	0.13
727.208	0.14
727.387	0.24
727.567	0.09
727.746	0.09
727.925	0.08
728.105	0.17
728.284	0.09
728.463	0.08
728.643	0.15
728.822	0.12
729.001	0.03
729.18	0.17
729.359	0.14
729.539	0.09
729.718	0.14
729.897	0.2
730.076	0.14
730.255	0.09
730.434	0.17
730.614	0.23
730.793	0.23
730.972	0.15
731.151	0.17
731.33	0.2
731.509	0.26
731.688	0.15
731.867	0.09
732.046	-0
732.225	0.29
732.404	0.08
732.583	0.09
732.762	0.15
732.941	0.19
733.12	0.12
733.298	0.12
733.477	0.27
733.656	0.18
733.835	0.03
734.014	0.23
734.193	0.17
734.371	0.22
734.55	0.16
734.729	-0
734.908	0.23
735.086	0.17
735.265	0.12
735.444	0
735.623	0.03
735.801	0.03
735.98	0.12
736.159	0.14
736.337	0.19
736.516	0.04
736.694	0.13
736.873	0.1
737.052	0.28
737.23	0.22
737.409	0.1
737.587	0.25
737.766	0.05
737.944	-0.01
738.123	0.24
738.301	0.15
738.479	0.14
738.658	0.22
738.836	0.06
739.015	0.17
739.193	0.17
739.371	0.07
739.55	0.14
739.728	0.07
739.906	0.19
740.085	0.21
740.263	0.09
740.441	-0.09
740.62	0.29
740.798	0.33
740.976	0.05
741.154	0.19
741.332	0.23
741.511	0.19
741.689	0.17
741.867	0.25
742.045	0.16
742.223	0.18
742.401	0.01
742.579	0.08
742.757	0.18
742.935	0.01
743.114	0.17
743.292	0.2
743.47	0.13
743.648	0.14
743.826	0.22
744.004	0.24
744.181	0.22
744.359	0.1
744.537	0.03
744.715	0.08
744.893	0.19
745.071	0.15
745.249	0.14
745.427	0.12
745.605	0.16
745.782	0.15
745.96	0.24
746.138	0.05
746.316	0.27
746.493	0.01
746.671	0.13
746.849	0.09
747.027	0.35
747.204	0.01
747.382	0.24
747.56	-0.07
747.737	0.02
747.915	0.06
748.093	0.22
748.27	0.07
748.448	0.09
748.625	0.03
748.803	0.06
748.98	0.05
749.158	0.23
749.335	0.2
749.513	0.18
749.69	0.03
749.868	0.17
750.045	0.26
750.223	-0.03
750.4	-0.02
750.578	0.36
750.755	0.1
750.932	-0.09
751.11	0.24
751.287	0.02
751.464	0.24
751.642	0.05
751.819	0.11
751.996	0.18
752.173	0.02
752.351	0.08
752.528	0.31
752.705	0.14
752.882	-0
753.06	0.13
753.237	0.15
753.414	0.33
753.591	0.33
753.768	0.16
753.945	0.07
754.122	0.12
754.299	0.25
754.476	-0.07
754.654	0.11
754.831	0.17
755.008	0.15
755.185	0.03
755.362	0.04
755.539	0.05
755.716	0.11
755.892	0.05
756.069	0.11
756.246	-0.03
756.423	0.13
756.6	0.33
756.777	0.15
756.954	0.21
757.131	0.08
757.307	-0.04
757.484	0.04
757.661	0.28
757.838	0.15
758.015	0.05
758.191	0.16
758.368	0.09
758.545	0.24
758.721	0.15
758.898	0.06
759.075	0.17
759.251	0.17
759.428	0.18
759.605	-0.06
759.781	0.04
759.958	0.23
760.134	0.24
760.311	0.11
760.488	0.28
760.664	0.21
760.841	0.15
761.017	0.08
761.194	0.24
761.37	0.21
761.547	0.24
761.723	-0.04
761.899	0.21
762.076	0.06
762.252	0.02
762.429	0.02
762.605	0.02
762.781	0.07
762.958	0.21
763.134	-0
763.31	0.05
763.486	0.16
763.663	-0.15
763.839	0.16
764.015	-0
764.191	0.02
764.368	0.1
764.544	0.07
764.72	0.22
764.896	0.18
765.072	0.15
765.248	-0.01
765.425	-0.08
765.601	0.15
765.777	0.06
765.953	-0.08
766.129	0.09
766.305	0.05
766.481	0.21
766.657	0.07
766.833	0.23
767.009	0.07
767.185	-0
767.361	0.26
767.537	0.05
767.713	0.26
767.889	0.06
768.065	0.04
768.24	-0.08
768.416	0.22
768.592	0.13
768.768	0.01
768.944	0.32
769.12	-0.08
769.295	0.09
769.471	0.26
769.647	0.1
769.823	0.31
769.998	-0.01
770.174	-0.03
770.35	0.38
770.525	0.39
770.701	0.09
770.877	0.01
771.052	0.16
771.228	0.21
771.403	0.18
771.579	0.17
771.755	0.3
771.93	0.09
772.106	-0
772.281	-0.09
772.457	0.08
772.632	0.28
772.808	-0.05
772.983	0.06
773.159	0.01
773.334	0.24
773.509	0.09
773.685	0.06
773.86	0.37
774.036	0.34
774.211	0.35
774.386	0.1
774.562	0.24
774.737	0.23
774.912	0.09
775.087	0.37
775.263	0.1
775.438	0.17
775.613	0.02
775.788	0.07
775.964	0.3
776.139	0.48
776.314	-0.11
776.489	0.28
776.664	0.19
776.839	-0.01
777.014	0.27
777.19	0.25
777.365	0.37
777.54	0.38
777.715	0.02
777.89	0.01
778.065	-0
778.24	0.21
778.415	0.18
778.59	0.13
778.765	0.08
778.94	0.09
779.115	0.15
779.289	0.15
779.464	0.02
779.639	0.18
779.814	0.03
779.989	-0.08
780.164	0.39
780.339	0.15
780.513	0.12
780.688	0.05
780.863	0.26
781.038	0.43
781.212	0.08
781.387	0.25
781.562	0.55
781.737	0.16
781.911	0.48
782.086	0.02
782.261	0.12
782.435	0.22
782.61	-0.06
782.784	0.09
782.959	0.44
783.134	0.22
783.308	-0.05
783.483	0.02
783.657	0.46
783.832	0.35
784.006	-0.06
784.181	0.37
784.355	0.32
784.53	0.01
784.704	0.16
784.878	0.35
785.053	0.41
785.227	0.28
785.402	0.66
785.576	-0.04
785.75	0.02
785.925	0.22
786.099	0.24
786.273	0.26
786.448	0.2
786.622	0.38
786.796	0.18
786.97	0.22
787.145	0.65
787.319	-0.25
787.493	0.03
787.667	-0.04
787.841	0.16
788.015	0.39
788.19	0.02
788.364	0.22
788.538	0.23
788.712	0.26
788.886	0.19
789.06	0.34
789.234	0.39
789.408	-0.05
789.582	0.13
789.756	0.23
789.93	0.11
790.104	-0.06
790.278	-0.04
790.452	0.16
790.626	0.36
790.8	0.12
790.973	0.34
791.147	0.49
791.321	0.54
791.495	0.23
791.669	0.31
791.843	0.25
792.016	0.34
792.19	0.64
792.364	-0.07
792.538	0.78
792.711	0.55
792.885	0.31
793.059	0.03
793.233	-0.45
793.406	0.37
793.58	0.13
793.754	0.14
793.927	0.18
794.101	0.39
794.274	-0.01
794.448	0.32
794.622	-0.05
794.795	0.63
794.969	-0.13
795.142	0.75
795.316	0.14
795.489	0.16
795.663	0.47
795.836	0.24
796.009	-0.09
796.183	0.55
796.356	0.38
796.53	0.33
796.703	0.14
796.876	0.85
797.05	0.09
797.223	0.14
797.396	0.41
797.57	0.24
797.743	0.63
797.916	0.33
798.09	0.17
798.263	0.63
798.436	0.06
798.609	0.1
798.782	0.01
798.956	0.27
799.129	0.25
799.302	0.24
799.475	-0.06
799.648	0.28
799.821	-0.11
799.994	0.26
800.167	-0.08
800.34	0.34
800.514	0.27
800.687	0.18
800.86	0.43
801.033	0.29
801.206	0.39
801.379	0.01
801.551	0.44
801.724	0.68
801.897	0.64
802.07	0.04
802.243	-0.01
802.416	0.19
802.589	0.01
802.762	0.46
802.935	0.35
803.107	0.62
803.28	0.47
803.453	0.89
803.626	0.19
803.798	0.33
803.971	0.12
804.144	0.51
804.317	0.51
804.489	0.37
804.662	0.35
804.835	0.53
805.007	-0
805.18	0.62
805.353	0.19
805.525	-0.17
805.698	0.09
805.87	0.72
806.043	0.55
806.215	-0.11
806.388	0.11
806.56	0.43
806.733	0.55
806.905	0.33
807.078	0.05
807.25	0.1
807.423	0.43
807.595	0.31
807.768	0.21
807.94	0.81
808.112	0.3
808.285	0.3
808.457	0.07
808.629	0.22
808.802	0.2
808.974	0.44
809.146	0.09
809.318	0.23
809.491	0.64
809.663	0.73
809.835	0.3
810.007	0.63
810.18	0.21
810.352	-0.09
810.524	0.02
810.696	0.59
810.868	0.58
811.04	-0.09
811.212	0.17
811.384	0.28
811.556	0.28
811.728	0.09
811.901	0.88
812.073	0.22
812.245	0.54
812.417	0.27
812.589	-0.34
812.76	0.31
812.932	0.54
813.104	0.86
813.276	0.36
813.448	0.61
813.62	0.38
813.792	0.63
813.964	0.31
814.136	0.51
814.307	-0.01
814.479	0.5
814.651	-0.02
814.823	1.25
814.995	-0.02
815.166	0.57
815.338	0.19
815.51	-0.09
815.681	1.26
815.853	0.47
816.025	0.32
816.196	0.82
816.368	0.93
816.54	0.03
816.711	0.06
816.883	0.53
817.054	1.5
817.226	-0.36
817.398	0.18
817.569	-0.11
817.741	0.74
817.912	0.8
818.084	0.09
818.255	1.06
818.426	0.36
818.598	0.25
818.769	-0.35
818.941	0.42
819.112	0.61
819.283	0.86
819.455	0.05
819.626	0.32
819.798	0.63
819.969	0.48
820.14	0.44
820.311	-0.12
820.483	0.31
820.654	0.36
820.825	0.14
820.996	0.25
821.168	0.19
821.339	0.56
821.51	-0.06
821.681	-0.1
821.852	0.38
822.023	-0.02
822.195	-0.44
822.366	0.79
822.537	0.09
822.708	0.39
822.879	0.31
823.05	0.98
823.221	0.6
823.392	0.81
823.563	0.45
823.734	0.87
823.905	0.2
824.076	-0.14
824.247	0.07
824.418	0.1
824.589	0.49
824.759	0.52
824.93	0.63
825.101	-0.13
825.272	1.15
825.443	1.03
825.614	0.91
825.784	-0.39
825.955	1.81
826.126	0.96
826.297	0.79
826.467	1.19
826.638	0.49
826.809	-0
826.98	0.55
827.15	0.58
827.321	0.45
827.492	1.22
827.662	0.33
827.833	1.53
828.003	0.74
828.174	-0.3
828.345	-0.06
828.515	1.36
828.686	0.75
828.856	0.22
829.027	0.38
829.197	0.61
829.368	0.86
829.538	-0.16
829.709	-0.18
829.879	0.84
830.049	0.82
830.22	-0.02
830.39	-0.02
830.56	1.16
830.731	0.46
830.901	0.08
831.072	0.56
831.242	0.59
831.412	0.39
831.582	0.43
831.753	-0.28
831.923	0.96
832.093	0.29
832.263	0.09
832.434	-0.05
832.604	0.24
832.774	1.19
832.944	0.99
833.114	0.64
833.284	0.57
833.454	-0.01
833.624	0.38
833.795	0.09
833.965	1.11
834.135	1.41
834.305	-0.57
834.475	-0.32
834.645	0.53
834.815	0.2
834.985	-0.31
835.155	0.2
835.325	0.91
835.494	0.93
835.664	0.12
835.834	-0.5
836.004	0.24
836.174	0.74
836.344	0.43
836.514	-0.42
836.684	0.89
836.853	0.79
837.023	0.32
837.193	0.42
837.363	1.35
837.532	1.21
837.702	0.45
837.872	-0.04
838.041	0.96
838.211	1.7
838.381	0.35
838.55	1.13
838.72	2.64
838.89	1.89
839.059	0.07
839.229	0.63
839.398	1.63
839.568	0.1
839.738	0.57
839.907	1.05
840.077	1.1
840.246	0.02
840.416	-0.09
840.585	0.07
840.755	1.59
840.924	1.48
841.093	-0.05
841.263	-0.29
841.432	0.84
841.602	-0.29
841.771	0.39
841.94	-0.2
842.11	2.92
842.279	2.04
842.448	0.48
842.617	0.56
842.787	1.59
842.956	-0.2
843.125	0.65
843.294	0.92
843.464	0.78
843.633	0.4
843.802	-0.52
843.971	0.67
844.14	1.24
844.309	1.45
844.479	-0.35
844.648	0.1
844.817	1.02
844.986	1.52
845.155	0.35
845.324	-0.81
845.493	0.71
845.662	-0.02
845.831	1.31
846	1.28
846.169	0.56
846.338	2.42
846.507	1.28
846.676	1.3
846.844	0.02
847.013	1.32
847.182	0.21
847.351	0.37
847.52	0.35
847.689	1.18
847.858	0.83
848.026	-0.04
848.195	1.35
848.364	0.69
848.533	-0.04
848.701	0.04
848.87	-0.16
849.039	1.68
849.207	2.2
849.376	1.4
849.545	0.88
849.713	-0.24
849.882	0.61
850.051	0.75
850.219	0.87
850.388	1
850.556	-0.26
850.725	0.18
850.893	1.94
851.062	1.18
851.23	0.93
851.399	-1.2
851.567	0.3
851.736	-0.16
851.904	-1.04
852.073	0.96
852.241	1.8
852.41	1.01
852.578	1.62
852.746	0.55
852.915	1.33
853.083	0.09
853.251	-0.09
853.42	1.01
853.588	0.9
853.756	2
853.924	0.28
854.093	-0.41
854.261	0.81
854.429	-0.32
854.597	1.33
854.765	-0.13
854.934	1.33
855.102	1.88
855.27	0.81
855.438	1.71
855.606	1.99
855.774	1.29
855.942	-1.3
856.11	-0.4
856.278	0.17
856.446	1.22
856.614	0.65
856.782	0.85
856.95	1.41
857.118	2
857.286	1.57
857.454	0.16
857.622	1.6
857.79	1.29
857.958	-1.02
858.126	-0.05
858.294	-2.33
858.462	1.51
858.629	-1.02
858.797	0.24
858.965	1.78
859.133	1.57
859.301	0.53
859.468	2.31
859.636	-0.28
859.804	3.05
859.971	1.19
860.139	0.45
860.307	1.15
860.474	0.66
860.642	0.21
860.81	-0.16
860.977	1
861.145	2.02
861.313	0.48
861.48	-0.49
861.648	1.84
861.815	1.42
861.983	0.14
862.15	0.96
862.318	1.76
862.485	1.17
862.653	0.4
862.82	-0.41
862.988	2.56
863.155	2.23
863.322	-0
863.49	-1
863.657	0.26
863.824	2.79
863.992	1.48
864.159	0.68
864.326	1.26
864.494	0.63
864.661	4.78
864.828	0.93
864.996	2.31
865.163	2.78
865.33	-0.16
865.497	-1.36
865.664	0.21
865.832	-0.65
865.999	0.6
866.166	-0.36
866.333	0.85
866.5	0.82
866.667	-0
866.834	0.76
867.001	1.43
867.168	1.75
867.335	1.26
867.502	0.89
867.669	1.57
867.836	3.81
868.003	1.11
868.17	2.11
868.337	4.6
868.504	3.14
868.671	-1.39
868.838	-0.89
869.005	1.47
869.172	1.17
869.339	1.24
869.505	1.78
869.672	1.22
869.839	2.61
870.006	1.49
870.173	0.68
870.339	1.09
870.506	2.22
870.673	0.22
870.84	2.44
871.006	0.43
871.173	0.97
871.34	0.88
871.506	-0.05
871.673	2.99
871.839	-0.41
872.006	1.21
872.173	0.41
872.339	2.32
872.506	2.1
872.672	0.68
872.839	1.06
873.005	2.6
873.172	3.85
873.338	1.92
873.505	1.04
873.671	1.73
873.838	2.79
874.004	0.47
874.171	-1.42
874.337	3.15
874.503	2.59
874.67	0.39
874.836	1.03
875.002	4.58
875.169	3.14
875.335	2.48
875.501	0.33
875.668	3.1
875.834	1.66
876	0.73
876.166	3
876.332	1.09
876.499	3.14
876.665	0.14
876.831	1.33
876.997	3.77
877.163	3.36
877.329	-0.61
877.495	1.7
877.662	3.35
877.828	0.79
877.994	1.77
878.16	-1.22
878.326	0.35
878.492	1.76
878.658	-0.32
878.824	0.83
878.99	1.32
879.156	1.99
879.322	3.73
879.487	1.36
879.653	2.82
879.819	1.96
879.985	-1.08
880.151	2.27
880.317	1.92
880.483	0.91
880.648	2.82
880.814	-1.05
880.98	1.74
881.146	-0.68
881.312	-1.3
881.477	2.2
881.643	1.24
881.809	2.75
881.974	3.7
882.14	0.15
882.306	1.24
882.471	4.65
882.637	-0.02
882.803	1.48
882.968	3.63
883.134	5.44
883.299	2
883.465	1.16
883.63	0.45
883.796	2.2
883.961	2.2
884.127	1.56
884.292	-2.34
884.458	-1.85
884.623	-1.85
