Data from Apollo_Calib_20240827__AbsoluteIrradiance__205__02-34-00-598.txt Node

Date: Wed Aug 28 02:34:00 BST 2024
User: biology
Spectrometer: FLMT08252
Trigger mode: 0
Integration Time (sec): 5.000000E-1
Scans to average: 5
Electric dark correction enabled: true
Nonlinearity correction enabled: false
Boxcar width: 0
XAxis mode: Wavelengths
Number of Pixels in Spectrum: 3648
>>>>>Begin Spectral Data<<<<<
179.588	-0
179.809	-0
180.03	-0
180.251	-0
180.473	-0
180.694	0
180.915	0
181.136	-0
181.357	0
181.578	-0
181.799	-0
182.02	-0
182.241	-0
182.462	-0
182.683	0
182.904	-0
183.125	-0
183.346	0
183.567	0
183.788	-0
184.009	-0
184.23	0
184.451	0
184.672	-0
184.892	-0
185.113	0
185.334	0
185.555	-0
185.776	0
185.996	0
186.217	0
186.438	0
186.659	-0
186.879	0
187.1	0
187.321	-0
187.541	-0
187.762	0
187.983	-0
188.203	-0
188.424	0
188.644	0
188.865	0
189.086	0
189.306	0
189.527	0
189.747	0
189.968	-0
190.188	0
190.409	0
190.629	0
190.849	-0
191.07	-0
191.29	0
191.511	0
191.731	-0
191.951	-0
192.172	0
192.392	-0
192.612	0
192.833	0
193.053	0
193.273	0
193.493	0
193.714	-0
193.934	0
194.154	0
194.374	0
194.594	0
194.815	-0
195.035	0
195.255	0
195.475	-0
195.695	0
195.915	0
196.135	-0
196.355	0
196.575	0
196.795	0
197.015	-0
197.235	0
197.455	-0
197.675	0
197.895	0
198.115	-0
198.335	0
198.555	0
198.775	0
198.995	0
199.214	0
199.434	0
199.654	0
199.874	-0
200.094	1.25
200.313	0.59
200.533	-0.68
200.753	-0.33
200.973	1.43
201.192	0.73
201.412	-0.73
201.632	-0.27
201.851	1.57
202.071	-0.51
202.291	-0.03
202.51	-0
202.73	0.76
202.95	0.04
203.169	-0.25
203.389	0.22
203.608	0.66
203.828	0.1
204.047	-0.29
204.267	0.75
204.486	0.19
204.706	0.6
204.925	0.24
205.145	-0.26
205.364	0.5
205.583	0.77
205.803	0.05
206.022	-0.05
206.242	0
206.461	0.16
206.68	-0.18
206.9	0.14
207.119	0.88
207.338	0.73
207.557	0.05
207.777	0.15
207.996	0.02
208.215	0.79
208.434	-0.08
208.654	-0.19
208.873	0.3
209.092	0.74
209.311	-0.06
209.53	-0.06
209.749	0.13
209.968	-0.04
210.187	0.04
210.407	-0.29
210.626	-0.11
210.845	0.38
211.064	0.26
211.283	-0.02
211.502	0.32
211.721	-0.03
211.94	-0.14
212.159	0.22
212.377	0.45
212.596	0.39
212.815	0.41
213.034	0.33
213.253	0.49
213.472	0.32
213.691	-0.06
213.91	-0.24
214.128	0.01
214.347	0.7
214.566	-0.21
214.785	-0.12
215.003	0.42
215.222	0.21
215.441	0.2
215.66	-0.22
215.878	-0.01
216.097	0.38
216.316	-0.2
216.534	0.14
216.753	0.34
216.972	0.05
217.19	0.09
217.409	-0.17
217.627	0.08
217.846	-0.03
218.064	0.2
218.283	-0.24
218.501	0.43
218.72	0.43
218.938	-0.26
219.157	0.06
219.375	0.31
219.594	0.12
219.812	-0.13
220.031	-0
220.249	0.4
220.467	0.35
220.686	-0.02
220.904	-0.02
221.122	-0.01
221.341	0.53
221.559	0.04
221.777	0.05
221.995	0.15
222.214	0.18
222.432	-0
222.65	0.2
222.868	0.19
223.086	0.26
223.305	0.26
223.523	-0.04
223.741	0.4
223.959	-0.25
224.177	-0.19
224.395	-0.02
224.613	0.09
224.831	0.3
225.049	-0.12
225.267	0.03
225.485	0.13
225.703	0.1
225.921	0.09
226.139	0.06
226.357	0.14
226.575	0.25
226.793	-0.02
227.011	0.68
227.229	0.08
227.447	0.34
227.665	-0.04
227.883	-0.11
228.1	0.07
228.318	0.22
228.536	-0.27
228.754	-0.03
228.972	0.17
229.189	0.07
229.407	0.06
229.625	0.02
229.843	0.41
230.06	0.1
230.278	0.02
230.496	0.02
230.713	0
230.931	0.31
231.149	-0
231.366	-0.13
231.584	0.03
231.801	0.46
232.019	-0.08
232.236	-0.02
232.454	-0.11
232.671	0.23
232.889	0.11
233.106	-0.07
233.324	0.05
233.541	0.02
233.759	0.08
233.976	-0.07
234.194	0.07
234.411	0.07
234.628	-0.02
234.846	-0.08
235.063	0.03
235.28	0.19
235.498	0.07
235.715	-0.09
235.932	0.26
236.149	0.01
236.367	0.03
236.584	0.08
236.801	0.09
237.018	0.16
237.236	0.05
237.453	-0.13
237.67	0.2
237.887	0.06
238.104	-0.05
238.321	-0.09
238.538	-0.04
238.755	0.24
238.973	-0.06
239.19	0.1
239.407	0.09
239.624	0.08
239.841	-0.04
240.058	-0.09
240.275	0.12
240.492	0.08
240.709	0.12
240.925	-0
241.142	0.09
241.359	-0.12
241.576	-0.04
241.793	-0.08
242.01	0.05
242.227	0.18
242.444	0.12
242.66	0.17
242.877	0.01
243.094	-0.01
243.311	0.01
243.527	0.05
243.744	0.19
243.961	0.07
244.178	0.04
244.394	0.04
244.611	0.14
244.828	0.32
245.044	-0.06
245.261	0.14
245.477	0.14
245.694	0.16
245.911	-0.01
246.127	0.07
246.344	0.2
246.56	0.12
246.777	0.05
246.993	0.12
247.21	0.12
247.426	0.08
247.643	0.05
247.859	-0.01
248.076	0.02
248.292	0.27
248.508	-0.06
248.725	0.09
248.941	0.06
249.157	0.12
249.374	-0
249.59	-0.01
249.806	0.1
250.023	0.19
250.239	-0.02
250.455	-0.06
250.671	-0.03
250.888	0.17
251.104	0.11
251.32	0.03
251.536	0.06
251.752	0.02
251.969	0.01
252.185	0.04
252.401	0.23
252.617	0.1
252.833	0.03
253.049	0.02
253.265	0.09
253.481	0.09
253.697	0.03
253.913	-0.08
254.129	0.12
254.345	0.04
254.561	0.01
254.777	0.02
254.993	0.08
255.209	0.16
255.425	0.03
255.641	-0.01
255.857	0.11
256.073	0.12
256.288	-0.01
256.504	-0.02
256.72	0.18
256.936	0.16
257.152	0.04
257.367	-0.03
257.583	0.04
257.799	0.12
258.015	0.05
258.23	0.01
258.446	0.29
258.662	0.05
258.877	-0.03
259.093	-0.09
259.309	0.05
259.524	0.18
259.74	0.01
259.955	-0.06
260.171	0.08
260.387	0.1
260.602	0.1
260.818	0.07
261.033	0.01
261.249	0.02
261.464	0.06
261.68	-0.1
261.895	0.11
262.11	0.11
262.326	0.07
262.541	-0.05
262.757	0.13
262.972	0.09
263.187	0.07
263.403	0.03
263.618	0.06
263.833	0.08
264.049	-0.04
264.264	0.05
264.479	0.11
264.694	0.15
264.91	-0
265.125	0.07
265.34	0.09
265.555	0.21
265.77	0.08
265.986	0.06
266.201	0.09
266.416	0.17
266.631	0.1
266.846	0
267.061	0.09
267.276	0.13
267.491	-0.1
267.706	0.03
267.921	0.1
268.136	0.07
268.351	-0.03
268.566	-0.09
268.781	0.16
268.996	0.01
269.211	0.02
269.426	-0.05
269.641	0.06
269.856	0.12
270.071	-0.03
270.285	0.01
270.5	0.08
270.715	0.16
270.93	0.06
271.145	0.06
271.359	0.05
271.574	0.01
271.789	0.03
272.004	-0.01
272.218	-0
272.433	0.12
272.648	-0.02
272.862	0.09
273.077	0.08
273.292	0.08
273.506	0
273.721	0.03
273.936	0.12
274.15	0.07
274.365	-0
274.579	0.05
274.794	0.04
275.008	0.13
275.223	0.02
275.437	0.05
275.652	0.08
275.866	0.09
276.081	0.06
276.295	0.12
276.509	-0.01
276.724	0.1
276.938	0.04
277.153	0.1
277.367	0.09
277.581	-0
277.796	-0.03
278.01	-0
278.224	0.12
278.438	0.2
278.653	-0
278.867	-0
279.081	0.12
279.295	0.08
279.51	0.08
279.724	-0.07
279.938	0.12
280.152	0.01
280.366	0
280.58	0.04
280.794	0.17
281.008	0.08
281.222	0.11
281.437	0.21
281.651	0.1
281.865	0.09
282.079	0.06
282.293	-0.07
282.507	0.05
282.721	0.03
282.935	-0.01
283.148	-0.04
283.362	0.02
283.576	-0.01
283.79	0.02
284.004	-0
284.218	0.13
284.432	0.05
284.646	0.07
284.859	0.02
285.073	0.04
285.287	0.08
285.501	0.06
285.714	0.02
285.928	0.02
286.142	0.02
286.356	-0.02
286.569	0
286.783	0.14
286.997	0.07
287.21	0.03
287.424	0.06
287.637	0.01
287.851	0.04
288.065	0.1
288.278	0.01
288.492	0.09
288.705	0.06
288.919	0.06
289.132	-0.03
289.346	0.12
289.559	-0.05
289.773	-0.05
289.986	0.06
290.2	0.04
290.413	0.09
290.626	0.02
290.84	0.07
291.053	0.04
291.267	0.13
291.48	0.05
291.693	0.06
291.906	-0
292.12	0.02
292.333	0.03
292.546	0.01
292.76	0.13
292.973	0.1
293.186	0.07
293.399	0.03
293.612	0.1
293.826	0.05
294.039	0.02
294.252	0.08
294.465	0.05
294.678	0.1
294.891	0.07
295.104	-0.03
295.317	0.05
295.53	0.07
295.743	0.03
295.956	0.03
296.169	0.14
296.382	0.05
296.595	0.06
296.808	0.03
297.021	0.11
297.234	0.06
297.447	0.05
297.66	0.04
297.873	0.1
298.086	0.14
298.299	0.02
298.511	-0.04
298.724	-0.01
298.937	0.01
299.15	-0.01
299.363	0.04
299.575	0.09
299.788	0.06
300.001	0.03
300.213	-0.04
300.426	0.04
300.639	-0.02
300.852	0.01
301.064	0.08
301.277	0.1
301.489	0.1
301.702	0.08
301.915	0.06
302.127	0.05
302.34	0.07
302.552	0.07
302.765	0.01
302.977	0.09
303.19	0.04
303.402	0.05
303.615	0.03
303.827	-0.01
304.04	0.03
304.252	0.03
304.464	0.03
304.677	0.22
304.889	0.02
305.102	0
305.314	-0.02
305.526	0.04
305.739	0.1
305.951	-0
306.163	0.05
306.375	0.15
306.588	0.05
306.8	0.02
307.012	-0.03
307.224	0.1
307.436	0.09
307.649	-0.01
307.861	0.06
308.073	0.1
308.285	0.01
308.497	-0
308.709	0.02
308.921	0.05
309.133	0.08
309.346	0.06
309.558	0.05
309.77	0.12
309.982	0.13
310.194	0.1
310.406	-0.01
310.617	0.11
310.829	0.03
311.041	0.06
311.253	0.02
311.465	0.02
311.677	0.07
311.889	0.01
312.101	0.02
312.313	0.11
312.524	0.12
312.736	-0.02
312.948	0.04
313.16	0.09
313.372	0.12
313.583	0.07
313.795	0.03
314.007	0.04
314.218	0.11
314.43	0.06
314.642	0.07
314.853	-0.01
315.065	0.14
315.277	0.05
315.488	0.06
315.7	0.11
315.912	0.09
316.123	0.03
316.335	0.08
316.546	0.15
316.758	0.07
316.969	0.03
317.181	0.06
317.392	0.05
317.604	0.08
317.815	0.02
318.026	-0
318.238	0.03
318.449	0.05
318.661	-0.02
318.872	0.01
319.083	0.01
319.295	0.08
319.506	0.07
319.717	0.08
319.929	0.12
320.14	0.07
320.351	0.06
320.562	0.04
320.774	0.11
320.985	0.06
321.196	0.05
321.407	-0.01
321.618	0.12
321.829	0.06
322.041	0.11
322.252	0.07
322.463	0.09
322.674	0.09
322.885	-0.01
323.096	0.08
323.307	0.11
323.518	0.06
323.729	0.04
323.94	0.01
324.151	0.01
324.362	0.07
324.573	0.07
324.784	-0.01
324.995	0.1
325.206	0.05
325.417	0.01
325.628	0.04
325.838	0.04
326.049	0.05
326.26	0.09
326.471	0.05
326.682	0.1
326.892	0.07
327.103	-0.02
327.314	0
327.525	0.11
327.735	0.01
327.946	0.05
328.157	0.04
328.368	0.09
328.578	0.08
328.789	0.1
328.999	0.07
329.21	0
329.421	0.07
329.631	0.04
329.842	0.02
330.052	0.09
330.263	0.05
330.473	0.11
330.684	0.06
330.894	0.04
331.105	0.09
331.315	0.07
331.526	-0.04
331.736	0.11
331.947	0.05
332.157	0.11
332.367	0.01
332.578	0.06
332.788	0.14
332.999	0.1
333.209	0.04
333.419	0.03
333.629	0.09
333.84	0.1
334.05	0.05
334.26	0.12
334.47	0.05
334.681	0.11
334.891	0.02
335.101	0.06
335.311	0.12
335.521	0.05
335.732	0.02
335.942	0.08
336.152	0.11
336.362	0.04
336.572	0.04
336.782	0.09
336.992	0.04
337.202	0.05
337.412	0.03
337.622	0.07
337.832	0.04
338.042	0.05
338.252	0.04
338.462	0.02
338.672	0.04
338.882	0.08
339.092	0.02
339.302	0.15
339.511	0.08
339.721	0.01
339.931	0.04
340.141	0.11
340.351	0.17
340.561	0.06
340.77	0.08
340.98	0.08
341.19	0.1
341.4	0.07
341.609	0.05
341.819	0.07
342.029	-0
342.238	0.09
342.448	0
342.658	0.13
342.867	0.02
343.077	0.09
343.286	0.04
343.496	0.08
343.706	0.11
343.915	-0.02
344.125	0.04
344.334	0.08
344.544	-0.02
344.753	0.02
344.963	0.06
345.172	0.08
345.381	0.03
345.591	0.04
345.8	0.07
346.01	0.12
346.219	0.14
346.428	-0.08
346.638	0.04
346.847	0.08
347.056	0.08
347.266	0.04
347.475	0.09
347.684	0.1
347.893	0.11
348.103	0.09
348.312	0.1
348.521	0.05
348.73	0.1
348.94	0.08
349.149	0.08
349.358	0.04
349.567	0.06
349.776	0.02
349.985	0.05
350.194	0.13
350.403	0.1
350.612	0.02
350.821	0.02
351.03	0.03
351.239	0.04
351.448	0.08
351.657	0.05
351.866	0.13
352.075	0.06
352.284	0.04
352.493	-0.01
352.702	0.09
352.911	0.11
353.12	0.04
353.329	0.08
353.538	0.11
353.746	0.08
353.955	-0
354.164	0.06
354.373	0.07
354.582	0.09
354.79	0.09
354.999	0.11
355.208	0.09
355.416	0.12
355.625	0.01
355.834	0.04
356.042	0.1
356.251	0.03
356.46	0.06
356.668	0.09
356.877	0.17
357.085	0.15
357.294	-0.01
357.503	0.08
357.711	0.06
357.92	0.25
358.128	0.1
358.337	0.09
358.545	0.07
358.754	0.05
358.962	0.11
359.17	0.02
359.379	0.09
359.587	0.11
359.796	0.06
360.004	0.13
360.212	0.11
360.421	0.07
360.629	0.06
360.837	0.05
361.046	0.08
361.254	0.15
361.462	0.1
361.67	0.06
361.879	0.09
362.087	0.13
362.295	0.08
362.503	0.06
362.711	0.04
362.92	0.03
363.128	0.06
363.336	0.02
363.544	-0.03
363.752	0.08
363.96	0.06
364.168	0.05
364.376	0.1
364.584	0.09
364.792	0.18
365	0.08
365.208	0.06
365.416	0.06
365.624	0.16
365.832	0.07
366.04	0.13
366.248	0.08
366.456	0.1
366.664	0.07
366.872	0.05
367.079	0.08
367.287	0.04
367.495	0.04
367.703	0.1
367.911	0.11
368.118	0.08
368.326	0.04
368.534	0.05
368.742	0.1
368.949	0.05
369.157	0.03
369.365	0.12
369.572	0.05
369.78	0.05
369.988	0.11
370.195	0.09
370.403	0.15
370.61	0.06
370.818	0.07
371.026	0.14
371.233	0.04
371.441	0.1
371.648	0.05
371.856	0.12
372.063	0.09
372.271	0.09
372.478	0.05
372.685	0.08
372.893	0.15
373.1	0.08
373.308	0.08
373.515	0.19
373.722	0.16
373.93	0.07
374.137	0.13
374.344	0.19
374.552	0.16
374.759	0.1
374.966	0.11
375.173	0.09
375.381	0.14
375.588	0.12
375.795	0.03
376.002	0.1
376.209	0.09
376.417	0.08
376.624	0.12
376.831	0.18
377.038	0.11
377.245	0.05
377.452	0.12
377.659	0.15
377.866	0.08
378.073	0.15
378.28	0.14
378.487	0.15
378.694	0.16
378.901	0.08
379.108	0.12
379.315	0.17
379.522	0.23
379.729	0.18
379.936	0.11
380.143	0.12
380.35	0.14
380.557	0.15
380.763	0.15
380.97	0.18
381.177	0.19
381.384	0.18
381.591	0.12
381.797	0.14
382.004	0.18
382.211	0.22
382.418	0.19
382.624	0.21
382.831	0.23
383.038	0.2
383.244	0.18
383.451	0.22
383.658	0.23
383.864	0.21
384.071	0.14
384.277	0.28
384.484	0.21
384.69	0.32
384.897	0.26
385.103	0.22
385.31	0.25
385.516	0.28
385.723	0.24
385.929	0.31
386.136	0.3
386.342	0.37
386.549	0.3
386.755	0.45
386.961	0.43
387.168	0.39
387.374	0.41
387.58	0.46
387.787	0.43
387.993	0.48
388.199	0.48
388.406	0.43
388.612	0.53
388.818	0.47
389.024	0.47
389.231	0.57
389.437	0.68
389.643	0.69
389.849	0.67
390.055	0.72
390.261	0.75
390.467	0.79
390.674	0.79
390.88	0.87
391.086	0.91
391.292	0.91
391.498	1.06
391.704	1.03
391.91	1.07
392.116	1.1
392.322	1.08
392.528	1.3
392.734	1.26
392.94	1.36
393.146	1.42
393.352	1.48
393.557	1.59
393.763	1.6
393.969	1.76
394.175	1.79
394.381	1.9
394.587	1.97
394.792	2.03
394.998	2.28
395.204	2.32
395.41	2.36
395.615	2.51
395.821	2.77
396.027	2.79
396.233	2.98
396.438	3.1
396.644	3.4
396.85	3.5
397.055	3.61
397.261	3.84
397.466	4.1
397.672	4.1
397.878	4.42
398.083	4.47
398.289	4.56
398.494	4.76
398.7	5.02
398.905	5
399.111	5.43
399.316	5.5
399.522	5.65
399.727	5.9
399.932	6.23
400.138	6.44
400.343	6.82
400.549	6.88
400.754	7.32
400.959	7.51
401.165	7.96
401.37	8.2
401.575	8.83
401.78	8.77
401.986	9.27
402.191	9.61
402.396	10.04
402.601	10.42
402.807	10.8
403.012	10.96
403.217	11.74
403.422	11.74
403.627	12.34
403.832	12.88
404.037	13.1
404.243	13.22
404.448	13.61
404.653	14.22
404.858	14.33
405.063	14.17
405.268	14.91
405.473	15.12
405.678	15.41
405.883	16.1
406.088	16.09
406.293	16.14
406.498	16.68
406.703	16.45
406.907	17.1
407.112	17.71
407.317	18.11
407.522	18.34
407.727	18.58
407.932	18.83
408.136	19.09
408.341	18.79
408.546	18.92
408.751	18.87
408.956	18.66
409.16	19.24
409.365	18.97
409.57	18.54
409.774	18.55
409.979	18.43
410.184	18.22
410.388	18.04
410.593	18.16
410.798	18.11
411.002	18.02
411.207	17.57
411.411	17.35
411.616	16.88
411.82	16.9
412.025	16.51
412.229	16.24
412.434	15.81
412.638	15.48
412.843	15.13
413.047	14.66
413.252	14.2
413.456	14.39
413.66	13.85
413.865	13.51
414.069	12.96
414.273	12.97
414.478	12.32
414.682	11.96
414.886	11.7
415.091	11.31
415.295	11.03
415.499	11.08
415.703	10.41
415.908	10.36
416.112	9.91
416.316	9.93
416.52	9.61
416.724	9.35
416.929	9.01
417.133	9.2
417.337	8.67
417.541	8.49
417.745	8.29
417.949	8.18
418.153	8.04
418.357	7.85
418.561	7.84
418.765	7.48
418.969	7.4
419.173	7.37
419.377	7.07
419.581	7.12
419.785	6.86
419.989	6.64
420.193	6.7
420.397	6.35
420.601	6.26
420.804	6.24
421.008	5.92
421.212	5.96
421.416	5.67
421.62	5.4
421.823	5.21
422.027	5.22
422.231	4.95
422.435	4.77
422.638	4.52
422.842	4.56
423.046	4.36
423.249	4.38
423.453	4.17
423.657	4.09
423.86	3.99
424.064	3.89
424.268	3.86
424.471	3.66
424.675	3.67
424.878	3.56
425.082	3.41
425.285	3.52
425.489	3.26
425.692	3.24
425.896	3.05
426.099	3.03
426.303	2.88
426.506	2.87
426.71	2.87
426.913	2.91
427.116	2.84
427.32	2.68
427.523	2.63
427.726	2.61
427.93	2.48
428.133	2.53
428.336	2.32
428.54	2.32
428.743	2.3
428.946	2.37
429.149	2.14
429.353	2.3
429.556	2.16
429.759	2.04
429.962	2.02
430.165	2.05
430.368	1.76
430.571	1.77
430.775	1.76
430.978	1.62
431.181	1.66
431.384	1.63
431.587	1.57
431.79	1.61
431.993	1.55
432.196	1.55
432.399	1.47
432.602	1.62
432.805	1.47
433.008	1.51
433.211	1.37
433.414	1.53
433.616	1.46
433.819	1.4
434.022	1.33
434.225	1.44
434.428	1.38
434.631	1.48
434.833	1.28
435.036	1.32
435.239	1.32
435.442	1.24
435.645	1.14
435.847	1.27
436.05	1.25
436.253	1.16
436.455	1.1
436.658	1.11
436.861	1.14
437.063	1.06
437.266	0.99
437.468	1.03
437.671	1.16
437.874	1
438.076	0.87
438.279	0.91
438.481	0.98
438.684	0.96
438.886	0.96
439.089	0.85
439.291	0.91
439.494	0.88
439.696	0.8
439.899	0.84
440.101	0.94
440.303	0.76
440.506	0.88
440.708	0.79
440.91	0.87
441.113	0.74
441.315	0.84
441.517	0.72
441.72	0.83
441.922	0.67
442.124	0.66
442.326	0.75
442.529	0.77
442.731	0.64
442.933	0.79
443.135	0.63
443.337	0.61
443.539	0.64
443.742	0.55
443.944	0.65
444.146	0.51
444.348	0.58
444.55	0.5
444.752	0.54
444.954	0.51
445.156	0.55
445.358	0.53
445.56	0.57
445.762	0.53
445.964	0.48
446.166	0.47
446.368	0.47
446.57	0.56
446.772	0.47
446.974	0.42
447.175	0.45
447.377	0.45
447.579	0.48
447.781	0.35
447.983	0.46
448.184	0.39
448.386	0.42
448.588	0.37
448.79	0.38
448.991	0.34
449.193	0.38
449.395	0.4
449.597	0.45
449.798	0.38
450	0.41
450.202	0.35
450.403	0.41
450.605	0.43
450.806	0.32
451.008	0.33
451.21	0.36
451.411	0.35
451.613	0.35
451.814	0.32
452.016	0.38
452.217	0.34
452.419	0.33
452.62	0.31
452.821	0.36
453.023	0.37
453.224	0.37
453.426	0.28
453.627	0.33
453.828	0.36
454.03	0.31
454.231	0.39
454.432	0.28
454.634	0.41
454.835	0.3
455.036	0.27
455.238	0.35
455.439	0.44
455.64	0.25
455.841	0.24
456.042	0.49
456.244	0.34
456.445	0.27
456.646	0.22
456.847	0.32
457.048	0.34
457.249	0.37
457.45	0.58
457.651	0.3
457.852	0.29
458.054	0.33
458.255	0.24
458.456	0.36
458.657	0.36
458.858	0.27
459.058	0.31
459.259	0.34
459.46	0.24
459.661	0.27
459.862	0.39
460.063	0.3
460.264	0.29
460.465	0.19
460.666	0.39
460.866	0.27
461.067	0.25
461.268	0.23
461.469	0.22
461.67	0.33
461.87	0.21
462.071	0.23
462.272	0.23
462.473	0.27
462.673	0.29
462.874	0.25
463.075	0.3
463.275	0.26
463.476	0.32
463.676	0.28
463.877	0.3
464.078	0.23
464.278	0.31
464.479	0.35
464.679	0.28
464.88	0.27
465.08	0.31
465.281	0.24
465.481	0.24
465.682	0.26
465.882	0.28
466.083	0.3
466.283	0.26
466.483	0.21
466.684	0.14
466.884	0.21
467.085	0.18
467.285	0.31
467.485	0.23
467.686	0.25
467.886	0.22
468.086	0.23
468.286	0.24
468.487	0.25
468.687	0.19
468.887	0.19
469.087	0.29
469.287	0.22
469.488	0.17
469.688	0.26
469.888	0.31
470.088	0.29
470.288	0.29
470.488	0.29
470.688	0.19
470.888	0.24
471.088	0.18
471.288	0.24
471.488	0.23
471.688	0.26
471.888	0.2
472.088	0.27
472.288	0.22
472.488	0.17
472.688	0.17
472.888	0.23
473.088	0.23
473.288	0.24
473.488	0.21
473.688	0.28
473.887	0.19
474.087	0.13
474.287	0.2
474.487	0.16
474.687	0.2
474.886	0.2
475.086	0.2
475.286	0.18
475.486	0.17
475.685	0.18
475.885	0.15
476.085	0.2
476.284	0.2
476.484	0.18
476.684	0.21
476.883	0.21
477.083	0.21
477.282	0.13
477.482	0.23
477.681	0.2
477.881	0.17
478.08	0.13
478.28	0.11
478.479	0.15
478.679	0.21
478.878	0.11
479.078	0.15
479.277	0.16
479.477	0.18
479.676	0.15
479.875	0.12
480.075	0.07
480.274	0.16
480.473	0.16
480.673	0.11
480.872	0.16
481.071	0.16
481.271	0.13
481.47	0.13
481.669	0.14
481.868	0.09
482.067	0.14
482.267	0.09
482.466	0.11
482.665	0.11
482.864	0.08
483.063	0.12
483.262	0.14
483.461	0.17
483.661	0.16
483.86	0.11
484.059	0.15
484.258	0.13
484.457	0.12
484.656	0.11
484.855	0.18
485.054	0.07
485.253	0.08
485.452	0.08
485.651	0.12
485.849	0.1
486.048	0.1
486.247	0.1
486.446	0.13
486.645	0.05
486.844	0.07
487.043	0.1
487.241	0.14
487.44	0.08
487.639	0.14
487.838	0.13
488.037	0.1
488.235	0.17
488.434	0.11
488.633	0.07
488.831	0.13
489.03	0.13
489.229	0.08
489.427	0.11
489.626	0.13
489.825	0.16
490.023	0.09
490.222	0.08
490.42	0.11
490.619	0.14
490.817	0.12
491.016	0.1
491.214	0.14
491.413	0.09
491.611	0.1
491.81	0.09
492.008	0.11
492.207	0.13
492.405	0.1
492.604	0.04
492.802	0.08
493	0.12
493.199	0.07
493.397	0.09
493.595	0.09
493.794	0.09
493.992	0.14
494.19	0.09
494.388	0.13
494.587	0.06
494.785	0.08
494.983	0.05
495.181	0.08
495.379	0.12
495.578	0.1
495.776	0.1
495.974	0.11
496.172	0.1
496.37	0.06
496.568	0.04
496.766	0.08
496.964	0.1
497.162	0.1
497.36	0.04
497.558	0.12
497.756	0.11
497.954	0.07
498.152	0.07
498.35	0.07
498.548	0.07
498.746	0.06
498.944	0.06
499.142	0.07
499.34	0.05
499.538	0.09
499.736	0.07
499.933	0.11
500.131	0.1
500.329	0.09
500.527	0.09
500.725	0.11
500.922	0.12
501.12	0.07
501.318	0.07
501.516	0.06
501.713	0.09
501.911	0.08
502.109	0.03
502.306	0.08
502.504	0.03
502.701	0.05
502.899	0.07
503.097	0.15
503.294	0.07
503.492	0.11
503.689	0.07
503.887	0.11
504.084	0.1
504.282	0.1
504.479	0.03
504.677	0.1
504.874	0.03
505.072	0.07
505.269	0.06
505.466	0.09
505.664	0.09
505.861	0.03
506.059	0.05
506.256	0.09
506.453	0.07
506.651	0.13
506.848	0.09
507.045	0.1
507.242	0.09
507.44	0.07
507.637	0.06
507.834	0.05
508.031	0.1
508.229	0.04
508.426	0.08
508.623	0.09
508.82	0.04
509.017	0.05
509.214	0.07
509.411	0.08
509.608	0.03
509.805	0.07
510.003	0.04
510.2	0.06
510.397	0.09
510.594	0.02
510.791	0.05
510.988	0.06
511.184	0.1
511.381	0.06
511.578	0.06
511.775	0.08
511.972	0.02
512.169	0.05
512.366	0.06
512.563	0.05
512.76	0.06
512.956	0.08
513.153	0.05
513.35	0.07
513.547	0.06
513.744	0.05
513.94	0.02
514.137	0.07
514.334	0.07
514.53	0.08
514.727	0.06
514.924	0.11
515.12	0.04
515.317	0.04
515.514	0.05
515.71	0.02
515.907	0.04
516.103	0.04
516.3	0.06
516.497	0.09
516.693	0.07
516.89	0.04
517.086	0.02
517.283	0.07
517.479	0.07
517.676	0.05
517.872	0.06
518.068	0.03
518.265	0.05
518.461	0.05
518.658	0.04
518.854	0.06
519.05	0.02
519.247	0.03
519.443	0.05
519.639	0.05
519.836	0.04
520.032	0.05
520.228	0.05
520.424	0.09
520.621	0.05
520.817	0.04
521.013	0.07
521.209	0.05
521.405	0.1
521.601	0.06
521.798	0.03
521.994	0.1
522.19	0.04
522.386	0.02
522.582	0.06
522.778	0.04
522.974	0.02
523.17	0.04
523.366	0.05
523.562	0.08
523.758	0.04
523.954	0.01
524.15	0.04
524.346	0.07
524.542	0.03
524.738	0.03
524.934	0.03
525.129	0.03
525.325	0.05
525.521	0.03
525.717	0.07
525.913	0.06
526.109	0.06
526.304	0.02
526.5	0.05
526.696	0.06
526.892	0.05
527.087	0.04
527.283	0.03
527.479	0.04
527.674	0.03
527.87	0.05
528.066	0.04
528.261	0.05
528.457	0.07
528.653	0.05
528.848	0.03
529.044	0.05
529.239	0.04
529.435	0.08
529.63	0.03
529.826	0.08
530.021	0.05
530.217	0.05
530.412	0.02
530.608	0.01
530.803	0.04
530.999	0.03
531.194	-0.02
531.389	0.07
531.585	-0.01
531.78	0.03
531.975	0.03
532.171	0.07
532.366	0.05
532.561	0.05
532.757	0.01
532.952	0.04
533.147	0.05
533.342	0.03
533.538	0.02
533.733	0.04
533.928	0.04
534.123	0.02
534.318	0
534.513	0.03
534.709	0.06
534.904	-0
535.099	0.04
535.294	0.05
535.489	0.04
535.684	0.03
535.879	0
536.074	0.05
536.269	0.02
536.464	0.04
536.659	0.02
536.854	0.01
537.049	0.05
537.244	0.03
537.439	0.03
537.634	0.09
537.828	0.06
538.023	0.04
538.218	-0
538.413	0.04
538.608	0.02
538.803	0.03
538.997	-0.02
539.192	0.05
539.387	0.04
539.582	0.05
539.776	0.04
539.971	0.03
540.166	0.02
540.36	0
540.555	0.04
540.75	0.04
540.944	0.02
541.139	0.02
541.334	0.03
541.528	0.06
541.723	0.04
541.917	0.02
542.112	-0.01
542.306	0.02
542.501	0.02
542.695	0.02
542.89	0
543.084	0.02
543.279	0.02
543.473	0.03
543.668	0.02
543.862	0.03
544.056	0.04
544.251	0.02
544.445	0.05
544.64	0.04
544.834	0
545.028	0.04
545.222	0.03
545.417	0.06
545.611	0.05
545.805	0.04
546	0.02
546.194	0.02
546.388	0.04
546.582	0.05
546.776	0.03
546.97	0.02
547.165	0.04
547.359	0.04
547.553	0.02
547.747	0.03
547.941	0.02
548.135	0.01
548.329	0.05
548.523	0.03
548.717	0.01
548.911	0.01
549.105	0.03
549.299	0.03
549.493	0.08
549.687	0.06
549.881	0.03
550.075	0.03
550.269	-0
550.463	0.04
550.657	0.01
550.85	0.02
551.044	-0.03
551.238	0.02
551.432	0.02
551.626	0.02
551.82	0.04
552.013	0.02
552.207	0.03
552.401	0.05
552.594	0.01
552.788	0.02
552.982	0.02
553.176	0.02
553.369	0.05
553.563	0.03
553.756	-0.01
553.95	-0
554.144	0.03
554.337	0.05
554.531	0.04
554.724	0.02
554.918	0.02
555.111	0.03
555.305	0.03
555.498	0.08
555.692	0.05
555.885	0.01
556.079	0.06
556.272	0.02
556.466	0.05
556.659	0.07
556.852	0.02
557.046	0.03
557.239	0.06
557.432	-0
557.626	-0
557.819	0.03
558.012	0.05
558.206	0.06
558.399	0.03
558.592	0.03
558.785	-0
558.979	0.05
559.172	0.03
559.365	0.05
559.558	0.06
559.751	0.01
559.944	0.02
560.138	0.03
560.331	0.04
560.524	-0
560.717	0.04
560.91	0.03
561.103	0.04
561.296	0.03
561.489	0.04
561.682	0.04
561.875	0.05
562.068	0.04
562.261	0.04
562.454	0.08
562.647	0.04
562.84	0.03
563.032	0.01
563.225	0.03
563.418	0.02
563.611	0.01
563.804	0.01
563.997	0
564.19	-0
564.382	0.03
564.575	0.03
564.768	0.02
564.961	0.01
565.153	-0
565.346	0.05
565.539	0.04
565.731	0.04
565.924	0.05
566.117	0.03
566.309	0.01
566.502	0
566.695	0.01
566.887	0.03
567.08	0
567.272	0
567.465	0.01
567.657	0.05
567.85	0.01
568.042	0.04
568.235	0.05
568.427	0.04
568.62	0.03
568.812	0.01
569.005	0.02
569.197	-0.02
569.389	0.03
569.582	0.03
569.774	0.03
569.966	-0.01
570.159	-0.03
570.351	0.05
570.543	0.03
570.736	0.02
570.928	-0.03
571.12	0.05
571.312	0
571.505	-0.03
571.697	0.05
571.889	-0.02
572.081	-0
572.273	-0
572.465	0.05
572.658	0.02
572.85	0.03
573.042	0.03
573.234	0.01
573.426	0.06
573.618	-0.02
573.81	0.03
574.002	0.05
574.194	0.06
574.386	0.01
574.578	-0.04
574.77	-0
574.962	0.02
575.154	0.01
575.346	-0.01
575.538	0.05
575.729	-0.01
575.921	0.02
576.113	0.02
576.305	0.05
576.497	0
576.689	0
576.88	-0.02
577.072	0.03
577.264	0.01
577.456	0.01
577.647	-0.05
577.839	0.03
578.031	0.05
578.223	-0.01
578.414	-0.01
578.606	0.02
578.798	0.02
578.989	-0.01
579.181	-0
579.372	0.02
579.564	-0
579.755	0.04
579.947	0.01
580.139	0.04
580.33	-0.03
580.522	-0.01
580.713	-0.07
580.905	0.02
581.096	0.05
581.287	0.01
581.479	0.03
581.67	0.03
581.862	0.03
582.053	0.02
582.244	-0.03
582.436	-0
582.627	0.02
582.818	-0.01
583.01	-0.03
583.201	0.04
583.392	0.05
583.583	0.01
583.775	0.01
583.966	-0.01
584.157	0.03
584.348	-0.01
584.54	-0.02
584.731	0.03
584.922	0.01
585.113	-0.02
585.304	0.06
585.495	0.06
585.686	0.01
585.877	0.03
586.068	0.01
586.259	0.02
586.45	0.02
586.641	-0.01
586.832	-0.04
587.023	0.02
587.214	-0
587.405	0.02
587.596	-0.02
587.787	0.05
587.978	0.04
588.169	-0.03
588.36	0.01
588.551	0.04
588.742	0.01
588.932	-0
589.123	0.01
589.314	0.05
589.505	0.01
589.696	0.02
589.886	-0.02
590.077	-0.03
590.268	0.04
590.458	-0.03
590.649	-0.01
590.84	0.05
591.03	-0.01
591.221	-0.01
591.412	-0.04
591.602	0.04
591.793	0.06
591.984	-0
592.174	0.01
592.365	0.07
592.555	-0.03
592.746	0.04
592.936	0.04
593.127	-0
593.317	0.07
593.508	0.02
593.698	0
593.889	0.03
594.079	0.03
594.269	-0.01
594.46	0.01
594.65	0.01
594.84	0.02
595.031	-0.01
595.221	-0.01
595.411	-0.03
595.602	0.05
595.792	0.01
595.982	-0.02
596.172	0.06
596.363	0.01
596.553	0.01
596.743	0.01
596.933	0.06
597.123	0.05
597.314	-0
597.504	-0.02
597.694	0.06
597.884	0.04
598.074	0.02
598.264	-0
598.454	0.04
598.644	-0
598.834	0.01
599.024	-0.05
599.214	0
599.404	0.05
599.594	0.02
599.784	-0.04
599.974	0.07
600.164	0.04
600.354	-0.04
600.544	-0.02
600.734	0.02
600.924	0.08
601.114	-0.01
601.303	0
601.493	0.02
601.683	-0.01
601.873	0.01
602.063	-0.03
602.252	0.04
602.442	-0.05
602.632	-0
602.821	-0.01
603.011	0.04
603.201	-0.01
603.39	-0.01
603.58	-0.01
603.77	0.02
603.959	0.04
604.149	0.02
604.339	0.01
604.528	0.04
604.718	0.05
604.907	0.02
605.097	0
605.286	-0.03
605.476	0.04
605.665	0.02
605.855	0.03
606.044	0.06
606.234	0.04
606.423	-0.03
606.612	-0.01
606.802	0.02
606.991	0.05
607.181	0.05
607.37	-0.04
607.559	0.01
607.749	-0.03
607.938	0
608.127	-0.02
608.316	0
608.506	0.03
608.695	0.01
608.884	0
609.073	0.01
609.263	0.05
609.452	0.03
609.641	0.01
609.83	-0.02
610.019	0.02
610.208	-0.02
610.397	0.01
610.586	0.07
610.775	0.01
610.965	-0.01
611.154	-0.01
611.343	0.03
611.532	0.01
611.721	-0.01
611.91	-0.01
612.099	0.06
612.287	0.02
612.476	-0.02
612.665	0.03
612.854	-0.01
613.043	0.05
613.232	-0.01
613.421	-0.04
613.61	0.04
613.798	-0.03
613.987	0.04
614.176	0.01
614.365	0.05
614.554	0.02
614.742	0.05
614.931	-0
615.12	0.06
615.309	-0.01
615.497	0.04
615.686	-0.03
615.875	0.01
616.063	0.02
616.252	-0
616.44	-0
616.629	0.01
616.818	0.05
617.006	0.01
617.195	-0.05
617.383	0.03
617.572	-0.02
617.76	0
617.949	-0.04
618.137	0.02
618.326	0.03
618.514	-0.03
618.703	-0.02
618.891	0.08
619.079	-0.02
619.268	0.01
619.456	-0.04
619.644	0.06
619.833	0.02
620.021	-0.01
620.209	-0.07
620.398	0.04
620.586	0.03
620.774	0.03
620.962	0.01
621.151	0.09
621.339	-0.01
621.527	-0.04
621.715	-0.03
621.903	-0.01
622.092	-0.04
622.28	0.03
622.468	0.02
622.656	0.01
622.844	0.04
623.032	-0
623.22	-0.05
623.408	0.05
623.596	0.01
623.784	0.02
623.972	0
624.16	-0.02
624.348	0.09
624.536	0.01
624.724	-0
624.912	0.08
625.1	0.04
625.288	-0.04
625.476	0
625.664	0.03
625.851	-0.05
626.039	-0.02
626.227	0.01
626.415	-0.01
626.603	-0.05
626.79	0.01
626.978	0.02
627.166	0.04
627.354	0.01
627.541	-0.02
627.729	-0.05
627.917	0.05
628.104	0.03
628.292	0.02
628.48	0.02
628.667	0.02
628.855	0.06
629.042	0.04
629.23	0.01
629.418	0.03
629.605	0.01
629.793	-0.02
629.98	-0.02
630.168	0.01
630.355	0.02
630.543	0.03
630.73	-0.04
630.917	0.02
631.105	0.08
631.292	-0.03
631.48	-0
631.667	0.09
631.854	0.01
632.042	0.01
632.229	-0.01
632.416	-0
632.604	0.01
632.791	-0.02
632.978	0.06
633.165	0.04
633.353	0.04
633.54	0.03
633.727	-0.06
633.914	-0.01
634.101	-0.06
634.289	0.05
634.476	-0.03
634.663	-0.02
634.85	0.04
635.037	-0.03
635.224	-0.02
635.411	0.05
635.598	0.05
635.785	-0.01
635.972	0
636.159	0.03
636.346	-0
636.533	0.01
636.72	-0
636.907	-0
637.094	0.04
637.281	-0
637.468	0
637.655	0.01
637.842	-0.01
638.029	-0.01
638.215	0.05
638.402	-0.02
638.589	0.01
638.776	-0
638.963	-0.03
639.149	0.02
639.336	0.08
639.523	-0
639.709	0.02
639.896	0
640.083	0.05
640.27	0.02
640.456	-0
640.643	0.04
640.829	-0.03
641.016	-0.02
641.203	-0.03
641.389	0.06
641.576	0.05
641.762	0.04
641.949	-0.02
642.135	0.03
642.322	0
642.508	-0.04
642.695	0.01
642.881	0
643.068	0.01
643.254	0.02
643.441	0.04
643.627	0.01
643.813	-0.01
644	0.05
644.186	-0.01
644.372	-0
644.559	0.05
644.745	-0.01
644.931	0
645.118	-0.04
645.304	0.02
645.49	-0
645.676	-0.02
645.862	-0
646.049	0.04
646.235	-0
646.421	0.05
646.607	0.09
646.793	-0
646.979	-0
647.165	0.01
647.352	0.01
647.538	0.06
647.724	0.01
647.91	0.02
648.096	0.02
648.282	0.06
648.468	0.01
648.654	0.01
648.84	0.03
649.026	0.03
649.212	0.03
649.397	-0.01
649.583	-0.04
649.769	0.06
649.955	0
650.141	0.05
650.327	0.04
650.513	-0.01
650.698	0.02
650.884	-0.06
651.07	0.02
651.256	0.03
651.442	0
651.627	-0.02
651.813	-0.01
651.999	0.01
652.184	0.03
652.37	-0.01
652.556	-0.02
652.741	0.06
652.927	-0.06
653.113	-0.02
653.298	0.01
653.484	-0.01
653.669	-0.06
653.855	-0.01
654.04	0.01
654.226	0.01
654.412	-0
654.597	-0.03
654.782	0.02
654.968	0.06
655.153	0.02
655.339	-0.03
655.524	-0.03
655.71	0.05
655.895	0
656.08	0.02
656.266	0.03
656.451	0.01
656.636	-0.01
656.822	0.02
657.007	-0.02
657.192	-0.02
657.378	-0.06
657.563	-0.01
657.748	0.01
657.933	0.02
658.118	-0.01
658.304	-0.01
658.489	0.06
658.674	0.01
658.859	-0.02
659.044	0.02
659.229	0.01
659.414	-0.02
659.599	0.01
659.785	-0.06
659.97	-0.01
660.155	0.04
660.34	-0.01
660.525	-0.01
660.71	-0.02
660.895	0.03
661.08	-0.01
661.264	-0.04
661.449	0.07
661.634	0.05
661.819	0.02
662.004	0.01
662.189	-0.08
662.374	-0.04
662.559	0.01
662.743	-0.04
662.928	0
663.113	-0.02
663.298	-0.06
663.483	-0.02
663.667	0.03
663.852	-0.04
664.037	0.04
664.221	-0.01
664.406	0.01
664.591	0.02
664.775	0.05
664.96	0
665.145	-0
665.329	0.07
665.514	-0
665.698	-0
665.883	-0.06
666.068	0.08
666.252	-0.01
666.437	-0.06
666.621	0.01
666.806	0.05
666.99	-0.01
667.174	-0.03
667.359	0.07
667.543	-0
667.728	0.01
667.912	-0.08
668.096	0.05
668.281	-0.01
668.465	-0.02
668.649	-0
668.834	-0.02
669.018	-0
669.202	-0
669.387	-0.05
669.571	0.04
669.755	-0.01
669.939	-0
670.124	-0.02
670.308	0.03
670.492	0.02
670.676	-0.04
670.86	-0.02
671.044	-0.02
671.228	0.03
671.413	-0.01
671.597	-0.02
671.781	-0.04
671.965	0.03
672.149	0.02
672.333	0.01
672.517	-0.04
672.701	0.04
672.885	-0
673.069	-0.04
673.253	0.03
673.437	0.02
673.621	-0.01
673.804	-0
673.988	-0
674.172	-0.01
674.356	-0.05
674.54	-0
674.724	0.06
674.908	-0.03
675.091	0.05
675.275	0.01
675.459	0.05
675.643	0.01
675.826	0.03
676.01	0.01
676.194	-0
676.377	0.05
676.561	0.03
676.745	0.01
676.928	0.04
677.112	0.03
677.296	0.01
677.479	0
677.663	-0.06
677.846	0.05
678.03	0.01
678.213	-0.02
678.397	0.03
678.58	0.01
678.764	-0.02
678.947	-0.08
679.131	-0.01
679.314	0.04
679.498	-0.01
679.681	-0.01
679.865	0.09
680.048	0.01
680.231	-0.03
680.415	0.03
680.598	-0.02
680.781	-0.03
680.965	0
681.148	0.02
681.331	-0.02
681.514	0.04
681.698	0.01
681.881	-0.01
682.064	0.01
682.247	-0
682.43	-0.07
682.614	-0.01
682.797	0.08
682.98	0.01
683.163	-0.03
683.346	0.02
683.529	0
683.712	-0.07
683.895	0.01
684.078	-0.02
684.261	-0.03
684.444	0.03
684.627	0.02
684.81	-0.01
684.993	-0.02
685.176	0.02
685.359	-0.02
685.542	-0.04
685.725	0.07
685.908	-0.05
686.091	0.01
686.274	0.03
686.457	0.07
686.639	0.01
686.822	0.03
687.005	0.02
687.188	0.04
687.371	0.13
687.553	0.01
687.736	0
687.919	0.08
688.102	0.05
688.284	-0.06
688.467	0.03
688.65	0.02
688.832	-0.04
689.015	-0
689.197	-0.08
689.38	0.08
689.563	0.05
689.745	-0.04
689.928	-0.04
690.11	0.01
690.293	0.05
690.475	-0.06
690.658	-0
690.84	0.01
691.023	0.01
691.205	-0.06
691.388	-0
691.57	0.05
691.752	0.06
691.935	-0.06
692.117	-0.03
692.3	0.02
692.482	0.02
692.664	0.06
692.847	0.01
693.029	0.08
693.211	0.07
693.393	-0.01
693.576	-0.01
693.758	0.05
693.94	-0.04
694.122	-0.03
694.304	0
694.487	-0.05
694.669	0.1
694.851	-0.06
695.033	-0.01
695.215	0
695.397	-0.05
695.579	0.05
695.761	0.02
695.943	-0.08
696.125	0.07
696.308	0.01
696.49	-0.06
696.671	0.15
696.853	-0.02
697.035	0.1
697.217	-0.01
697.399	0.04
697.581	-0.02
697.763	-0.01
697.945	-0.01
698.127	0.01
698.309	0.1
698.491	0.04
698.672	0.05
698.854	0.04
699.036	0.11
699.218	-0.03
699.399	0.03
699.581	0.03
699.763	-0
699.945	-0.08
700.126	-0.04
700.308	0.01
700.49	0.04
700.671	-0.06
700.853	0
701.035	-0.03
701.216	0
701.398	0.01
701.579	-0.03
701.761	0.07
701.943	-0.03
702.124	-0.04
702.306	-0.01
702.487	0.11
702.669	0.03
702.85	-0.04
703.031	-0.01
703.213	0.1
703.394	-0
703.576	-0.01
703.757	0.09
703.938	0.01
704.12	0.14
704.301	-0.01
704.483	-0.02
704.664	0.04
704.845	0.06
705.026	0.01
705.208	-0.02
705.389	0.06
705.57	0.03
705.751	-0.02
705.933	-0.02
706.114	0.04
706.295	-0
706.476	-0.06
706.657	0.09
706.838	0.07
707.02	0.1
707.201	-0.01
707.382	-0.01
707.563	0.04
707.744	-0.02
707.925	-0.07
708.106	-0.04
708.287	-0
708.468	0.09
708.649	0.03
708.83	0.01
709.011	-0
709.192	0.03
709.373	-0.09
709.554	-0.02
709.734	0.05
709.915	0.04
710.096	-0.01
710.277	-0.1
710.458	-0.04
710.639	0.04
710.819	-0.09
711	-0.04
711.181	0.04
711.362	0.07
711.542	0.05
711.723	0.02
711.904	0.03
712.085	0.03
712.265	-0.02
712.446	-0.05
712.627	-0.03
712.807	0.02
712.988	-0.04
713.168	-0.06
713.349	0.05
713.53	-0.1
713.71	-0.04
713.891	-0.04
714.071	0.01
714.252	-0.03
714.432	0.05
714.613	-0.13
714.793	0
714.974	0.05
715.154	0.04
715.334	0.02
715.515	0.1
715.695	-0.05
715.876	0
716.056	0.01
716.236	0.06
716.417	-0.01
716.597	-0.02
716.777	0.15
716.957	-0.07
717.138	0.04
717.318	0.04
717.498	-0.06
717.678	0.01
717.859	0.01
718.039	-0.06
718.219	0.03
718.399	0.07
718.579	-0.11
718.759	-0.07
718.939	-0.03
719.12	-0
719.3	0.01
719.48	-0.19
719.66	-0.09
719.84	0.12
720.02	0.03
720.2	-0.1
720.38	-0.03
720.56	0.1
720.74	0
720.92	-0.07
721.1	0.1
721.279	0.1
721.459	-0.02
721.639	-0.02
721.819	0.02
721.999	-0.05
722.179	0.04
722.359	-0.11
722.538	-0.01
722.718	0.02
722.898	-0.01
723.078	-0.01
723.257	-0.03
723.437	-0.03
723.617	-0.01
723.797	0.01
723.976	-0.01
724.156	0.09
724.336	0.05
724.515	0.04
724.695	-0.1
724.874	-0.02
725.054	0.12
725.234	-0.05
725.413	0.01
725.593	0
725.772	-0.01
725.952	-0
726.131	-0.01
726.311	0.02
726.49	-0.05
726.67	-0.15
726.849	-0.1
727.028	0.02
727.208	-0.01
727.387	0.07
727.567	-0.15
727.746	-0.03
727.925	0.04
728.105	-0.16
728.284	-0.04
728.463	-0.02
728.643	0.01
728.822	-0.05
729.001	-0.05
729.18	-0.05
729.359	0.11
729.539	0.04
729.718	0.02
729.897	0.04
730.076	-0.02
730.255	-0.1
730.434	0
730.614	0.1
730.793	0.06
730.972	-0.1
731.151	-0.08
731.33	0.05
731.509	0.07
731.688	-0.03
731.867	-0.02
732.046	-0.16
732.225	0.14
732.404	-0.12
732.583	-0.04
732.762	0.07
732.941	0.16
733.12	0.02
733.298	-0.03
733.477	0.11
733.656	-0.07
733.835	-0.13
734.014	0.01
734.193	-0
734.371	0.06
734.55	0.02
734.729	-0.17
734.908	-0.03
735.086	-0.02
735.265	0.05
735.444	-0.2
735.623	-0.03
735.801	-0.12
735.98	0.01
736.159	-0.09
736.337	0.08
736.516	0.06
736.694	-0.04
736.873	-0.13
737.052	0.17
737.23	0.19
737.409	-0.12
737.587	0.16
737.766	-0.2
737.944	0.02
738.123	0.07
738.301	0.01
738.479	-0.07
738.658	0.03
738.836	-0.22
739.015	-0.08
739.193	0.1
739.371	-0.11
739.55	-0.02
739.728	-0
739.906	0.23
740.085	0.09
740.263	0.05
740.441	-0.21
740.62	0.1
740.798	0.13
740.976	-0.07
741.154	-0.05
741.332	0.16
741.511	0.04
741.689	0.01
741.867	0.06
742.045	0.1
742.223	0.01
742.401	-0.1
742.579	-0.13
742.757	0.06
742.935	-0.2
743.114	-0.02
743.292	-0.09
743.47	0.02
743.648	0.07
743.826	0.11
744.004	0.06
744.181	0.2
744.359	-0.03
744.537	-0.01
744.715	-0.03
744.893	-0.02
745.071	0.02
745.249	0.08
745.427	0.06
745.605	0.1
745.782	-0.04
745.96	0.12
746.138	0.04
746.316	0.07
746.493	-0.02
746.671	0.05
746.849	-0.12
747.027	0.13
747.204	-0.07
747.382	-0.02
747.56	-0.05
747.737	0.02
747.915	-0.12
748.093	0.04
748.27	-0.09
748.448	-0.01
748.625	-0.13
748.803	-0.09
748.98	-0.05
749.158	0.11
749.335	0.12
749.513	0.09
749.69	-0.08
749.868	0.02
750.045	0.16
750.223	-0.06
750.4	-0.2
750.578	0.23
750.755	0.03
750.932	-0.11
751.11	0.15
751.287	-0.15
751.464	0.19
751.642	-0.18
751.819	0.03
751.996	0.01
752.173	-0.05
752.351	-0.07
752.528	0
752.705	-0.11
752.882	-0.11
753.06	0.04
753.237	0.07
753.414	0.19
753.591	0.18
753.768	-0.03
753.945	-0.08
754.122	-0.02
754.299	0.02
754.476	-0.1
754.654	0
754.831	0.06
755.008	0.04
755.185	-0.12
755.362	-0.12
755.539	0.05
755.716	-0.06
755.892	0.06
756.069	-0.02
756.246	0.01
756.423	-0.07
756.6	0.11
756.777	-0.07
756.954	0.11
757.131	0.03
757.307	-0.13
757.484	-0.13
757.661	0.02
757.838	-0.01
758.015	-0.11
758.191	0.08
758.368	0.03
758.545	0.2
758.721	0.11
758.898	-0.06
759.075	0.1
759.251	0.07
759.428	0.08
759.605	-0.09
759.781	0.02
759.958	0.05
760.134	0.06
760.311	-0.08
760.488	0.07
760.664	0.24
760.841	0
761.017	0.02
761.194	0.03
761.37	0.15
761.547	-0.06
761.723	0.03
761.899	0.21
762.076	-0.03
762.252	-0.03
762.429	-0.06
762.605	0.12
762.781	-0.03
762.958	0.12
763.134	0.11
763.31	-0.13
763.486	0.2
763.663	-0.18
763.839	0.11
764.015	-0.16
764.191	-0.02
764.368	0.01
764.544	-0.03
764.72	0.08
764.896	0.05
765.072	0.06
765.248	0.03
765.425	0.06
765.601	-0.07
765.777	0.03
765.953	-0.2
766.129	-0.03
766.305	-0.06
766.481	0.05
766.657	0.04
766.833	0.17
767.009	-0.1
767.185	0.1
767.361	0
767.537	-0.16
767.713	0.19
767.889	0.08
768.065	0.13
768.24	0.03
768.416	0.09
768.592	-0.06
768.768	0.07
768.944	0.08
769.12	-0.18
769.295	-0.02
769.471	0.04
769.647	0.02
769.823	0.17
769.998	-0.04
770.174	-0.12
770.35	0.39
770.525	0.16
770.701	-0.01
770.877	0.08
771.052	-0.11
771.228	0.17
771.403	0.02
771.579	0.1
771.755	0.28
771.93	-0.05
772.106	-0.28
772.281	-0.09
772.457	0.07
772.632	0.09
772.808	-0.16
772.983	-0.12
773.159	-0.13
773.334	0.26
773.509	-0.03
773.685	-0.2
773.86	0.49
774.036	0.13
774.211	0.13
774.386	0.05
774.562	0.01
774.737	0.15
774.912	-0.05
775.087	0.13
775.263	0.05
775.438	-0.07
775.613	-0.1
775.788	-0.01
775.964	0.18
776.139	0.41
776.314	0.02
776.489	0.05
776.664	0.08
776.839	-0.1
777.014	0.23
777.19	0.15
777.365	0.25
777.54	0.32
777.715	-0.04
777.89	0.02
778.065	-0.06
778.24	0.06
778.415	0.17
778.59	-0.13
778.765	-0.01
778.94	0.23
779.115	0.06
779.289	-0.17
779.464	0.02
779.639	0.15
779.814	-0.37
779.989	-0.1
780.164	0.22
780.339	-0.02
780.513	-0.2
780.688	-0.08
780.863	0.02
781.038	0.2
781.212	-0.08
781.387	0.09
781.562	0.44
781.737	0.06
781.911	0.1
782.086	-0.13
782.261	-0.11
782.435	0.26
782.61	0.01
782.784	-0.1
782.959	0.26
783.134	-0.01
783.308	-0.23
783.483	-0.14
783.657	0.55
783.832	0.12
784.006	-0.3
784.181	0.18
784.355	0.11
784.53	0.12
784.704	-0.28
784.878	0.38
785.053	0.14
785.227	0.19
785.402	0.41
785.576	-0.13
785.75	0.08
785.925	-0
786.099	0
786.273	0.01
786.448	0.2
786.622	0.21
786.796	-0.08
786.97	-0.06
787.145	0.51
787.319	-0.14
787.493	0.08
787.667	-0.26
787.841	0.03
788.015	0.25
788.19	-0.01
788.364	-0.13
788.538	0.3
788.712	0.07
788.886	-0.07
789.06	0.08
789.234	0.28
789.408	-0.14
789.582	-0.13
789.756	-0.04
789.93	-0.22
790.104	-0.01
790.278	0.03
790.452	-0.19
790.626	0.17
790.8	0.04
790.973	0.25
791.147	0.2
791.321	0.11
791.495	0.33
791.669	0.01
791.843	0.09
792.016	0.06
792.19	0.48
792.364	-0.18
792.538	0.47
792.711	0.32
792.885	-0.06
793.059	-0.28
793.233	-0.48
793.406	0.23
793.58	-0.05
793.754	0.09
793.927	-0.07
794.101	0.45
794.274	0.13
794.448	0.26
794.622	-0.12
794.795	0.32
794.969	-0.13
795.142	0.13
795.316	-0.21
795.489	-0.16
795.663	0.32
795.836	0.07
796.009	-0.23
796.183	0.47
796.356	0.05
796.53	0.17
796.703	-0.05
796.876	0.57
797.05	-0.09
797.223	-0.09
797.396	-0
797.57	-0.07
797.743	0.5
797.916	-0.23
798.09	-0.26
798.263	0.21
798.436	0.18
798.609	-0.23
798.782	-0.14
798.956	0.19
799.129	0.04
799.302	-0.28
799.475	-0.07
799.648	-0.11
799.821	-0.22
799.994	-0.09
800.167	-0.43
800.34	-0.1
800.514	0.28
800.687	-0.05
800.86	-0.2
801.033	0.29
801.206	0.31
801.379	-0.1
801.551	0.24
801.724	0.02
801.897	0.24
802.07	-0.1
802.243	-0.45
802.416	-0.15
802.589	-0.14
802.762	0.19
802.935	0.13
803.107	0.34
803.28	0.38
803.453	0.06
803.626	-0.12
803.798	0.32
803.971	-0.13
804.144	0.27
804.317	-0.04
804.489	0.31
804.662	0.08
804.835	0.08
805.007	0.2
805.18	0.71
805.353	-0.05
805.525	-0.29
805.698	-0.13
805.87	0.17
806.043	0.33
806.215	-0.45
806.388	-0.48
806.56	0.02
806.733	0.3
806.905	0.2
807.078	-0.24
807.25	-0.18
807.423	0.26
807.595	0.09
807.768	0.03
807.94	0.2
808.112	0.25
808.285	0.09
808.457	-0.17
808.629	-0.13
808.802	0.16
808.974	0.27
809.146	0.03
809.318	-0.11
809.491	-0
809.663	0.23
809.835	-0.03
810.007	0.54
810.18	0.18
810.352	-0.3
810.524	-0.23
810.696	0.55
810.868	0.28
811.04	-0.08
811.212	-0.01
811.384	0.68
811.556	0.11
811.728	-0.23
811.901	0.66
812.073	-0.05
812.245	-0.04
812.417	0.4
812.589	-0.58
812.76	0.3
812.932	-0.06
813.104	0.32
813.276	-0.21
813.448	0.45
813.62	-0.06
813.792	0.19
813.964	0.16
814.136	-0
814.307	0.14
814.479	0.2
814.651	-0.29
814.823	0.53
814.995	-0.04
815.166	0.18
815.338	-0.36
815.51	-0.38
815.681	0.93
815.853	0.06
816.025	-0.17
816.196	1.05
816.368	0.24
816.54	-0.41
816.711	-0.04
816.883	0.32
817.054	0.92
817.226	-0.43
817.398	-0.11
817.569	-0.48
817.741	0.1
817.912	-0.3
818.084	-0.35
818.255	0.91
818.426	-0.23
818.598	-0.15
818.769	-0.05
818.941	0.52
819.112	0.67
819.283	0.52
819.455	-0.02
819.626	-0.1
819.798	0.19
819.969	0.2
820.14	-0.1
820.311	-0.08
820.483	0.41
820.654	0.18
820.825	-0.05
820.996	0.08
821.168	-0.04
821.339	-0.01
821.51	-0.4
821.681	-0.25
821.852	0.56
822.023	0.05
822.195	-0.5
822.366	0.44
822.537	-0.01
822.708	0.2
822.879	-0.21
823.05	0.5
823.221	-0.05
823.392	0.32
823.563	0.19
823.734	-0.14
823.905	-0.16
824.076	0.01
824.247	-0.44
824.418	-0.26
824.589	0.54
824.759	0.01
824.93	-0.18
825.101	-0.41
825.272	0.68
825.443	0.57
825.614	0.86
825.784	-0.63
825.955	0.83
826.126	0.49
826.297	0.2
826.467	0.87
826.638	0.48
826.809	-0.9
826.98	0.07
827.15	0.8
827.321	0.07
827.492	1.02
827.662	-0.03
827.833	0.93
828.003	0.46
828.174	-0.69
828.345	-1.09
828.515	0.65
828.686	0.04
828.856	-0.14
829.027	0.22
829.197	0.93
829.368	0.4
829.538	-0.15
829.709	-0.29
829.879	-0.1
830.049	0.2
830.22	0.06
830.39	0.29
830.56	0.79
830.731	0.12
830.901	-0.38
831.072	-0.13
831.242	0.01
831.412	0.66
831.582	0.36
831.753	-1.21
831.923	0.76
832.093	0.23
832.263	0.16
832.434	-0.71
832.604	-0.42
832.774	0.43
832.944	0.36
833.114	-0.08
833.284	0.87
833.454	-0.08
833.624	-0.13
833.795	-0.55
833.965	0.61
834.135	0.6
834.305	-0.44
834.475	-0.78
834.645	0.16
834.815	-0.19
834.985	-0.83
835.155	-0.6
835.325	0.47
835.494	0.4
835.664	-0.46
835.834	-0.9
836.004	0.42
836.174	1.01
836.344	-0.05
836.514	-0.9
836.684	-0.63
836.853	-0.09
837.023	0.45
837.193	-0.62
837.363	0.41
837.532	0.83
837.702	-0.22
837.872	0.03
838.041	0.82
838.211	1.51
838.381	-0.14
838.55	0.66
838.72	1.93
838.89	1.31
839.059	-0.15
839.229	-0.95
839.398	1.17
839.568	0.83
839.738	-0.44
839.907	1.11
840.077	0.95
840.246	-0.51
840.416	-0.74
840.585	-1.45
840.755	1.54
840.924	0.44
841.093	-0.98
841.263	-0.29
841.432	0.26
841.602	-1.13
841.771	-0.7
841.94	0.31
842.11	2.13
842.279	1.32
842.448	-0.62
842.617	-1.18
842.787	1.33
842.956	-0.86
843.125	0.13
843.294	-0
843.464	0.88
843.633	0.17
843.802	-0.64
843.971	-0.49
844.14	0.36
844.309	0.25
844.479	-0.63
844.648	-0.79
844.817	0.07
844.986	-0.33
845.155	-0.49
845.324	-0.08
845.493	0.24
845.662	-0.4
845.831	0.79
846	0.9
846.169	-0.77
846.338	1.72
846.507	0.46
846.676	0.89
846.844	-0.37
847.013	0.37
847.182	0.62
847.351	-0.17
847.52	-0.22
847.689	1.14
847.858	0.5
848.026	-0.25
848.195	-0.25
848.364	-0.76
848.533	-0.87
848.701	-0.76
848.87	0.14
849.039	1.61
849.207	0.22
849.376	1.2
849.545	1.03
849.713	-0.63
849.882	0.81
850.051	0.5
850.219	0.45
850.388	1.31
850.556	0.3
850.725	0.12
850.893	0.37
851.062	-0.47
851.23	0.63
851.399	-0.38
851.567	0.28
851.736	-0.49
851.904	-0.42
852.073	0.08
852.241	0.14
852.41	-0.14
852.578	0.02
852.746	-0.53
852.915	1.12
853.083	0.83
853.251	-1.61
853.42	0.25
853.588	0.38
853.756	0.83
853.924	0.06
854.093	-0.28
854.261	-0.62
854.429	-0.94
854.597	0.49
854.765	-0.54
854.934	1.2
855.102	0.43
855.27	0.37
855.438	0.54
855.606	1.36
855.774	0.2
855.942	-1.03
856.11	-2.19
856.278	0.12
856.446	0.28
856.614	0.4
856.782	-0.9
856.95	1.03
857.118	0.66
857.286	0.62
857.454	-0.61
857.622	0.24
857.79	0.87
857.958	-0.95
858.126	-0.44
858.294	-2.35
858.462	0.07
858.629	-0.85
858.797	-0.21
858.965	1.31
859.133	1.81
859.301	-0.57
859.468	1.29
859.636	-1.25
859.804	1.5
859.971	1.28
860.139	0.33
860.307	0.62
860.474	0.79
860.642	-0.44
860.81	-1.07
860.977	0.82
861.145	1.93
861.313	-0.21
861.48	-0.36
861.648	1.17
861.815	-0.52
861.983	-1.34
862.15	-0.91
862.318	0.82
862.485	1.65
862.653	-0.64
862.82	-0.17
862.988	3.09
863.155	1.16
863.322	-0.69
863.49	-0.04
863.657	-0.29
863.824	2.25
863.992	1.46
864.159	-0.4
864.326	1.13
864.494	-0.4
864.661	2.34
864.828	-0.61
864.996	2.2
865.163	1.92
865.33	0.16
865.497	-2.27
865.664	-0.6
865.832	-1.98
865.999	1.35
866.166	-2.01
866.333	-0.28
866.5	-1.86
866.667	-0.41
866.834	-0.37
867.001	1.77
867.168	-1.89
867.335	-1.05
867.502	-2.4
867.669	1.07
867.836	2.89
868.003	-1.26
868.17	-0.89
868.337	-0.13
868.504	3.63
868.671	-1.89
868.838	-0.79
869.005	0.96
869.172	-0.11
869.339	-0.08
869.505	0.24
869.672	0.7
869.839	2.12
870.006	0.17
870.173	-1.06
870.339	1.04
870.506	3.52
870.673	-1.36
870.84	0.9
871.006	0.75
871.173	1.72
871.34	1.31
871.506	-0.95
871.673	1.3
871.839	-1.81
872.006	0.34
872.173	-0.38
872.339	0.86
872.506	3.05
872.672	0
872.839	-2.45
873.005	0.13
873.172	2.57
873.338	0.33
873.505	0.45
873.671	0.42
873.838	0.95
874.004	-2.07
874.171	-0.63
874.337	0.82
874.503	1.31
874.67	-0.91
874.836	-1.19
875.002	2.94
875.169	0.57
875.335	0.02
875.501	0.11
875.668	-0.12
875.834	1.38
876	-0.46
876.166	-0.04
876.332	2.94
876.499	4.04
876.665	-0.85
876.831	0.24
876.997	2.31
877.163	1.58
877.329	-0.4
877.495	1.04
877.662	0.88
877.828	1.37
877.994	-0.06
878.16	-2.27
878.326	0.72
878.492	-0.78
878.658	-0.43
878.824	0.69
878.99	2.29
879.156	-0.47
879.322	1.92
879.487	0
879.653	-0.13
879.819	-0.45
879.985	-1.99
880.151	0.69
880.317	1.23
880.483	-0.34
880.648	0.02
880.814	-3.81
880.98	0.6
881.146	-2.74
881.312	-1.52
881.477	0.08
881.643	-0.32
881.809	2.67
881.974	1.64
882.14	-2.52
882.306	-0.43
882.471	2.58
882.637	1.01
882.803	2.38
882.968	4.02
883.134	3.18
883.299	-1.44
883.465	-0.26
883.63	1.23
883.796	1.92
883.961	1.41
884.127	1.19
884.292	-4.88
884.458	-3.82
884.623	-3.82
