Data from Apollo_Calib_20240827__AbsoluteIrradiance__365__05-14-00-732.txt Node

Date: Wed Aug 28 05:14:00 BST 2024
User: biology
Spectrometer: FLMT08252
Trigger mode: 0
Integration Time (sec): 5.000000E-1
Scans to average: 5
Electric dark correction enabled: true
Nonlinearity correction enabled: false
Boxcar width: 0
XAxis mode: Wavelengths
Number of Pixels in Spectrum: 3648
>>>>>Begin Spectral Data<<<<<
179.588	-0
179.809	-0
180.03	-0
180.251	-0
180.473	-0
180.694	0
180.915	0
181.136	-0
181.357	0
181.578	-0
181.799	-0
182.02	0
182.241	0
182.462	-0
182.683	0
182.904	-0
183.125	-0
183.346	0
183.567	0
183.788	0
184.009	-0
184.23	0
184.451	0
184.672	0
184.892	-0
185.113	0
185.334	0
185.555	-0
185.776	0
185.996	0
186.217	0
186.438	0
186.659	-0
186.879	0
187.1	-0
187.321	-0
187.541	-0
187.762	0
187.983	0
188.203	0
188.424	0
188.644	0
188.865	0
189.086	0
189.306	0
189.527	0
189.747	0
189.968	-0
190.188	0
190.409	0
190.629	0
190.849	0
191.07	0
191.29	0
191.511	0
191.731	-0
191.951	-0
192.172	0
192.392	0
192.612	0
192.833	0
193.053	0
193.273	0
193.493	0
193.714	0
193.934	0
194.154	0
194.374	0
194.594	0
194.815	0
195.035	0
195.255	0
195.475	-0
195.695	0
195.915	0
196.135	0
196.355	0
196.575	0
196.795	0
197.015	-0
197.235	0
197.455	0
197.675	0
197.895	0
198.115	0
198.335	0
198.555	0
198.775	0
198.995	0
199.214	0
199.434	0
199.654	0
199.874	0
200.094	2.4
200.313	0.24
200.533	-0.15
200.753	-0.44
200.973	1.92
201.192	0.81
201.412	-0.16
201.632	0.39
201.851	1.33
202.071	0.09
202.291	0.04
202.51	0.31
202.73	0.92
202.95	0.29
203.169	-0.13
203.389	0.08
203.608	0.68
203.828	0.09
204.047	0.36
204.267	0.62
204.486	0.42
204.706	0.61
204.925	0.16
205.145	0.18
205.364	0.78
205.583	1.11
205.803	-0.27
206.022	-0.08
206.242	0.8
206.461	0.59
206.68	-0.09
206.9	0.4
207.119	0.94
207.338	0.92
207.557	0.22
207.777	0.23
207.996	0.31
208.215	0.66
208.434	-0.19
208.654	-0.28
208.873	0.5
209.092	0.97
209.311	0.37
209.53	0.08
209.749	0.31
209.968	0.18
210.187	0.24
210.407	-0.21
210.626	0.28
210.845	0.71
211.064	0.52
211.283	0.12
211.502	0.69
211.721	0.29
211.94	0.14
212.159	0.62
212.377	0.5
212.596	0.72
212.815	0.25
213.034	0.42
213.253	0.58
213.472	0.69
213.691	0.07
213.91	-0.04
214.128	0.13
214.347	0.56
214.566	-0.17
214.785	-0.12
215.003	0.57
215.222	0.5
215.441	0.4
215.66	-0.04
215.878	0.11
216.097	0.55
216.316	0.14
216.534	0.08
216.753	0.35
216.972	0.06
217.19	0.31
217.409	-0.14
217.627	-0
217.846	0.45
218.064	0.2
218.283	0.16
218.501	0.53
218.72	0.53
218.938	0.02
219.157	0.09
219.375	0.41
219.594	0.52
219.812	0.09
220.031	0.15
220.249	0.54
220.467	0.46
220.686	0.28
220.904	-0.05
221.122	0.04
221.341	0.46
221.559	0.21
221.777	-0.09
221.995	0.38
222.214	0.23
222.432	0.05
222.65	0.37
222.868	0.26
223.086	0.3
223.305	0.4
223.523	0.21
223.741	0.56
223.959	0.13
224.177	-0.22
224.395	0.11
224.613	0.18
224.831	0.36
225.049	0.1
225.267	0.01
225.485	0.4
225.703	0.2
225.921	0.13
226.139	0.12
226.357	0.46
226.575	0.19
226.793	0.1
227.011	0.9
227.229	0.17
227.447	0.4
227.665	0.09
227.883	0.05
228.1	0.16
228.318	0.18
228.536	-0.04
228.754	0.02
228.972	0.15
229.189	0.36
229.407	0.09
229.625	0.19
229.843	0.44
230.06	0.19
230.278	0.1
230.496	0.1
230.713	0.26
230.931	0.33
231.149	0.13
231.366	0.02
231.584	0.19
231.801	0.53
232.019	0.16
232.236	-0.02
232.454	0.06
232.671	0.22
232.889	0.09
233.106	-0
233.324	0.19
233.541	0.02
233.759	0.13
233.976	0.09
234.194	0.13
234.411	0.22
234.628	0.01
234.846	0.1
235.063	0.22
235.28	0.19
235.498	0.04
235.715	-0.05
235.932	0.25
236.149	0.16
236.367	0.04
236.584	0.17
236.801	0.15
237.018	0.23
237.236	0.18
237.453	0.01
237.67	0.27
237.887	0.11
238.104	0.04
238.321	0.03
238.538	0.08
238.755	0.3
238.973	-0.07
239.19	0.19
239.407	0.28
239.624	0.23
239.841	0.07
240.058	0.01
240.275	0.2
240.492	0.12
240.709	0.15
240.925	0.13
241.142	0.23
241.359	0.01
241.576	0.13
241.793	0.08
242.01	0.14
242.227	0.28
242.444	0.12
242.66	0.29
242.877	0.22
243.094	0.07
243.311	0.22
243.527	0.05
243.744	0.17
243.961	0.15
244.178	0.06
244.394	0.13
244.611	0.29
244.828	0.38
245.044	0.03
245.261	0.08
245.477	0.11
245.694	0.23
245.911	0
246.127	0.15
246.344	0.29
246.56	0.19
246.777	0.12
246.993	0.13
247.21	0.26
247.426	0.18
247.643	0.1
247.859	0.01
248.076	0.05
248.292	0.29
248.508	0.14
248.725	0.18
248.941	0.21
249.157	0.18
249.374	0.1
249.59	0.06
249.806	0.06
250.023	0.22
250.239	0.04
250.455	0.04
250.671	0.13
250.888	0.18
251.104	0.19
251.32	0.1
251.536	0.14
251.752	0.12
251.969	0.07
252.185	0.1
252.401	0.29
252.617	0.24
252.833	0.11
253.049	0.12
253.265	0.14
253.481	0.17
253.697	0.05
253.913	0.06
254.129	0.09
254.345	0.09
254.561	0.12
254.777	0.09
254.993	0.18
255.209	0.21
255.425	0.16
255.641	0.06
255.857	0.23
256.073	0.13
256.288	0.04
256.504	0.12
256.72	0.17
256.936	0.27
257.152	0.1
257.367	0.01
257.583	0.07
257.799	0.21
258.015	0.04
258.23	0.05
258.446	0.3
258.662	0.16
258.877	-0
259.093	0.04
259.309	0.19
259.524	0.17
259.74	0.07
259.955	0.05
260.171	0.1
260.387	0.17
260.602	0.13
260.818	0.16
261.033	0.05
261.249	0.02
261.464	0.09
261.68	0.09
261.895	0.14
262.11	0.22
262.326	0.07
262.541	-0.02
262.757	0.18
262.972	0.17
263.187	0.1
263.403	0.1
263.618	0.17
263.833	0.12
264.049	0.1
264.264	0.07
264.479	0.14
264.694	0.24
264.91	-0.01
265.125	0.11
265.34	0.21
265.555	0.25
265.77	0.17
265.986	0.1
266.201	0.15
266.416	0.21
266.631	0.08
266.846	0.1
267.061	0.18
267.276	0.19
267.491	0.02
267.706	0.23
267.921	0.18
268.136	0.07
268.351	0.11
268.566	0.05
268.781	0.24
268.996	0.18
269.211	0.13
269.426	0.07
269.641	0.13
269.856	0.28
270.071	0.05
270.285	0.02
270.5	0.19
270.715	0.17
270.93	0.12
271.145	0.15
271.359	0.16
271.574	0.09
271.789	0.08
272.004	0.06
272.218	0.1
272.433	0.19
272.648	0.03
272.862	0.15
273.077	0.14
273.292	0.12
273.506	0.04
273.721	0.15
273.936	0.16
274.15	0.16
274.365	0.11
274.579	0.2
274.794	0.13
275.008	0.23
275.223	0.05
275.437	0.09
275.652	0.22
275.866	0.23
276.081	0.1
276.295	0.16
276.509	0.12
276.724	0.16
276.938	0.16
277.153	0.18
277.367	0.22
277.581	0.09
277.796	0.06
278.01	0.07
278.224	0.2
278.438	0.24
278.653	0.06
278.867	0.05
279.081	-0.01
279.295	0.09
279.51	0.12
279.724	-0.01
279.938	0.13
280.152	0.13
280.366	0.04
280.58	0.15
280.794	0.2
281.008	0.17
281.222	0.16
281.437	0.21
281.651	0.11
281.865	0.2
282.079	0.11
282.293	0.02
282.507	0.1
282.721	0.04
282.935	0.11
283.148	0.03
283.362	0.15
283.576	0.1
283.79	0.11
284.004	0.09
284.218	0.15
284.432	0.06
284.646	0.06
284.859	0.1
285.073	0.11
285.287	0.11
285.501	0.08
285.714	0.11
285.928	0.12
286.142	0.09
286.356	0.11
286.569	0.11
286.783	0.2
286.997	0.21
287.21	0.07
287.424	0.12
287.637	0.14
287.851	0.12
288.065	0.15
288.278	0.09
288.492	0.13
288.705	0.06
288.919	0.14
289.132	0.01
289.346	0.18
289.559	0.02
289.773	0.03
289.986	0.1
290.2	0.13
290.413	0.15
290.626	0.07
290.84	0.11
291.053	0.13
291.267	0.21
291.48	0.07
291.693	0.13
291.906	0.09
292.12	0.09
292.333	0.05
292.546	0.09
292.76	0.16
292.973	0.15
293.186	0.13
293.399	0.08
293.612	0.15
293.826	0.12
294.039	0.08
294.252	0.08
294.465	0.14
294.678	0.15
294.891	0.11
295.104	0
295.317	0.09
295.53	0.12
295.743	0.09
295.956	0.1
296.169	0.17
296.382	0.2
296.595	0.09
296.808	0.1
297.021	0.2
297.234	0.16
297.447	0.1
297.66	0.16
297.873	0.16
298.086	0.19
298.299	0.05
298.511	0.06
298.724	0.08
298.937	0.02
299.15	0.05
299.363	0.11
299.575	0.14
299.788	0.12
300.001	0.09
300.213	0.1
300.426	0.1
300.639	0.09
300.852	0.07
301.064	0.09
301.277	0.17
301.489	0.19
301.702	0.14
301.915	0.11
302.127	0.11
302.34	0.12
302.552	0.15
302.765	0.06
302.977	0.14
303.19	0.1
303.402	0.09
303.615	0.08
303.827	0.06
304.04	0.09
304.252	0.13
304.464	0.12
304.677	0.2
304.889	0.16
305.102	0.05
305.314	0.09
305.526	0.16
305.739	0.14
305.951	0.11
306.163	0.13
306.375	0.17
306.588	0.07
306.8	0.07
307.012	0.08
307.224	0.12
307.436	0.14
307.649	0.07
307.861	0.08
308.073	0.18
308.285	0.1
308.497	0.05
308.709	0.09
308.921	0.18
309.133	0.18
309.346	0.06
309.558	0.13
309.77	0.16
309.982	0.18
310.194	0.15
310.406	0.07
310.617	0.18
310.829	0.12
311.041	0.15
311.253	0.11
311.465	0.12
311.677	0.12
311.889	0.1
312.101	0.1
312.313	0.17
312.524	0.19
312.736	0.07
312.948	0.11
313.16	0.16
313.372	0.15
313.583	0.1
313.795	0.09
314.007	0.04
314.218	0.17
314.43	0.13
314.642	0.08
314.853	0.08
315.065	0.14
315.277	0.09
315.488	0.09
315.7	0.16
315.912	0.14
316.123	0.09
316.335	0.12
316.546	0.22
316.758	0.09
316.969	0.1
317.181	0.08
317.392	0.12
317.604	0.18
317.815	0.06
318.026	0.09
318.238	0.08
318.449	0.14
318.661	0.04
318.872	0.08
319.083	0.11
319.295	0.14
319.506	0.1
319.717	0.11
319.929	0.18
320.14	0.13
320.351	0.13
320.562	0.11
320.774	0.13
320.985	0.11
321.196	0.09
321.407	0.06
321.618	0.14
321.829	0.14
322.041	0.15
322.252	0.12
322.463	0.12
322.674	0.13
322.885	0.08
323.096	0.07
323.307	0.09
323.518	0.15
323.729	0.09
323.94	0.11
324.151	0.13
324.362	0.12
324.573	0.17
324.784	0.12
324.995	0.15
325.206	0.15
325.417	0.1
325.628	0.06
325.838	0.09
326.049	0.18
326.26	0.12
326.471	0.09
326.682	0.12
326.892	0.13
327.103	0.02
327.314	0.07
327.525	0.15
327.735	0.13
327.946	0.09
328.157	0.11
328.368	0.16
328.578	0.09
328.789	0.16
328.999	0.12
329.21	0.14
329.421	0.13
329.631	0.06
329.842	0.13
330.052	0.17
330.263	0.14
330.473	0.17
330.684	0.13
330.894	0.09
331.105	0.14
331.315	0.12
331.526	0.07
331.736	0.21
331.947	0.15
332.157	0.16
332.367	0.07
332.578	0.16
332.788	0.16
332.999	0.16
333.209	0.14
333.419	0.08
333.629	0.16
333.84	0.17
334.05	0.12
334.26	0.19
334.47	0.14
334.681	0.14
334.891	0.11
335.101	0.14
335.311	0.23
335.521	0.15
335.732	0.05
335.942	0.13
336.152	0.19
336.362	0.16
336.572	0.15
336.782	0.16
336.992	0.09
337.202	0.1
337.412	0.07
337.622	0.17
337.832	0.11
338.042	0.13
338.252	0.09
338.462	0.08
338.672	0.14
338.882	0.07
339.092	0.09
339.302	0.15
339.511	0.12
339.721	0.05
339.931	0.04
340.141	0.17
340.351	0.18
340.561	0.12
340.77	0.14
340.98	0.11
341.19	0.12
341.4	0.12
341.609	0.06
341.819	0.13
342.029	0.07
342.238	0.12
342.448	0.08
342.658	0.16
342.867	0.12
343.077	0.12
343.286	0.14
343.496	0.14
343.706	0.14
343.915	0.05
344.125	0.13
344.334	0.13
344.544	0.08
344.753	0.09
344.963	0.1
345.172	0.09
345.381	0.08
345.591	0.04
345.8	0.13
346.01	0.17
346.219	0.16
346.428	-0.04
346.638	0.1
346.847	0.16
347.056	0.15
347.266	0.11
347.475	0.09
347.684	0.14
347.893	0.16
348.103	0.13
348.312	0.12
348.521	0.15
348.73	0.13
348.94	0.11
349.149	0.05
349.358	0.09
349.567	0.1
349.776	0.07
349.985	0.1
350.194	0.14
350.403	0.16
350.612	0.03
350.821	0.11
351.03	0.11
351.239	0.06
351.448	0.11
351.657	0.06
351.866	0.23
352.075	0.1
352.284	0.16
352.493	0.1
352.702	0.2
352.911	0.1
353.12	0.09
353.329	0.13
353.538	0.14
353.746	0.12
353.955	0.05
354.164	0.14
354.373	0.09
354.582	0.14
354.79	0.12
354.999	0.17
355.208	0.13
355.416	0.16
355.625	0.06
355.834	0.11
356.042	0.13
356.251	0.12
356.46	0.1
356.668	0.12
356.877	0.25
357.085	0.14
357.294	0.05
357.503	0.13
357.711	0.09
357.92	0.26
358.128	0.08
358.337	0.12
358.545	0.16
358.754	0.12
358.962	0.17
359.17	0.1
359.379	0.13
359.587	0.17
359.796	0.12
360.004	0.18
360.212	0.12
360.421	0.16
360.629	0.11
360.837	0.11
361.046	0.16
361.254	0.24
361.462	0.15
361.67	0.08
361.879	0.15
362.087	0.21
362.295	0.14
362.503	0.08
362.711	0.07
362.92	0.13
363.128	0.09
363.336	0.04
363.544	0.09
363.752	0.1
363.96	0.09
364.168	0.11
364.376	0.1
364.584	0.12
364.792	0.16
365	0.12
365.208	0.14
365.416	0.15
365.624	0.14
365.832	0.11
366.04	0.2
366.248	0.12
366.456	0.11
366.664	0.07
366.872	0.13
367.079	0.1
367.287	0.16
367.495	0.17
367.703	0.11
367.911	0.11
368.118	0.12
368.326	0.14
368.534	0.05
368.742	0.22
368.949	0.03
369.157	0.08
369.365	0.16
369.572	0.1
369.78	0.08
369.988	0.15
370.195	0.12
370.403	0.14
370.61	0.1
370.818	0.14
371.026	0.21
371.233	0.08
371.441	0.13
371.648	0.12
371.856	0.15
372.063	0.15
372.271	0.09
372.478	0.09
372.685	0.11
372.893	0.14
373.1	0.1
373.308	0.09
373.515	0.23
373.722	0.13
373.93	0.09
374.137	0.15
374.344	0.17
374.552	0.19
374.759	0.15
374.966	0.16
375.173	0.08
375.381	0.19
375.588	0.11
375.795	0.06
376.002	0.14
376.209	0.11
376.417	0.13
376.624	0.09
376.831	0.16
377.038	0.12
377.245	0.02
377.452	0.11
377.659	0.14
377.866	0.14
378.073	0.12
378.28	0.14
378.487	0.18
378.694	0.17
378.901	0.09
379.108	0.12
379.315	0.15
379.522	0.19
379.729	0.2
379.936	0.08
380.143	0.15
380.35	0.14
380.557	0.12
380.763	0.11
380.97	0.16
381.177	0.14
381.384	0.15
381.591	0.09
381.797	0.14
382.004	0.12
382.211	0.16
382.418	0.16
382.624	0.17
382.831	0.16
383.038	0.1
383.244	0.14
383.451	0.1
383.658	0.16
383.864	0.12
384.071	0.09
384.277	0.22
384.484	0.11
384.69	0.15
384.897	0.06
385.103	0.15
385.31	0.1
385.516	0.14
385.723	0.12
385.929	0.13
386.136	0.1
386.342	0.12
386.549	0.14
386.755	0.19
386.961	0.16
387.168	0.11
387.374	0.14
387.58	0.16
387.787	0.14
387.993	0.17
388.199	0.11
388.406	0.1
388.612	0.1
388.818	0.07
389.024	0.14
389.231	0.12
389.437	0.18
389.643	0.18
389.849	0.19
390.055	0.14
390.261	0.12
390.467	0.16
390.674	0.11
390.88	0.12
391.086	0.2
391.292	0.11
391.498	0.2
391.704	0.17
391.91	0.11
392.116	0.14
392.322	0.06
392.528	0.15
392.734	0.15
392.94	0.15
393.146	0.11
393.352	0.13
393.557	0.1
393.763	0.12
393.969	0.19
394.175	0.13
394.381	0.14
394.587	0.13
394.792	0.18
394.998	0.25
395.204	0.19
395.41	0.09
395.615	0.18
395.821	0.17
396.027	0.15
396.233	0.18
396.438	0.16
396.644	0.22
396.85	0.19
397.055	0.15
397.261	0.21
397.466	0.12
397.672	0.22
397.878	0.21
398.083	0.17
398.289	0.14
398.494	0.21
398.7	0.21
398.905	0.12
399.111	0.28
399.316	0.12
399.522	0.19
399.727	0.16
399.932	0.18
400.138	0.19
400.343	0.2
400.549	0.19
400.754	0.2
400.959	0.21
401.165	0.21
401.37	0.22
401.575	0.31
401.78	0.23
401.986	0.19
402.191	0.17
402.396	0.22
402.601	0.24
402.807	0.18
403.012	0.23
403.217	0.23
403.422	0.23
403.627	0.21
403.832	0.19
404.037	0.23
404.243	0.21
404.448	0.17
404.653	0.23
404.858	0.23
405.063	0.27
405.268	0.17
405.473	0.19
405.678	0.22
405.883	0.4
406.088	0.28
406.293	0.19
406.498	0.2
406.703	0.27
406.907	0.29
407.112	0.26
407.317	0.3
407.522	0.36
407.727	0.23
407.932	0.28
408.136	0.35
408.341	0.27
408.546	0.31
408.751	0.3
408.956	0.32
409.16	0.35
409.365	0.34
409.57	0.33
409.774	0.34
409.979	0.36
410.184	0.39
410.388	0.36
410.593	0.45
410.798	0.38
411.002	0.39
411.207	0.46
411.411	0.52
411.616	0.36
411.82	0.47
412.025	0.45
412.229	0.45
412.434	0.55
412.638	0.52
412.843	0.5
413.047	0.58
413.252	0.52
413.456	0.57
413.66	0.62
413.865	0.6
414.069	0.69
414.273	0.6
414.478	0.66
414.682	0.67
414.886	0.71
415.091	0.68
415.295	0.65
415.499	0.87
415.703	0.81
415.908	0.9
416.112	0.82
416.316	0.94
416.52	0.93
416.724	0.98
416.929	0.92
417.133	1.23
417.337	1.05
417.541	1.13
417.745	1.2
417.949	1.23
418.153	1.3
418.357	1.3
418.561	1.51
418.765	1.38
418.969	1.53
419.173	1.59
419.377	1.6
419.581	1.74
419.785	1.75
419.989	1.76
420.193	1.94
420.397	1.91
420.601	2.13
420.804	2.16
421.008	2.14
421.212	2.25
421.416	2.31
421.62	2.34
421.823	2.35
422.027	2.62
422.231	2.51
422.435	2.56
422.638	2.68
422.842	2.72
423.046	2.78
423.249	2.97
423.453	3.06
423.657	3.16
423.86	3.24
424.064	3.39
424.268	3.57
424.471	3.58
424.675	3.81
424.878	3.89
425.082	3.96
425.285	4.28
425.489	4.22
425.692	4.38
425.896	4.51
426.099	4.68
426.303	4.82
426.506	5.06
426.71	5.14
426.913	5.49
427.116	5.62
427.32	5.69
427.523	5.83
427.726	6.12
427.93	6.29
428.133	6.66
428.336	6.8
428.54	6.94
428.743	7.25
428.946	7.57
429.149	7.63
429.353	7.71
429.556	7.82
429.759	7.89
429.962	8.05
430.165	8.28
430.368	7.93
430.571	8.07
430.775	8.19
430.978	8.2
431.181	8.39
431.384	8.46
431.587	8.62
431.79	9.09
431.993	8.95
432.196	9.43
432.399	9.84
432.602	10.04
432.805	10.26
433.008	10.72
433.211	10.63
433.414	11.04
433.616	11.29
433.819	11.18
434.022	11.42
434.225	11.66
434.428	11.88
434.631	12.26
434.833	12.12
435.036	12.61
435.239	12.89
435.442	12.86
435.645	13.25
435.847	13.32
436.05	13.77
436.253	14
436.455	14.13
436.658	14.13
436.861	14.46
437.063	14.73
437.266	14.91
437.468	15.33
437.671	15.82
437.874	16.01
438.076	15.91
438.279	16.65
438.481	16.73
438.684	18
438.886	17.48
439.089	17.99
439.291	18.14
439.494	18.81
439.696	19.03
439.899	19.92
440.101	20.57
440.303	21.07
440.506	22.16
440.708	21.89
440.91	22.48
441.113	23.09
441.315	23.54
441.517	23.55
441.72	24.32
441.922	23.91
442.124	24.1
442.326	24.94
442.529	25.35
442.731	25.63
442.933	26.16
443.135	26.06
443.337	26.41
443.539	27.36
443.742	27.04
443.944	28.06
444.146	28.12
444.348	28.12
444.55	28.15
444.752	28.75
444.954	29
445.156	29.09
445.358	29.87
445.56	30.37
445.762	30.31
445.964	31.09
446.166	30.99
446.368	31.26
446.57	31.3
446.772	30.7
446.974	30.53
447.175	31.38
447.377	30.91
447.579	31.8
447.781	31.41
447.983	30.94
448.184	30.36
448.386	31.23
448.588	30.48
448.79	30.63
448.991	31.18
449.193	31.34
449.395	29.98
449.597	29.36
449.798	29.3
450	28.54
450.202	28.42
450.403	28.56
450.605	28.33
450.806	27.78
451.008	27.5
451.21	27.21
451.411	26.36
451.613	24.89
451.814	25.31
452.016	25.11
452.217	23.95
452.419	24.1
452.62	23.47
452.821	22.94
453.023	22.71
453.224	21.9
453.426	21.25
453.627	20
453.828	20.01
454.03	20.07
454.231	20.08
454.432	19.71
454.634	19.28
454.835	18.7
455.036	18.59
455.238	17.73
455.439	17.19
455.64	16.86
455.841	16.53
456.042	16.51
456.244	15.95
456.445	15.57
456.646	15.15
456.847	14.88
457.048	14.61
457.249	14.68
457.45	14.01
457.651	13.34
457.852	12.95
458.054	12.49
458.255	12.33
458.456	12.44
458.657	12.19
458.858	11.42
459.058	11.25
459.259	11.44
459.46	10.95
459.661	10.82
459.862	10.71
460.063	10.63
460.264	10.3
460.465	10.08
460.666	9.95
460.866	9.5
461.067	9.08
461.268	9.11
461.469	9.04
461.67	8.81
461.87	8.57
462.071	8.49
462.272	8.39
462.473	8.22
462.673	8.41
462.874	8.31
463.075	8.11
463.275	8.02
463.476	8.07
463.676	7.93
463.877	7.73
464.078	7.55
464.278	7.66
464.479	7.38
464.679	7.13
464.88	7.16
465.08	6.91
465.281	6.74
465.481	6.32
465.682	6.02
465.882	6.04
466.083	5.81
466.283	5.78
466.483	5.56
466.684	5.26
466.884	5.14
467.085	5.14
467.285	5.13
467.485	4.96
467.686	4.74
467.886	4.59
468.086	4.46
468.286	4.44
468.487	4.46
468.687	4.25
468.887	4.14
469.087	4.16
469.287	4.07
469.488	3.78
469.688	3.86
469.888	3.87
470.088	3.69
470.288	3.59
470.488	3.47
470.688	3.32
470.888	3.26
471.088	3.02
471.288	3.17
471.488	3.02
471.688	2.98
471.888	2.91
472.088	3
472.288	2.77
472.488	2.72
472.688	2.65
472.888	2.63
473.088	2.58
473.288	2.44
473.488	2.4
473.688	2.49
473.887	2.39
474.087	2.27
474.287	2.23
474.487	2.2
474.687	2.2
474.886	2.12
475.086	1.98
475.286	2.07
475.486	1.9
475.685	1.9
475.885	1.83
476.085	1.81
476.284	1.85
476.484	1.8
476.684	1.74
476.883	1.84
477.083	1.69
477.282	1.57
477.482	1.63
477.681	1.6
477.881	1.5
478.08	1.46
478.28	1.41
478.479	1.46
478.679	1.45
478.878	1.39
479.078	1.26
479.277	1.35
479.477	1.3
479.676	1.29
479.875	1.24
480.075	1.18
480.274	1.19
480.473	1.2
480.673	1.14
480.872	1.21
481.071	1.12
481.271	1.17
481.47	1.04
481.669	1.05
481.868	1
482.067	0.97
482.267	0.97
482.466	0.92
482.665	0.89
482.864	0.85
483.063	0.89
483.262	0.91
483.461	0.91
483.661	0.9
483.86	0.85
484.059	0.83
484.258	0.78
484.457	0.81
484.656	0.74
484.855	0.78
485.054	0.66
485.253	0.68
485.452	0.65
485.651	0.65
485.849	0.67
486.048	0.62
486.247	0.62
486.446	0.65
486.645	0.55
486.844	0.58
487.043	0.55
487.241	0.59
487.44	0.51
487.639	0.54
487.838	0.55
488.037	0.52
488.235	0.58
488.434	0.51
488.633	0.44
488.831	0.51
489.03	0.48
489.229	0.47
489.427	0.44
489.626	0.46
489.825	0.48
490.023	0.42
490.222	0.41
490.42	0.42
490.619	0.42
490.817	0.4
491.016	0.35
491.214	0.41
491.413	0.36
491.611	0.33
491.81	0.32
492.008	0.34
492.207	0.34
492.405	0.34
492.604	0.3
492.802	0.32
493	0.33
493.199	0.3
493.397	0.3
493.595	0.33
493.794	0.25
493.992	0.35
494.19	0.28
494.388	0.31
494.587	0.27
494.785	0.25
494.983	0.22
495.181	0.27
495.379	0.25
495.578	0.26
495.776	0.27
495.974	0.23
496.172	0.22
496.37	0.22
496.568	0.19
496.766	0.22
496.964	0.25
497.162	0.24
497.36	0.2
497.558	0.22
497.756	0.23
497.954	0.22
498.152	0.17
498.35	0.22
498.548	0.18
498.746	0.2
498.944	0.19
499.142	0.19
499.34	0.14
499.538	0.19
499.736	0.16
499.933	0.23
500.131	0.19
500.329	0.2
500.527	0.18
500.725	0.21
500.922	0.19
501.12	0.16
501.318	0.17
501.516	0.14
501.713	0.18
501.911	0.15
502.109	0.12
502.306	0.16
502.504	0.16
502.701	0.13
502.899	0.16
503.097	0.19
503.294	0.15
503.492	0.15
503.689	0.13
503.887	0.15
504.084	0.19
504.282	0.15
504.479	0.1
504.677	0.13
504.874	0.11
505.072	0.13
505.269	0.14
505.466	0.13
505.664	0.13
505.861	0.09
506.059	0.12
506.256	0.14
506.453	0.11
506.651	0.18
506.848	0.13
507.045	0.14
507.242	0.13
507.44	0.1
507.637	0.1
507.834	0.1
508.031	0.12
508.229	0.08
508.426	0.11
508.623	0.14
508.82	0.1
509.017	0.09
509.214	0.09
509.411	0.13
509.608	0.1
509.805	0.1
510.003	0.08
510.2	0.09
510.397	0.13
510.594	0.09
510.791	0.08
510.988	0.07
511.184	0.14
511.381	0.09
511.578	0.07
511.775	0.12
511.972	0.11
512.169	0.08
512.366	0.09
512.563	0.11
512.76	0.07
512.956	0.09
513.153	0.08
513.35	0.09
513.547	0.09
513.744	0.08
513.94	0.05
514.137	0.08
514.334	0.09
514.53	0.09
514.727	0.08
514.924	0.15
515.12	0.07
515.317	0.06
515.514	0.07
515.71	0.05
515.907	0.08
516.103	0.08
516.3	0.07
516.497	0.1
516.693	0.1
516.89	0.09
517.086	0.08
517.283	0.13
517.479	0.1
517.676	0.07
517.872	0.06
518.068	0.07
518.265	0.06
518.461	0.05
518.658	0.07
518.854	0.1
519.05	0.07
519.247	0.06
519.443	0.08
519.639	0.08
519.836	0.09
520.032	0.06
520.228	0.08
520.424	0.12
520.621	0.08
520.817	0.05
521.013	0.08
521.209	0.07
521.405	0.12
521.601	0.09
521.798	0.07
521.994	0.11
522.19	0.04
522.386	0.05
522.582	0.07
522.778	0.09
522.974	0.05
523.17	0.09
523.366	0.1
523.562	0.08
523.758	0.08
523.954	0.04
524.15	0.05
524.346	0.09
524.542	0.05
524.738	0.04
524.934	0.04
525.129	0.07
525.325	0.09
525.521	0.06
525.717	0.09
525.913	0.04
526.109	0.06
526.304	0.06
526.5	0.07
526.696	0.09
526.892	0.04
527.087	0.08
527.283	0.04
527.479	0.08
527.674	0.05
527.87	0.06
528.066	0.06
528.261	0.09
528.457	0.09
528.653	0.06
528.848	0.05
529.044	0.06
529.239	0.05
529.435	0.09
529.63	0.07
529.826	0.11
530.021	0.06
530.217	0.08
530.412	0.05
530.608	0.07
530.803	0.06
530.999	0.05
531.194	0.03
531.389	0.06
531.585	0.01
531.78	0.06
531.975	0.06
532.171	0.08
532.366	0.06
532.561	0.07
532.757	0.05
532.952	0.04
533.147	0.07
533.342	0.06
533.538	0.05
533.733	0.09
533.928	0.06
534.123	0.03
534.318	0.02
534.513	0.08
534.709	0.05
534.904	0.04
535.099	0.05
535.294	0.05
535.489	0.05
535.684	0.06
535.879	0.03
536.074	0.06
536.269	0.03
536.464	0.05
536.659	0.06
536.854	0.04
537.049	0.07
537.244	0.07
537.439	0.04
537.634	0.08
537.828	0.07
538.023	0.05
538.218	0.03
538.413	0.04
538.608	0.02
538.803	0.06
538.997	0.01
539.192	0.07
539.387	0.06
539.582	0.07
539.776	0.06
539.971	0.06
540.166	0.05
540.36	0.03
540.555	0.04
540.75	0.03
540.944	0.06
541.139	0.02
541.334	0.04
541.528	0.06
541.723	0.08
541.917	0.04
542.112	0.02
542.306	0.03
542.501	0.03
542.695	0.05
542.89	0.03
543.084	0.06
543.279	0.04
543.473	0.03
543.668	0.04
543.862	0.05
544.056	0.07
544.251	0.06
544.445	0.05
544.64	0.05
544.834	0
545.028	0.05
545.222	0.06
545.417	0.05
545.611	0.05
545.805	0.06
546	0.04
546.194	0.04
546.388	0.03
546.582	0.04
546.776	0.03
546.97	0.06
547.165	0.08
547.359	0.07
547.553	0.02
547.747	0.06
547.941	0.07
548.135	0.05
548.329	0.07
548.523	0.07
548.717	0.04
548.911	0.03
549.105	0.04
549.299	0.05
549.493	0.08
549.687	0.06
549.881	0.05
550.075	0.05
550.269	0.01
550.463	0.06
550.657	0.01
550.85	0.03
551.044	0.02
551.238	0.05
551.432	0.03
551.626	0
551.82	0.03
552.013	0.03
552.207	0.04
552.401	0.07
552.594	0.05
552.788	0.03
552.982	0.05
553.176	0.02
553.369	0.06
553.563	0.06
553.756	0.01
553.95	0.03
554.144	0.04
554.337	0.08
554.531	0.02
554.724	0.03
554.918	0.03
555.111	0.08
555.305	0.04
555.498	0.09
555.692	0.08
555.885	0.04
556.079	0.04
556.272	0.04
556.466	0.07
556.659	0.04
556.852	0.03
557.046	0.04
557.239	0.07
557.432	0.03
557.626	0.03
557.819	0.05
558.012	0.05
558.206	0.06
558.399	0.05
558.592	0.05
558.785	0.04
558.979	0.05
559.172	0.04
559.365	0.06
559.558	0.05
559.751	0.05
559.944	0.05
560.138	0.05
560.331	0.03
560.524	0.02
560.717	0.05
560.91	0.05
561.103	0.07
561.296	0.07
561.489	0.07
561.682	0.05
561.875	0.1
562.068	0.06
562.261	0.05
562.454	0.08
562.647	0.06
562.84	0.07
563.032	0.05
563.225	0.05
563.418	0.03
563.611	0.03
563.804	0.05
563.997	0.01
564.19	0
564.382	0.04
564.575	0.03
564.768	0.05
564.961	0.04
565.153	0.02
565.346	0.06
565.539	0.06
565.731	0.06
565.924	0.08
566.117	0.05
566.309	0.04
566.502	0
566.695	0.03
566.887	0.04
567.08	0.01
567.272	0.05
567.465	0.03
567.657	0.05
567.85	0.06
568.042	0.06
568.235	0.05
568.427	0.03
568.62	0.05
568.812	0.07
569.005	0.05
569.197	0.01
569.389	0.04
569.582	0.05
569.774	0.05
569.966	0
570.159	0
570.351	0.07
570.543	0.03
570.736	0.04
570.928	-0
571.12	0.04
571.312	0.01
571.505	-0
571.697	0.08
571.889	0.04
572.081	0.02
572.273	0
572.465	0.08
572.658	0.02
572.85	0.04
573.042	0.02
573.234	0.04
573.426	0.09
573.618	-0.01
573.81	0.05
574.002	0.07
574.194	0.08
574.386	-0.01
574.578	-0.02
574.77	0
574.962	0.06
575.154	0.03
575.346	0.01
575.538	0.04
575.729	0.03
575.921	0.03
576.113	0.05
576.305	0.07
576.497	0.02
576.689	0.01
576.88	0.02
577.072	0.07
577.264	0.04
577.456	0.05
577.647	-0.04
577.839	0.04
578.031	0.08
578.223	0.01
578.414	0.01
578.606	0.04
578.798	0.04
578.989	0.01
579.181	0.02
579.372	0.04
579.564	0.02
579.755	0.05
579.947	0.03
580.139	0.04
580.33	-0
580.522	0
580.713	-0.02
580.905	0.03
581.096	0.04
581.287	0.02
581.479	0.04
581.67	0.07
581.862	0.04
582.053	0.02
582.244	-0.01
582.436	0.03
582.627	0.05
582.818	0
583.01	0.02
583.201	0.05
583.392	0.09
583.583	0.05
583.775	0.01
583.966	0.03
584.157	0.05
584.348	0.01
584.54	-0.01
584.731	0.05
584.922	0.01
585.113	0.02
585.304	0.04
585.495	0.05
585.686	0.02
585.877	0.06
586.068	0.03
586.259	0.05
586.45	0.06
586.641	0
586.832	-0.03
587.023	0.03
587.214	0.02
587.405	0.02
587.596	0.01
587.787	0.07
587.978	0.04
588.169	0
588.36	0.02
588.551	0.03
588.742	0.03
588.932	0.05
589.123	0.02
589.314	0.09
589.505	0.04
589.696	0.02
589.886	0.02
590.077	0
590.268	0.02
590.458	0
590.649	-0
590.84	0.06
591.03	0
591.221	-0.02
591.412	-0.01
591.602	0.04
591.793	0.05
591.984	0.01
592.174	0.02
592.365	0.1
592.555	0
592.746	0.04
592.936	0.05
593.127	0.07
593.317	0.07
593.508	0.02
593.698	0.03
593.889	0.02
594.079	0.02
594.269	0.01
594.46	0.05
594.65	0.05
594.84	0.03
595.031	-0
595.221	0.01
595.411	0
595.602	0.06
595.792	0.02
595.982	0.02
596.172	0.08
596.363	0.03
596.553	0.03
596.743	0.03
596.933	0.04
597.123	0.05
597.314	0
597.504	0.03
597.694	0.03
597.884	0.03
598.074	0
598.264	0.01
598.454	0.07
598.644	0.04
598.834	0.05
599.024	-0.05
599.214	0.02
599.404	0.06
599.594	0.02
599.784	-0
599.974	0.07
600.164	0.05
600.354	0.02
600.544	-0.03
600.734	0.02
600.924	0.06
601.114	0.02
601.303	0.02
601.493	0.05
601.683	-0.02
601.873	0.06
602.063	-0.02
602.252	0.05
602.442	-0.03
602.632	0.02
602.821	-0.03
603.011	0.04
603.201	0.03
603.39	-0
603.58	0.02
603.77	0.05
603.959	0.04
604.149	0.02
604.339	0.01
604.528	0.04
604.718	0.02
604.907	0.02
605.097	0.05
605.286	-0
605.476	0.04
605.665	0.05
605.855	-0.01
606.044	0.01
606.234	0.01
606.423	0.04
606.612	-0.01
606.802	0.05
606.991	0.04
607.181	0.05
607.37	-0.01
607.559	0.02
607.749	-0
607.938	0.04
608.127	0
608.316	-0.01
608.506	0.07
608.695	0.02
608.884	0.02
609.073	0.03
609.263	0.06
609.452	0.05
609.641	0.03
609.83	0
610.019	0.04
610.208	-0.01
610.397	0
610.586	0.03
610.775	0
610.965	0.01
611.154	0.01
611.343	0.04
611.532	0.03
611.721	-0.03
611.91	0.02
612.099	0.02
612.287	-0.01
612.476	-0.02
612.665	0.01
612.854	-0.03
613.043	0.09
613.232	0.01
613.421	0
613.61	0.02
613.798	0.01
613.987	0.06
614.176	0.01
614.365	0.06
614.554	0.04
614.742	0.06
614.931	-0
615.12	0.05
615.309	0
615.497	0.06
615.686	0
615.875	0.01
616.063	0.05
616.252	-0.01
616.44	-0.01
616.629	0.04
616.818	0.05
617.006	0.03
617.195	-0.01
617.383	0.04
617.572	0.02
617.76	-0.03
617.949	-0.01
618.137	0.02
618.326	0.05
618.514	-0.01
618.703	0.02
618.891	0.08
619.079	-0.03
619.268	0.04
619.456	0.01
619.644	0.05
619.833	0.03
620.021	0.01
620.209	-0.03
620.398	0.03
620.586	0.01
620.774	0.05
620.962	-0
621.151	0.11
621.339	0.03
621.527	-0
621.715	-0.01
621.903	-0.02
622.092	0
622.28	0.05
622.468	0.02
622.656	-0.01
622.844	0.05
623.032	0
623.22	-0.04
623.408	0.07
623.596	0.04
623.784	0.05
623.972	0
624.16	0
624.348	0.06
624.536	0.03
624.724	-0
624.912	0.07
625.1	0.03
625.288	-0
625.476	0
625.664	0.04
625.851	-0
626.039	0.03
626.227	0.04
626.415	0.03
626.603	-0.06
626.79	0.02
626.978	0
627.166	0.02
627.354	0.02
627.541	-0.01
627.729	-0.07
627.917	0.04
628.104	0.09
628.292	0.01
628.48	0.04
628.667	0.01
628.855	0.06
629.042	0.03
629.23	-0.02
629.418	0.02
629.605	0
629.793	0.02
629.98	0.02
630.168	-0.01
630.355	-0
630.543	0.01
630.73	-0.05
630.917	0.06
631.105	0.07
631.292	0.04
631.48	0.01
631.667	0.1
631.854	0.03
632.042	-0.01
632.229	-0.03
632.416	0.03
632.604	0.02
632.791	-0.02
632.978	0.05
633.165	0.08
633.353	0.07
633.54	0.06
633.727	-0.04
633.914	0.03
634.101	-0.04
634.289	0.08
634.476	-0
634.663	-0
634.85	0.03
635.037	-0
635.224	-0.01
635.411	0.07
635.598	0.08
635.785	0.02
635.972	0.02
636.159	0.06
636.346	-0.02
636.533	0
636.72	-0.02
636.907	0.01
637.094	0.04
637.281	0.02
637.468	0.04
637.655	0.03
637.842	0.02
638.029	-0.01
638.215	0.03
638.402	0.02
638.589	-0.01
638.776	0.03
638.963	-0
639.149	0.04
639.336	0.1
639.523	0.01
639.709	0.03
639.896	0
640.083	0.07
640.27	0.05
640.456	-0.01
640.643	-0.01
640.829	-0.02
641.016	0.01
641.203	-0
641.389	0.05
641.576	0.04
641.762	0.04
641.949	0.01
642.135	0.07
642.322	0.02
642.508	-0.02
642.695	0.01
642.881	0.05
643.068	-0.02
643.254	0.01
643.441	0.06
643.627	0.03
643.813	-0.02
644	0.06
644.186	-0.04
644.372	0.05
644.559	0.06
644.745	0.02
644.931	0
645.118	0.03
645.304	0.03
645.49	-0.01
645.676	-0.01
645.862	0.03
646.049	0.05
646.235	0.03
646.421	0.1
646.607	0.1
646.793	-0.01
646.979	0
647.165	0.04
647.352	0.01
647.538	0.04
647.724	0.04
647.91	0.01
648.096	0.08
648.282	0.06
648.468	0.01
648.654	0.06
648.84	0.04
649.026	0.02
649.212	0.06
649.397	0.03
649.583	-0.01
649.769	0.05
649.955	0.02
650.141	0.05
650.327	0.08
650.513	-0
650.698	0.05
650.884	-0.06
651.07	0.03
651.256	0.06
651.442	0.01
651.627	0.02
651.813	0.02
651.999	0.04
652.184	0.02
652.37	0.02
652.556	-0
652.741	0.08
652.927	-0.04
653.113	0.03
653.298	0.03
653.484	-0.02
653.669	-0.01
653.855	0.04
654.04	0.08
654.226	0.03
654.412	-0
654.597	-0.03
654.782	0.04
654.968	0.07
655.153	0.04
655.339	-0.03
655.524	-0.05
655.71	0.05
655.895	-0.01
656.08	0.03
656.266	0.05
656.451	0.01
656.636	-0.02
656.822	0.03
657.007	-0.02
657.192	-0.01
657.378	-0.04
657.563	0.02
657.748	0.05
657.933	0.02
658.118	0.01
658.304	-0.02
658.489	0.07
658.674	0.03
658.859	-0.02
659.044	0.02
659.229	0.04
659.414	0.01
659.599	-0
659.785	-0.04
659.97	0.03
660.155	0.06
660.34	0.03
660.525	0
660.71	0
660.895	0.09
661.08	-0.03
661.264	-0.02
661.449	0.07
661.634	0.05
661.819	0.06
662.004	0.03
662.189	-0.03
662.374	0.01
662.559	-0.02
662.743	-0.07
662.928	0.02
663.113	-0.01
663.298	-0.07
663.483	-0.01
663.667	0.04
663.852	-0.04
664.037	0.04
664.221	-0.03
664.406	0.05
664.591	0.04
664.775	-0.02
664.96	-0.02
665.145	0.04
665.329	0.05
665.514	-0.01
665.698	0
665.883	-0.03
666.068	0.06
666.252	0.01
666.437	-0.03
666.621	-0.01
666.806	0.08
666.99	0.01
667.174	-0.04
667.359	0.07
667.543	0.06
667.728	0.04
667.912	-0.05
668.096	0.06
668.281	0
668.465	0
668.649	0.04
668.834	-0.01
669.018	0.01
669.202	-0
669.387	-0.02
669.571	0.05
669.755	-0.02
669.939	0.03
670.124	0.05
670.308	0.1
670.492	0.07
670.676	0.02
670.86	0.01
671.044	-0.03
671.228	0.06
671.413	-0.02
671.597	-0.03
671.781	-0.02
671.965	0.05
672.149	0.01
672.333	-0.03
672.517	-0.01
672.701	0.01
672.885	0.01
673.069	-0.04
673.253	0.07
673.437	-0.03
673.621	-0.03
673.804	0.04
673.988	0.03
674.172	0.02
674.356	-0.05
674.54	0.01
674.724	0.12
674.908	0.04
675.091	0.05
675.275	-0
675.459	0.06
675.643	0.11
675.826	0.05
676.01	0.01
676.194	-0.01
676.377	0.06
676.561	0.05
676.745	0.02
676.928	0.02
677.112	0.09
677.296	0.02
677.479	0.02
677.663	0.03
677.846	0.07
678.03	0.01
678.213	-0.01
678.397	0.01
678.58	0.01
678.764	-0.01
678.947	-0.04
679.131	-0.04
679.314	0.09
679.498	-0.02
679.681	-0
679.865	0.09
680.048	-0.02
680.231	-0.01
680.415	0.01
680.598	0.05
680.781	0.02
680.965	0.03
681.148	0.02
681.331	0
681.514	0.04
681.698	-0.01
681.881	-0.01
682.064	0.02
682.247	0.02
682.43	-0.03
682.614	0.03
682.797	0.11
682.98	0.03
683.163	-0.02
683.346	0.06
683.529	-0.02
683.712	-0.04
683.895	0.07
684.078	-0.02
684.261	-0.03
684.444	0.02
684.627	0.02
684.81	-0
684.993	0.01
685.176	0.04
685.359	-0
685.542	0
685.725	0.09
685.908	0
686.091	-0.01
686.274	0.06
686.457	0.03
686.639	0.03
686.822	0.07
687.005	0.03
687.188	0.06
687.371	0.12
687.553	0.05
687.736	0.06
687.919	0.11
688.102	0.14
688.284	0.01
688.467	0.04
688.65	-0.01
688.832	0.03
689.015	0.04
689.197	-0
689.38	0.11
689.563	0.08
689.745	-0
689.928	-0.02
690.11	0.05
690.293	0.08
690.475	-0.07
690.658	0.07
690.84	0.03
691.023	0.01
691.205	0
691.388	0.02
691.57	0.03
691.752	0.04
691.935	0
692.117	-0.03
692.3	0.06
692.482	0.03
692.664	-0.01
692.847	0.09
693.029	0.09
693.211	0.06
693.393	-0.03
693.576	-0.04
693.758	0.05
693.94	-0.01
694.122	-0.02
694.304	0
694.487	-0.03
694.669	0.12
694.851	-0.04
695.033	0.04
695.215	0.01
695.397	-0.03
695.579	0.08
695.761	-0.03
695.943	-0.08
696.125	0.12
696.308	0.08
696.49	-0.07
696.671	0.17
696.853	0.02
697.035	0.13
697.217	0.05
697.399	0.07
697.581	-0
697.763	0.03
697.945	-0.02
698.127	-0
698.309	0.06
698.491	0.04
698.672	0.01
698.854	0.06
699.036	0.09
699.218	-0.02
699.399	0.08
699.581	0.07
699.763	0.04
699.945	0
700.126	-0.01
700.308	0.07
700.49	0.01
700.671	-0.07
700.853	0.01
701.035	0.02
701.216	0.05
701.398	-0.01
701.579	-0
701.761	0.09
701.943	-0.06
702.124	-0.07
702.306	0.02
702.487	0.12
702.669	0.06
702.85	-0.05
703.031	-0.01
703.213	0.15
703.394	0.04
703.576	-0.02
703.757	0.1
703.938	0.04
704.12	0.22
704.301	0.06
704.483	0.04
704.664	0.02
704.845	0.14
705.026	0.1
705.208	0.04
705.389	0.08
705.57	0.09
705.751	-0.01
705.933	0.07
706.114	0.04
706.295	0.07
706.476	-0.03
706.657	0.12
706.838	0.11
707.02	0.07
707.201	-0.03
707.382	-0.03
707.563	0.03
707.744	0.04
707.925	0
708.106	-0.07
708.287	0
708.468	0.12
708.649	-0.01
708.83	0.03
709.011	-0.01
709.192	0.08
709.373	-0.04
709.554	0
709.734	0.06
709.915	0.05
710.096	0.02
710.277	-0.06
710.458	0.05
710.639	0.07
710.819	-0.05
711	-0.01
711.181	0.08
711.362	0.07
711.542	0.05
711.723	-0.03
711.904	0.1
712.085	0.08
712.265	0.05
712.446	-0.03
712.627	0.01
712.807	0.04
712.988	-0.02
713.168	-0.08
713.349	0.02
713.53	-0.06
713.71	-0.02
713.891	-0.05
714.071	0.04
714.252	-0.03
714.432	0
714.613	-0.08
714.793	0.06
714.974	0.12
715.154	0.08
715.334	0.05
715.515	0.16
715.695	-0.1
715.876	0.03
716.056	0.05
716.236	-0.05
716.417	0.01
716.597	0.07
716.777	0.15
716.957	0.03
717.138	0.01
717.318	0.03
717.498	-0.06
717.678	0.05
717.859	0.07
718.039	0.02
718.219	0.01
718.399	0.07
718.579	-0.05
718.759	-0.06
718.939	0.05
719.12	0
719.3	0.06
719.48	-0.1
719.66	-0.07
719.84	0.17
720.02	0.08
720.2	-0.06
720.38	-0
720.56	0.1
720.74	0.03
720.92	0.08
721.1	0.05
721.279	0.08
721.459	0.01
721.639	-0.08
721.819	0.01
721.999	0.08
722.179	0.12
722.359	-0.07
722.538	0.03
722.718	0.08
722.898	-0.02
723.078	-0.05
723.257	0.02
723.437	0.04
723.617	0.03
723.797	-0.04
723.976	-0.01
724.156	0.09
724.336	0.15
724.515	0.22
724.695	-0.11
724.874	-0.02
725.054	0.07
725.234	-0.08
725.413	0.11
725.593	0.02
725.772	0.04
725.952	0.02
726.131	0.05
726.311	0.02
726.49	-0.04
726.67	-0.05
726.849	-0.03
727.028	0.11
727.208	0.01
727.387	0.09
727.567	-0.16
727.746	0.09
727.925	-0.04
728.105	0.02
728.284	-0.01
728.463	0.02
728.643	0.12
728.822	-0.12
729.001	0.02
729.18	0.17
729.359	0.06
729.539	-0.07
729.718	0.06
729.897	0.16
730.076	0.05
730.255	-0.1
730.434	0.08
730.614	0.1
730.793	0.18
730.972	-0.03
731.151	0.04
731.33	0.1
731.509	0.12
731.688	0.05
731.867	0.05
732.046	-0
732.225	0.24
732.404	0.03
732.583	-0.06
732.762	0
732.941	0.16
733.12	0.1
733.298	0
733.477	0.2
733.656	0.01
733.835	-0.06
734.014	0.07
734.193	0.1
734.371	0.07
734.55	0.12
734.729	-0.11
734.908	0.04
735.086	0.09
735.265	0.2
735.444	-0.12
735.623	-0.08
735.801	-0.16
735.98	0
736.159	0.01
736.337	0.12
736.516	0.07
736.694	0.11
736.873	0.04
737.052	0.13
737.23	0.26
737.409	-0.01
737.587	0.2
737.766	-0.11
737.944	-0.1
738.123	-0.03
738.301	0.16
738.479	-0.03
738.658	0.07
738.836	-0.11
739.015	-0.03
739.193	0.15
739.371	-0.04
739.55	-0.03
739.728	-0.02
739.906	0.05
740.085	0.17
740.263	0.02
740.441	-0.17
740.62	0.21
740.798	0.12
740.976	0.01
741.154	-0.16
741.332	0.23
741.511	0.01
741.689	0.1
741.867	0.08
742.045	0.06
742.223	-0.01
742.401	-0
742.579	0.04
742.757	0.04
742.935	-0.15
743.114	-0.09
743.292	0.05
743.47	0.1
743.648	0.07
743.826	-0.13
744.004	0.12
744.181	0.1
744.359	0.08
744.537	0.02
744.715	-0.02
744.893	0.02
745.071	0.04
745.249	0.01
745.427	0.01
745.605	0.02
745.782	0.06
745.96	0.2
746.138	-0.01
746.316	0.11
746.493	0.01
746.671	0.07
746.849	-0
747.027	0.22
747.204	-0.1
747.382	0.1
747.56	-0.09
747.737	-0.04
747.915	-0.04
748.093	0.12
748.27	-0.05
748.448	0.06
748.625	-0.03
748.803	-0.07
748.98	-0.08
749.158	0.15
749.335	0.15
749.513	0.07
749.69	0.08
749.868	0.11
750.045	0.09
750.223	-0.02
750.4	-0.12
750.578	0.28
750.755	0.11
750.932	-0.07
751.11	0.12
751.287	-0.07
751.464	0.25
751.642	-0.08
751.819	0.04
751.996	0.12
752.173	-0.03
752.351	-0.01
752.528	0.09
752.705	0.01
752.882	0
753.06	0.13
753.237	0.1
753.414	0.21
753.591	0.19
753.768	0.01
753.945	-0.03
754.122	0
754.299	0.12
754.476	-0.02
754.654	0.01
754.831	0.1
755.008	0.05
755.185	-0.12
755.362	-0.18
755.539	0.05
755.716	-0.09
755.892	-0.07
756.069	0.04
756.246	0.03
756.423	-0.02
756.6	0.28
756.777	0.01
756.954	0.07
757.131	-0.09
757.307	0.01
757.484	-0.05
757.661	0.04
757.838	0.03
758.015	-0.05
758.191	0
758.368	0.04
758.545	0.31
758.721	-0.05
758.898	-0.13
759.075	0.07
759.251	0.13
759.428	0.13
759.605	-0.17
759.781	0.03
759.958	0.12
760.134	0.07
760.311	0.05
760.488	0.11
760.664	0.17
760.841	0.06
761.017	-0.03
761.194	0.12
761.37	0.11
761.547	0.11
761.723	0.05
761.899	0.15
762.076	-0.04
762.252	-0.18
762.429	-0.02
762.605	0.09
762.781	0.09
762.958	0.14
763.134	0.11
763.31	-0.05
763.486	0.08
763.663	-0.13
763.839	0.12
764.015	-0.12
764.191	-0.07
764.368	0.06
764.544	-0.09
764.72	0.18
764.896	0.17
765.072	0.1
765.248	0.01
765.425	0.06
765.601	0.02
765.777	-0.07
765.953	-0.19
766.129	-0.02
766.305	-0.07
766.481	0.04
766.657	0.03
766.833	0.25
767.009	-0.17
767.185	0.09
767.361	0.05
767.537	-0.13
767.713	0.26
767.889	-0.1
768.065	0.18
768.24	0.01
768.416	0.13
768.592	-0.14
768.768	-0.03
768.944	0.1
769.12	0.07
769.295	-0.02
769.471	0.08
769.647	-0.09
769.823	0.16
769.998	-0.08
770.174	-0.06
770.35	0.25
770.525	0.28
770.701	0.11
770.877	-0
771.052	-0.08
771.228	0.25
771.403	0.02
771.579	0.2
771.755	0.27
771.93	-0.1
772.106	-0.1
772.281	-0.13
772.457	0.09
772.632	0.13
772.808	-0.12
772.983	0.07
773.159	0.04
773.334	0.27
773.509	-0.03
773.685	-0.14
773.86	0.33
774.036	0.18
774.211	0.13
774.386	0.03
774.562	-0.07
774.737	-0.02
774.912	-0.14
775.087	0.17
775.263	-0.01
775.438	-0.1
775.613	-0.08
775.788	-0.02
775.964	0.19
776.139	0.33
776.314	-0.01
776.489	0.2
776.664	0.1
776.839	-0.04
777.014	0.2
777.19	0.19
777.365	0.31
777.54	0.2
777.715	-0.11
777.89	-0.02
778.065	-0.08
778.24	0.03
778.415	0.2
778.59	-0.24
778.765	-0.04
778.94	0.01
779.115	0.04
779.289	-0.01
779.464	0.05
779.639	0.08
779.814	-0.11
779.989	-0.25
780.164	0.19
780.339	0.2
780.513	0.03
780.688	-0.14
780.863	0.11
781.038	0.07
781.212	-0.14
781.387	0.05
781.562	0.46
781.737	0.05
781.911	0.05
782.086	-0.26
782.261	-0.01
782.435	0.41
782.61	0.19
782.784	0.12
782.959	0.26
783.134	-0.27
783.308	-0.09
783.483	-0.12
783.657	0.45
783.832	0.19
784.006	-0.17
784.181	0.01
784.355	0.29
784.53	-0.14
784.704	-0.1
784.878	0.25
785.053	-0.03
785.227	0.27
785.402	0.34
785.576	-0.24
785.75	0.21
785.925	-0.05
786.099	0.13
786.273	0.14
786.448	0.33
786.622	-0.01
786.796	0
786.97	-0.16
787.145	0.47
787.319	-0.05
787.493	-0.03
787.667	-0.18
787.841	-0.04
788.015	0.22
788.19	-0.16
788.364	0.05
788.538	0.25
788.712	0.2
788.886	-0.05
789.06	0.15
789.234	0.34
789.408	-0.18
789.582	-0.02
789.756	-0.05
789.93	-0.17
790.104	-0.1
790.278	0.1
790.452	-0.1
790.626	-0.02
790.8	-0.04
790.973	0.27
791.147	0.35
791.321	0.42
791.495	0.26
791.669	0.14
791.843	0.33
792.016	0.09
792.19	0.68
792.364	-0.34
792.538	0.6
792.711	0.44
792.885	-0.06
793.059	-0.13
793.233	-0.12
793.406	0.27
793.58	0.27
793.754	0.11
793.927	0.04
794.101	0.31
794.274	0.23
794.448	0.22
794.622	-0.28
794.795	0.39
794.969	-0.14
795.142	0.31
795.316	0.11
795.489	-0.02
795.663	0.23
795.836	0
796.009	-0.3
796.183	0.16
796.356	0.23
796.53	0.16
796.703	-0.13
796.876	0.5
797.05	-0.18
797.223	-0.05
797.396	0.12
797.57	0.15
797.743	0.49
797.916	0.15
798.09	-0.07
798.263	0.35
798.436	0.3
798.609	-0.03
798.782	0.08
798.956	-0.07
799.129	0.02
799.302	-0.05
799.475	0.02
799.648	-0.09
799.821	-0.09
799.994	-0.02
800.167	-0.38
800.34	-0.09
800.514	0.06
800.687	-0.16
800.86	-0.02
801.033	0.05
801.206	0.17
801.379	-0.4
801.551	0.26
801.724	0.21
801.897	0.31
802.07	0.01
802.243	-0.37
802.416	-0.11
802.589	-0.21
802.762	0.13
802.935	0.18
803.107	0.28
803.28	0.44
803.453	0.37
803.626	-0.23
803.798	-0.09
803.971	-0.2
804.144	0.03
804.317	0.25
804.489	0.44
804.662	0.19
804.835	0.17
805.007	-0.26
805.18	0.56
805.353	0.21
805.525	-0.38
805.698	-0.08
805.87	0.31
806.043	0.36
806.215	-0.01
806.388	-0.25
806.56	0.16
806.733	0.35
806.905	-0.06
807.078	-0.13
807.25	-0.04
807.423	0.24
807.595	0.05
807.768	-0.03
807.94	0.26
808.112	-0.08
808.285	0.22
808.457	-0.04
808.629	-0.1
808.802	0.28
808.974	0.27
809.146	-0.18
809.318	-0.09
809.491	0.17
809.663	0.19
809.835	-0.31
810.007	0.32
810.18	0.15
810.352	-0.27
810.524	-0.28
810.696	0.36
810.868	0.37
811.04	-0.25
811.212	-0.05
811.384	0.23
811.556	0.14
811.728	-0.22
811.901	0.43
812.073	-0.25
812.245	-0.18
812.417	-0.11
812.589	-0.5
812.76	0.17
812.932	0.11
813.104	0.24
813.276	0.29
813.448	0.43
813.62	0.05
813.792	0.3
813.964	-0.13
814.136	-0.01
814.307	-0.16
814.479	-0.38
814.651	-0.07
814.823	0.74
814.995	-0.12
815.166	0.51
815.338	-0.25
815.51	-0.49
815.681	1.1
815.853	0.13
816.025	-0.14
816.196	0.34
816.368	0.54
816.54	-0.58
816.711	-0.65
816.883	0.26
817.054	1.43
817.226	-0.18
817.398	0.28
817.569	-0.4
817.741	-0.05
817.912	-0.12
818.084	-0.44
818.255	0.36
818.426	0.14
818.598	-0.13
818.769	-0.22
818.941	0.15
819.112	0.88
819.283	0.43
819.455	-0.38
819.626	0.35
819.798	0.3
819.969	-0.35
820.14	0.26
820.311	-0.23
820.483	-0.1
820.654	0.4
820.825	-0.13
820.996	0.05
821.168	-0.36
821.339	-0.11
821.51	-0.59
821.681	-0.01
821.852	0.2
822.023	-0.46
822.195	-0.23
822.366	0.7
822.537	0.25
822.708	0.04
822.879	0.18
823.05	0.4
823.221	-0.09
823.392	0.05
823.563	0.2
823.734	-0.05
823.905	0.05
824.076	-0.17
824.247	-0.02
824.418	-0.15
824.589	0.56
824.759	-0.06
824.93	-0.31
825.101	-0.62
825.272	0.39
825.443	0.49
825.614	0.21
825.784	-0.6
825.955	0.87
826.126	0.19
826.297	-0.02
826.467	0.87
826.638	0.94
826.809	-0.65
826.98	0.41
827.15	0.22
827.321	-0.38
827.492	0.63
827.662	0.28
827.833	1.1
828.003	0.63
828.174	-0.47
828.345	-0.62
828.515	0.46
828.686	0.57
828.856	-0.55
829.027	-0.48
829.197	-0.09
829.368	0.56
829.538	-0.1
829.709	-0.17
829.879	0.11
830.049	0.05
830.22	-0.03
830.39	-0.11
830.56	0.45
830.731	-0.16
830.901	-0.13
831.072	0.21
831.242	0.41
831.412	0.69
831.582	0.58
831.753	-1.09
831.923	0.71
832.093	0.31
832.263	0.1
832.434	-0.88
832.604	-0.47
832.774	0.78
832.944	-0.46
833.114	-0.49
833.284	0
833.454	-1.11
833.624	-0.31
833.795	0.48
833.965	0.35
834.135	0.66
834.305	-1.1
834.475	-0.32
834.645	-0.09
834.815	-0.24
834.985	-0.55
835.155	0.1
835.325	0.06
835.494	0.12
835.664	-0.53
835.834	-0.55
836.004	0.03
836.174	0.01
836.344	-0.11
836.514	-0.66
836.684	-0.05
836.853	0.26
837.023	0.78
837.193	-0.08
837.363	0.73
837.532	0.67
837.702	-0.1
837.872	-0.87
838.041	0.55
838.211	1.21
838.381	-0.96
838.55	-0.17
838.72	2.24
838.89	0.83
839.059	-0.16
839.229	-0.21
839.398	1.11
839.568	-0.16
839.738	0.06
839.907	0.52
840.077	0.49
840.246	-0.57
840.416	0.13
840.585	-0.98
840.755	1.79
840.924	1.04
841.093	-0.96
841.263	-0.22
841.432	0.77
841.602	-0.9
841.771	-1.06
841.94	-0.35
842.11	2.09
842.279	0.88
842.448	-0.28
842.617	-0.64
842.787	0.95
842.956	0.05
843.125	-0.16
843.294	0.08
843.464	1.21
843.633	0.47
843.802	-1.12
843.971	0.35
844.14	0.43
844.309	0.5
844.479	-1.1
844.648	-1.08
844.817	-0.58
844.986	0.9
845.155	-1.06
845.324	0.42
845.493	0.37
845.662	-1.4
845.831	0.21
846	0.67
846.169	-0.71
846.338	1.24
846.507	0.93
846.676	0.77
846.844	-0.13
847.013	0.37
847.182	0.96
847.351	-0.99
847.52	0.05
847.689	0.06
847.858	-0.75
848.026	-1.09
848.195	0.05
848.364	-1.04
848.533	-0.96
848.701	-1.26
848.87	0.24
849.039	1.54
849.207	1.46
849.376	1.83
849.545	1.05
849.713	-0.43
849.882	0.31
850.051	0.06
850.219	0.1
850.388	0.67
850.556	-0.76
850.725	-0.25
850.893	0.08
851.062	-0.34
851.23	0.63
851.399	-0.77
851.567	-1.04
851.736	-0.39
851.904	-1.18
852.073	0.15
852.241	0.44
852.41	0.06
852.578	0.13
852.746	-0.39
852.915	0.08
853.083	0.75
853.251	-0.93
853.42	-0.46
853.588	-0.72
853.756	0.66
853.924	0.27
854.093	-0.29
854.261	-0.25
854.429	-1.21
854.597	0.2
854.765	-1.32
854.934	0.98
855.102	1.75
855.27	-1.29
855.438	0.41
855.606	0.76
855.774	0.83
855.942	-0.77
856.11	-1.61
856.278	0.01
856.446	0.26
856.614	0.24
856.782	-0.86
856.95	1.41
857.118	1.17
857.286	0.68
857.454	-1.64
857.622	1.02
857.79	0.69
857.958	-1.55
858.126	-0.55
858.294	-2.86
858.462	0.34
858.629	-0.44
858.797	0.55
858.965	1
859.133	1.11
859.301	0.76
859.468	0.12
859.636	0.11
859.804	2.54
859.971	0.84
860.139	0.51
860.307	1.47
860.474	0.48
860.642	-1.19
860.81	0.1
860.977	-0.62
861.145	0.95
861.313	-0.03
861.48	1.48
861.648	1.56
861.815	0.96
861.983	-0.9
862.15	-0.57
862.318	0.67
862.485	1.29
862.653	0.54
862.82	-1.38
862.988	2.21
863.155	-1.36
863.322	-2.71
863.49	-2.01
863.657	-0.49
863.824	2.4
863.992	0.13
864.159	0.46
864.326	0.89
864.494	-1.36
864.661	1.19
864.828	-1.77
864.996	1.91
865.163	1.48
865.33	-1.49
865.497	-2.11
865.664	0.38
865.832	-1.76
865.999	-0.1
866.166	-0.48
866.333	-0.52
866.5	-0.72
866.667	0.36
866.834	-0.06
867.001	1.47
867.168	-2.23
867.335	0.08
867.502	-1.85
867.669	1.47
867.836	2.49
868.003	-0.22
868.17	0.38
868.337	2.4
868.504	3.57
868.671	-1.87
868.838	-2.59
869.005	1.73
869.172	-0.98
869.339	-0.94
869.505	-0.15
869.672	-1.17
869.839	2.68
870.006	0.57
870.173	-1.57
870.339	1.17
870.506	3.51
870.673	-2.86
870.84	-0.07
871.006	1.08
871.173	-0.86
871.34	-0.99
871.506	-0.48
871.673	1.38
871.839	-0.47
872.006	-0.34
872.173	-0.41
872.339	0.04
872.506	1.41
872.672	-1.72
872.839	-2.09
873.005	-0.21
873.172	3.25
873.338	1.64
873.505	0.36
873.671	0.66
873.838	1.21
874.004	-2.36
874.171	-1.35
874.337	0.83
874.503	1.28
874.67	-0.19
874.836	-1.86
875.002	2.8
875.169	1.69
875.335	0.42
875.501	-0.1
875.668	1.48
875.834	-0.12
876	-0.85
876.166	1.45
876.332	0.9
876.499	2.58
876.665	1.4
876.831	-0.29
876.997	2.18
877.163	1.31
877.329	-1.88
877.495	1.32
877.662	0.43
877.828	0.32
877.994	-1.17
878.16	-2.88
878.326	-1.2
878.492	1.84
878.658	-0.72
878.824	1.95
878.99	3.41
879.156	-0.87
879.322	1.27
879.487	-1.23
879.653	1.18
879.819	1.91
879.985	-0.74
880.151	1.09
880.317	-0.57
880.483	-0.13
880.648	0.66
880.814	-1.92
880.98	0.98
881.146	-1.68
881.312	-0.95
881.477	-0.84
881.643	-0.8
881.809	1.7
881.974	1.26
882.14	-1.61
882.306	-0.94
882.471	2.1
882.637	0.02
882.803	0.44
882.968	1.58
883.134	3.26
883.299	-0.91
883.465	-1.1
883.63	0.66
883.796	1.79
883.961	0.8
884.127	0.53
884.292	-4.41
884.458	-1.53
884.623	-1.53
