Data from Apollo_Calib_20240827__AbsoluteIrradiance__686__10-35-00-797.txt Node

Date: Wed Aug 28 10:35:00 BST 2024
User: biology
Spectrometer: FLMT08252
Trigger mode: 0
Integration Time (sec): 5.000000E-1
Scans to average: 5
Electric dark correction enabled: true
Nonlinearity correction enabled: false
Boxcar width: 0
XAxis mode: Wavelengths
Number of Pixels in Spectrum: 3648
>>>>>Begin Spectral Data<<<<<
179.588	-0
179.809	-0
180.03	-0
180.251	-0
180.473	-0
180.694	0
180.915	0
181.136	-0
181.357	0
181.578	-0
181.799	0
182.02	0
182.241	-0
182.462	-0
182.683	0
182.904	-0
183.125	-0
183.346	0
183.567	0
183.788	-0
184.009	-0
184.23	0
184.451	0
184.672	-0
184.892	-0
185.113	0
185.334	0
185.555	0
185.776	0
185.996	0
186.217	0
186.438	0
186.659	-0
186.879	0
187.1	0
187.321	0
187.541	-0
187.762	0
187.983	0
188.203	-0
188.424	0
188.644	0
188.865	0
189.086	0
189.306	0
189.527	0
189.747	0
189.968	-0
190.188	0
190.409	0
190.629	0
190.849	0
191.07	-0
191.29	0
191.511	0
191.731	0
191.951	-0
192.172	0
192.392	0
192.612	0
192.833	0
193.053	0
193.273	0
193.493	-0
193.714	0
193.934	0
194.154	0
194.374	0
194.594	0
194.815	0
195.035	0
195.255	0
195.475	-0
195.695	0
195.915	0
196.135	0
196.355	0
196.575	0
196.795	0
197.015	-0
197.235	0
197.455	0
197.675	0
197.895	-0
198.115	-0
198.335	0
198.555	0
198.775	0
198.995	0
199.214	0
199.434	0
199.654	-0
199.874	0
200.094	1.15
200.313	0.38
200.533	0.23
200.753	-0.26
200.973	1.31
201.192	0.45
201.412	-0.34
201.632	0.52
201.851	1.44
202.071	-0.16
202.291	-0.05
202.51	-0.18
202.73	0.69
202.95	-0.06
203.169	-0.34
203.389	0.06
203.608	0.54
203.828	-0.06
204.047	0.4
204.267	0.42
204.486	0.34
204.706	0.36
204.925	0.36
205.145	0.12
205.364	0.32
205.583	0.87
205.803	0.05
206.022	-0.19
206.242	0.16
206.461	-0.06
206.68	0.26
206.9	0.41
207.119	0.56
207.338	0.61
207.557	-0.11
207.777	-0.02
207.996	0.34
208.215	0.9
208.434	-0.07
208.654	-0.14
208.873	0.08
209.092	0.51
209.311	0.26
209.53	0.34
209.749	0.13
209.968	-0.16
210.187	0.06
210.407	-0.23
210.626	-0.05
210.845	0.14
211.064	0.28
211.283	0.08
211.502	0.49
211.721	0.12
211.94	0.11
212.159	0.44
212.377	0.4
212.596	0.45
212.815	0.16
213.034	0.25
213.253	0.3
213.472	0.2
213.691	0.02
213.91	-0.04
214.128	-0.07
214.347	0.63
214.566	-0.43
214.785	-0.32
215.003	0.28
215.222	0.33
215.441	0.03
215.66	-0.13
215.878	0.27
216.097	0.12
216.316	-0.11
216.534	0.06
216.753	0.24
216.972	0.16
217.19	0.22
217.409	-0.02
217.627	-0.2
217.846	0.13
218.064	0.18
218.283	-0.22
218.501	0.42
218.72	0.19
218.938	-0.11
219.157	0.1
219.375	0.27
219.594	0.17
219.812	-0.17
220.031	-0.02
220.249	0.54
220.467	0.47
220.686	-0.04
220.904	-0.05
221.122	-0.07
221.341	0.31
221.559	0.18
221.777	-0.05
221.995	-0.01
222.214	0.07
222.432	-0.11
222.65	0.21
222.868	0.07
223.086	0.04
223.305	0.24
223.523	0.08
223.741	0.29
223.959	0.15
224.177	-0.05
224.395	-0.04
224.613	0.1
224.831	0.28
225.049	0.01
225.267	0.02
225.485	0.1
225.703	-0.04
225.921	0.12
226.139	-0.01
226.357	0.12
226.575	0.14
226.793	-0.01
227.011	0.52
227.229	0.07
227.447	0.26
227.665	-0.11
227.883	-0.13
228.1	0.04
228.318	0.16
228.536	-0.02
228.754	-0.1
228.972	0.18
229.189	0.21
229.407	-0.09
229.625	-0.01
229.843	0.17
230.06	0.16
230.278	-0.05
230.496	0.04
230.713	0.13
230.931	0.25
231.149	0.04
231.366	-0.03
231.584	0
231.801	0.37
232.019	0.1
232.236	-0.05
232.454	-0.13
232.671	0.03
232.889	0.06
233.106	-0.02
233.324	0.03
233.541	0.03
233.759	-0.04
233.976	0.03
234.194	0.12
234.411	0
234.628	-0.04
234.846	0
235.063	0.12
235.28	-0.01
235.498	0.13
235.715	-0.09
235.932	0.2
236.149	0.05
236.367	-0.05
236.584	0.06
236.801	0.03
237.018	0.21
237.236	0.05
237.453	0.01
237.67	0.15
237.887	0.02
238.104	0.04
238.321	0.05
238.538	0
238.755	0.14
238.973	-0.07
239.19	0.16
239.407	0.14
239.624	0.22
239.841	-0.07
240.058	-0.06
240.275	0.13
240.492	0.06
240.709	0.07
240.925	-0.01
241.142	0.12
241.359	-0
241.576	-0.01
241.793	0.01
242.01	0.12
242.227	0.14
242.444	0.1
242.66	0.1
242.877	0.02
243.094	0.04
243.311	0.07
243.527	0.01
243.744	0.06
243.961	0.17
244.178	-0.03
244.394	-0.02
244.611	0.14
244.828	0.13
245.044	-0.02
245.261	-0.02
245.477	0.07
245.694	0.08
245.911	-0.04
246.127	0.11
246.344	0.18
246.56	0.15
246.777	0.05
246.993	-0
247.21	0.06
247.426	0.13
247.643	0
247.859	-0.02
248.076	0.02
248.292	0.15
248.508	-0
248.725	0.12
248.941	0.15
249.157	0.24
249.374	-0
249.59	0.02
249.806	0.02
250.023	0.1
250.239	0.03
250.455	0.03
250.671	0.06
250.888	0.05
251.104	0.07
251.32	-0.06
251.536	0.06
251.752	0.05
251.969	0.04
252.185	0.12
252.401	0.2
252.617	-0
252.833	0.02
253.049	0.07
253.265	0.03
253.481	0.07
253.697	0.02
253.913	0.05
254.129	0.05
254.345	0.05
254.561	0.07
254.777	0.03
254.993	0.15
255.209	0.07
255.425	0.08
255.641	0.01
255.857	0.13
256.073	0.08
256.288	-0
256.504	0
256.72	0.06
256.936	0.17
257.152	0.07
257.367	-0.01
257.583	0
257.799	0.1
258.015	-0.04
258.23	-0.03
258.446	0.22
258.662	0.08
258.877	0.01
259.093	0.02
259.309	0.07
259.524	0.1
259.74	0.02
259.955	-0.07
260.171	0.05
260.387	0.07
260.602	0.13
260.818	0.13
261.033	-0.04
261.249	0.03
261.464	-0.01
261.68	-0.07
261.895	0.09
262.11	0.04
262.326	0.01
262.541	-0.05
262.757	0.1
262.972	0.08
263.187	0.08
263.403	0.05
263.618	0.13
263.833	0.09
264.049	0.08
264.264	0.06
264.479	0.16
264.694	0.09
264.91	-0
265.125	-0.01
265.34	0.14
265.555	0.18
265.77	0.12
265.986	0.01
266.201	0.07
266.416	0.19
266.631	-0
266.846	0.01
267.061	0.09
267.276	0.12
267.491	-0.09
267.706	0.02
267.921	0.11
268.136	0.08
268.351	0
268.566	-0.08
268.781	0.12
268.996	0.11
269.211	0.04
269.426	-0.03
269.641	-0
269.856	0.03
270.071	-0.04
270.285	-0.05
270.5	-0.01
270.715	0.06
270.93	0.03
271.145	0.03
271.359	0.15
271.574	-0.05
271.789	0.02
272.004	-0.03
272.218	0.05
272.433	0.08
272.648	0.06
272.862	0.11
273.077	0.01
273.292	0.05
273.506	0.01
273.721	0.07
273.936	0.1
274.15	0.07
274.365	0.04
274.579	0.1
274.794	0.11
275.008	0.21
275.223	-0.05
275.437	0.05
275.652	0.08
275.866	0.08
276.081	0.02
276.295	0.11
276.509	0.06
276.724	-0.01
276.938	0.09
277.153	0.06
277.367	0.02
277.581	-0.02
277.796	-0.03
278.01	-0
278.224	0.12
278.438	0.16
278.653	-0.05
278.867	0.03
279.081	-0.13
279.295	-0.03
279.51	0.06
279.724	0.01
279.938	0.04
280.152	0.08
280.366	-0.01
280.58	0.07
280.794	0.12
281.008	0.06
281.222	0.08
281.437	0.15
281.651	0.03
281.865	0.18
282.079	0.01
282.293	-0.03
282.507	0
282.721	0.03
282.935	0.09
283.148	-0.05
283.362	0.04
283.576	0.03
283.79	0.05
284.004	-0.04
284.218	0.08
284.432	-0.02
284.646	0.05
284.859	-0.02
285.073	0.02
285.287	0.07
285.501	0.03
285.714	0.06
285.928	0.07
286.142	0.03
286.356	0.02
286.569	0
286.783	0.1
286.997	0.11
287.21	0.05
287.424	0.01
287.637	0.01
287.851	-0.02
288.065	0.12
288.278	-0
288.492	0.05
288.705	0.04
288.919	0.07
289.132	-0.03
289.346	0.11
289.559	-0.02
289.773	-0.02
289.986	0.02
290.2	0.02
290.413	0.06
290.626	0.01
290.84	0.02
291.053	0.03
291.267	0.1
291.48	0.08
291.693	0.07
291.906	-0.01
292.12	0.05
292.333	-0.04
292.546	-0
292.76	0.12
292.973	0.05
293.186	0.05
293.399	-0.02
293.612	0.08
293.826	0.05
294.039	0.01
294.252	0.03
294.465	0.08
294.678	0.07
294.891	0.06
295.104	-0.03
295.317	0.04
295.53	0.05
295.743	0.04
295.956	0.03
296.169	0.04
296.382	0.07
296.595	0.05
296.808	0.02
297.021	0.08
297.234	0.11
297.447	0.01
297.66	0.08
297.873	0.06
298.086	0.07
298.299	0
298.511	-0.03
298.724	0
298.937	-0
299.15	0.01
299.363	0.06
299.575	0.05
299.788	0.03
300.001	0.01
300.213	-0
300.426	0.04
300.639	-0.02
300.852	0
301.064	0.07
301.277	0.12
301.489	0.08
301.702	0.07
301.915	0.05
302.127	0.01
302.34	-0.01
302.552	0.07
302.765	-0.01
302.977	0.11
303.19	0.02
303.402	0.01
303.615	0.02
303.827	-0.01
304.04	0.01
304.252	0.09
304.464	0
304.677	0.11
304.889	0.07
305.102	-0.03
305.314	0.02
305.526	0.08
305.739	0.09
305.951	0.01
306.163	0.03
306.375	0.11
306.588	-0.03
306.8	0.04
307.012	-0.04
307.224	0.04
307.436	0.05
307.649	-0.04
307.861	0
308.073	0.07
308.285	0.01
308.497	0.01
308.709	0.02
308.921	0.04
309.133	0.08
309.346	0
309.558	0.06
309.77	0.05
309.982	0.12
310.194	0.03
310.406	0
310.617	0.11
310.829	0.08
311.041	0.03
311.253	-0.04
311.465	-0.02
311.677	0.03
311.889	0.05
312.101	-0
312.313	0.08
312.524	0.03
312.736	-0.02
312.948	0.01
313.16	0.1
313.372	0.07
313.583	0.04
313.795	-0.01
314.007	-0.02
314.218	0.06
314.43	0.01
314.642	0.02
314.853	-0.01
315.065	0.06
315.277	0.03
315.488	0.05
315.7	0.06
315.912	0.03
316.123	0.02
316.335	0.06
316.546	0.09
316.758	-0.03
316.969	0.02
317.181	0.02
317.392	-0.01
317.604	0.09
317.815	-0.01
318.026	0
318.238	0.01
318.449	0.04
318.661	0.02
318.872	-0.03
319.083	-0.01
319.295	0.08
319.506	-0.01
319.717	0.04
319.929	0.07
320.14	0.02
320.351	0.04
320.562	-0.01
320.774	0.03
320.985	0.03
321.196	-0
321.407	-0.04
321.618	0.04
321.829	0.03
322.041	0.09
322.252	0.04
322.463	0.09
322.674	0.04
322.885	-0.01
323.096	0
323.307	0.01
323.518	0.05
323.729	0.02
323.94	-0.03
324.151	0.02
324.362	0.02
324.573	0.03
324.784	-0.01
324.995	0.05
325.206	0.04
325.417	-0
325.628	-0.02
325.838	0.04
326.049	0.06
326.26	0.03
326.471	-0.02
326.682	0.05
326.892	0.02
327.103	0
327.314	0.01
327.525	0.07
327.735	0.01
327.946	0.01
328.157	-0.03
328.368	0.06
328.578	0
328.789	0.04
328.999	0.04
329.21	0.03
329.421	0.05
329.631	-0.03
329.842	-0.03
330.052	0.04
330.263	0.08
330.473	0.09
330.684	-0.01
330.894	0.01
331.105	0.04
331.315	0.06
331.526	-0.03
331.736	0.06
331.947	0.03
332.157	0.03
332.367	-0.05
332.578	0.07
332.788	0.08
332.999	0.06
333.209	0.04
333.419	-0.02
333.629	0.05
333.84	0.05
334.05	0.02
334.26	0.11
334.47	0.02
334.681	0.07
334.891	0.05
335.101	0.05
335.311	0.07
335.521	0.01
335.732	0.01
335.942	0.09
336.152	0.03
336.362	0.02
336.572	0.01
336.782	0.06
336.992	0.02
337.202	0.04
337.412	-0.04
337.622	0.03
337.832	0.05
338.042	-0.01
338.252	0.02
338.462	-0
338.672	0.02
338.882	0.01
339.092	0.04
339.302	0.08
339.511	0.03
339.721	0
339.931	0
340.141	0.08
340.351	0.1
340.561	0.04
340.77	0.04
340.98	0.1
341.19	0.06
341.4	-0.02
341.609	-0
341.819	0.04
342.029	-0.05
342.238	0.04
342.448	0.03
342.658	0.07
342.867	0.01
343.077	0.05
343.286	0.07
343.496	0.03
343.706	0.04
343.915	0.02
344.125	0.01
344.334	0.04
344.544	-0.03
344.753	-0.03
344.963	0.02
345.172	-0.03
345.381	-0.02
345.591	-0
345.8	0.01
346.01	0.11
346.219	0.05
346.428	-0.07
346.638	0
346.847	-0
347.056	0.09
347.266	-0
347.475	-0.03
347.684	0.03
347.893	0.02
348.103	0.04
348.312	0.03
348.521	0.01
348.73	0.04
348.94	0.06
349.149	0.01
349.358	-0.04
349.567	-0
349.776	-0.06
349.985	-0.01
350.194	0.06
350.403	0.1
350.612	-0.02
350.821	-0.02
351.03	0.03
351.239	-0.04
351.448	0.03
351.657	-0
351.866	0.09
352.075	0.01
352.284	0.05
352.493	-0.03
352.702	0.04
352.911	0.02
353.12	0.05
353.329	0.03
353.538	0.05
353.746	0.04
353.955	-0.01
354.164	0.03
354.373	0.02
354.582	0.04
354.79	0.02
354.999	0.1
355.208	-0.01
355.416	0.08
355.625	-0.03
355.834	-0.01
356.042	-0
356.251	0.01
356.46	-0.01
356.668	0.02
356.877	0.09
357.085	0.04
357.294	-0.06
357.503	0.05
357.711	-0
357.92	0.15
358.128	0.07
358.337	0.01
358.545	0.03
358.754	-0.01
358.962	0.07
359.17	-0.02
359.379	0.07
359.587	0.04
359.796	-0.01
360.004	0.04
360.212	0.06
360.421	0.06
360.629	0.02
360.837	0.01
361.046	0.05
361.254	0.11
361.462	0.03
361.67	0
361.879	0.04
362.087	0.1
362.295	0.03
362.503	0.01
362.711	-0.04
362.92	0.01
363.128	0.03
363.336	-0.01
363.544	-0.08
363.752	-0.06
363.96	-0.01
364.168	0.02
364.376	0.01
364.584	0.06
364.792	0.03
365	0.04
365.208	0.04
365.416	0.05
365.624	0.06
365.832	-0.02
366.04	0.07
366.248	0.03
366.456	-0.01
366.664	0.03
366.872	-0.01
367.079	0.04
367.287	0.06
367.495	0.04
367.703	0
367.911	0.03
368.118	0
368.326	0.03
368.534	-0.01
368.742	0.08
368.949	-0.01
369.157	0
369.365	0.08
369.572	0.01
369.78	-0.04
369.988	0.06
370.195	0.01
370.403	0.03
370.61	-0.03
370.818	0.02
371.026	0.06
371.233	-0.02
371.441	-0.04
371.648	0.02
371.856	0.05
372.063	0.04
372.271	-0.01
372.478	-0
372.685	-0.01
372.893	0.05
373.1	-0
373.308	-0.04
373.515	0.13
373.722	0.05
373.93	0
374.137	0.06
374.344	0.08
374.552	0.07
374.759	0.04
374.966	-0
375.173	-0.01
375.381	0.1
375.588	0.03
375.795	-0.04
376.002	-0.01
376.209	-0.02
376.417	0.02
376.624	0.02
376.831	0.02
377.038	-0
377.245	-0.06
377.452	-0
377.659	0.05
377.866	-0.03
378.073	-0.03
378.28	-0.01
378.487	0.06
378.694	0.08
378.901	0.02
379.108	0.01
379.315	0.06
379.522	0.09
379.729	0.03
379.936	-0
380.143	0.05
380.35	0.11
380.557	0.04
380.763	0.01
380.97	0.03
381.177	0.07
381.384	0.06
381.591	-0.03
381.797	0.05
382.004	0.06
382.211	0.04
382.418	-0.03
382.624	0.03
382.831	0.04
383.038	-0
383.244	0.01
383.451	0
383.658	0.07
383.864	-0.02
384.071	0.03
384.277	0.08
384.484	-0
384.69	0.02
384.897	0.05
385.103	0.03
385.31	-0.02
385.516	-0.03
385.723	-0.03
385.929	0.01
386.136	-0
386.342	0.04
386.549	0.02
386.755	0.1
386.961	0.07
387.168	0.02
387.374	0
387.58	0.05
387.787	0.03
387.993	0.03
388.199	0.04
388.406	-0.02
388.612	0.04
388.818	-0.03
389.024	-0.01
389.231	0.01
389.437	0.07
389.643	0.05
389.849	0.01
390.055	0.03
390.261	0.06
390.467	0.06
390.674	0.02
390.88	-0.01
391.086	0.05
391.292	-0
391.498	0.01
391.704	0
391.91	0.01
392.116	-0.02
392.322	-0.02
392.528	0.04
392.734	0.02
392.94	0.01
393.146	0.03
393.352	0.04
393.557	0.03
393.763	0.06
393.969	0.03
394.175	0.04
394.381	0.08
394.587	-0.02
394.792	-0.04
394.998	0.07
395.204	0.05
395.41	-0.03
395.615	0.05
395.821	0.03
396.027	0.04
396.233	-0.02
396.438	0.01
396.644	0.05
396.85	0.05
397.055	0.05
397.261	0.04
397.466	0.13
397.672	0.01
397.878	0.01
398.083	0.01
398.289	-0.06
398.494	0.12
398.7	0.06
398.905	-0.05
399.111	0.1
399.316	0.01
399.522	0.03
399.727	0.05
399.932	0
400.138	0.04
400.343	0.04
400.549	0.05
400.754	0.03
400.959	0.05
401.165	-0.01
401.37	0.01
401.575	0.07
401.78	0.02
401.986	0.01
402.191	-0
402.396	0.02
402.601	0.07
402.807	0.07
403.012	0.04
403.217	0.07
403.422	-0.01
403.627	0.02
403.832	-0.02
404.037	0.08
404.243	0.04
404.448	0.02
404.653	-0.01
404.858	0.01
405.063	0.09
405.268	-0.01
405.473	-0.03
405.678	-0.02
405.883	0.18
406.088	0.06
406.293	-0.02
406.498	-0
406.703	0.08
406.907	0.04
407.112	0.03
407.317	0.05
407.522	0.04
407.727	-0.04
407.932	0.05
408.136	0.1
408.341	0.03
408.546	0.02
408.751	0.03
408.956	0.01
409.16	-0
409.365	0
409.57	-0.02
409.774	0.03
409.979	0.04
410.184	0.02
410.388	0.02
410.593	0.06
410.798	0.04
411.002	-0.02
411.207	0.04
411.411	0.06
411.616	-0.02
411.82	0.01
412.025	0.03
412.229	-0.01
412.434	0.05
412.638	0.01
412.843	0.01
413.047	0.05
413.252	-0.01
413.456	0
413.66	0.07
413.865	0.01
414.069	0.11
414.273	-0.02
414.478	0.01
414.682	0.03
414.886	-0.02
415.091	0.02
415.295	-0.03
415.499	0.08
415.703	0
415.908	0.02
416.112	-0.1
416.316	0.04
416.52	0.03
416.724	-0.02
416.929	-0.05
417.133	0.1
417.337	-0.01
417.541	-0.02
417.745	-0.01
417.949	0.02
418.153	-0.02
418.357	0.01
418.561	0.09
418.765	0.04
418.969	0.07
419.173	0.08
419.377	0.05
419.581	0.1
419.785	0.03
419.989	-0.03
420.193	-0.01
420.397	0.02
420.601	0.1
420.804	0.07
421.008	-0.01
421.212	0.04
421.416	0.07
421.62	0.01
421.823	-0.01
422.027	0.11
422.231	0.05
422.435	0.03
422.638	0.06
422.842	0.02
423.046	0.01
423.249	0.01
423.453	0.08
423.657	0.03
423.86	0
424.064	-0.02
424.268	0.08
424.471	0.01
424.675	0.06
424.878	0.09
425.082	0.02
425.285	0.05
425.489	0.02
425.692	0.01
425.896	0.01
426.099	0.05
426.303	0.02
426.506	-0.03
426.71	-0.01
426.913	0.1
427.116	0.06
427.32	0.01
427.523	0.03
427.726	0.08
427.93	-0.03
428.133	-0.03
428.336	-0.03
428.54	-0.04
428.743	0.03
428.946	0.05
429.149	-0.01
429.353	-0.01
429.556	0.02
429.759	0.04
429.962	-0.06
430.165	0.01
430.368	0.01
430.571	-0.06
430.775	0.01
430.978	-0
431.181	0.03
431.384	0.02
431.587	-0.04
431.79	0
431.993	0.02
432.196	-0
432.399	-0.04
432.602	0.11
432.805	0.02
433.008	-0
433.211	-0.11
433.414	0.01
433.616	0.08
433.819	-0.01
434.022	-0.08
434.225	0.12
434.428	0.02
434.631	0.13
434.833	0.02
435.036	0.04
435.239	0.09
435.442	0.04
435.645	-0.03
435.847	0.01
436.05	0.03
436.253	0.02
436.455	0.01
436.658	0.02
436.861	0.11
437.063	0.01
437.266	-0.02
437.468	0.04
437.671	0.11
437.874	0.01
438.076	-0.07
438.279	-0.03
438.481	0.01
438.684	-0.05
438.886	0.03
439.089	-0.11
439.291	0.01
439.494	0.01
439.696	-0.03
439.899	0.04
440.101	0.03
440.303	-0.07
440.506	0.07
440.708	-0.06
440.91	0.05
441.113	-0.03
441.315	0.11
441.517	-0.03
441.72	0.06
441.922	-0
442.124	-0.02
442.326	-0.01
442.529	0.09
442.731	-0.07
442.933	0.13
443.135	0.02
443.337	-0.05
443.539	0.05
443.742	-0.03
443.944	0.02
444.146	-0.04
444.348	-0.01
444.55	0.03
444.752	-0.03
444.954	-0.04
445.156	0.03
445.358	-0
445.56	0.05
445.762	-0.01
445.964	-0.01
446.166	-0.02
446.368	-0.02
446.57	0.07
446.772	0.02
446.974	-0.06
447.175	0.03
447.377	-0.01
447.579	-0.01
447.781	-0.03
447.983	0.08
448.184	-0
448.386	0
448.588	-0.06
448.79	0.02
448.991	-0.02
449.193	0.03
449.395	-0.02
449.597	0.03
449.798	0.02
450	0.04
450.202	0
450.403	0.02
450.605	0.06
450.806	0.04
451.008	-0.05
451.21	0.01
451.411	0.01
451.613	-0.02
451.814	0.01
452.016	0.04
452.217	-0.05
452.419	0.06
452.62	0.01
452.821	0.04
453.023	0.07
453.224	0.04
453.426	-0.01
453.627	0.05
453.828	0.05
454.03	0.03
454.231	0.05
454.432	-0.01
454.634	0.11
454.835	-0
455.036	-0.02
455.238	0.05
455.439	0.12
455.64	-0.05
455.841	0.02
456.042	0.1
456.244	0.05
456.445	-0.02
456.646	-0.04
456.847	-0.03
457.048	0.03
457.249	0.06
457.45	0.24
457.651	-0.06
457.852	0.06
458.054	0.01
458.255	0.01
458.456	0.04
458.657	0.01
458.858	0.01
459.058	0.02
459.259	0.05
459.46	0.02
459.661	0.02
459.862	0.13
460.063	-0.04
460.264	0.09
460.465	-0.04
460.666	0.13
460.866	0.02
461.067	-0.02
461.268	0.02
461.469	-0.02
461.67	0.02
461.87	0
462.071	-0.06
462.272	-0.04
462.473	0.03
462.673	0.05
462.874	-0.05
463.075	0.01
463.275	-0.03
463.476	-0.02
463.676	0
463.877	0.01
464.078	-0.01
464.278	0.07
464.479	-0
464.679	-0.03
464.88	0.02
465.08	0.09
465.281	0.01
465.481	-0.02
465.682	0.03
465.882	-0.01
466.083	0.01
466.283	0.05
466.483	-0.04
466.684	-0.01
466.884	-0.01
467.085	0.01
467.285	0.02
467.485	-0.03
467.686	0.01
467.886	0
468.086	-0
468.286	0.01
468.487	0.02
468.687	-0.05
468.887	-0
469.087	0.06
469.287	0.01
469.488	-0.05
469.688	0.02
469.888	0.06
470.088	0.03
470.288	0.08
470.488	0.06
470.688	-0.01
470.888	-0.03
471.088	-0.06
471.288	0.03
471.488	0.06
471.688	0.07
471.888	0.01
472.088	0.06
472.288	0.02
472.488	-0.03
472.688	-0.03
472.888	-0.03
473.088	-0.01
473.288	0.01
473.488	-0.01
473.688	0.09
473.887	0
474.087	-0.01
474.287	-0.01
474.487	-0.02
474.687	0.04
474.886	-0.03
475.086	0.04
475.286	-0
475.486	0.06
475.685	0
475.885	-0.01
476.085	-0.03
476.284	-0.01
476.484	0.01
476.684	0.02
476.883	0.07
477.083	0.03
477.282	0
477.482	0.09
477.681	0.06
477.881	0.02
478.08	-0.03
478.28	0.01
478.479	0.04
478.679	0.05
478.878	-0.02
479.078	-0
479.277	-0.02
479.477	0
479.676	0.05
479.875	0.01
480.075	-0.03
480.274	0.03
480.473	0.02
480.673	-0.04
480.872	0.06
481.071	0.01
481.271	0.05
481.47	-0.02
481.669	0.01
481.868	-0.01
482.067	-0.03
482.267	0.03
482.466	-0.03
482.665	-0.03
482.864	-0.03
483.063	-0
483.262	0.04
483.461	0.03
483.661	0.01
483.86	0.02
484.059	0.02
484.258	0.01
484.457	0.01
484.656	0.01
484.855	0.03
485.054	-0.03
485.253	-0.01
485.452	-0.04
485.651	-0.03
485.849	-0.02
486.048	-0.03
486.247	-0.04
486.446	0.03
486.645	-0.02
486.844	-0.01
487.043	0.01
487.241	0.02
487.44	0.01
487.639	-0.02
487.838	0.03
488.037	0.01
488.235	0.05
488.434	0.02
488.633	-0.02
488.831	0.02
489.03	0.04
489.229	0
489.427	-0.02
489.626	0.04
489.825	0.05
490.023	0
490.222	0
490.42	0.03
490.619	0.02
490.817	0.01
491.016	-0
491.214	0.03
491.413	0
491.611	0
491.81	-0.02
492.008	0.02
492.207	0.01
492.405	0.02
492.604	-0.01
492.802	0.03
493	0.01
493.199	-0.02
493.397	-0
493.595	0.03
493.794	-0.05
493.992	0.02
494.19	-0
494.388	0.01
494.587	0.03
494.785	0
494.983	-0.04
495.181	0.02
495.379	0.03
495.578	-0.02
495.776	0.01
495.974	-0
496.172	0
496.37	-0.01
496.568	-0.02
496.766	-0.03
496.964	0.03
497.162	0.01
497.36	-0.03
497.558	0.01
497.756	0.01
497.954	-0.01
498.152	-0.03
498.35	0
498.548	-0
498.746	0.01
498.944	-0.02
499.142	-0.02
499.34	-0.04
499.538	0
499.736	-0.04
499.933	0.04
500.131	0.04
500.329	0.01
500.527	0.06
500.725	0.03
500.922	0.02
501.12	0.02
501.318	0.03
501.516	-0.03
501.713	0.01
501.911	0
502.109	-0.03
502.306	-0.01
502.504	0
502.701	-0.01
502.899	-0.01
503.097	0.04
503.294	0
503.492	-0
503.689	-0
503.887	0.02
504.084	0.06
504.282	0.02
504.479	-0.04
504.677	0.02
504.874	-0.02
505.072	-0
505.269	0
505.466	0.02
505.664	-0
505.861	-0.03
506.059	-0.04
506.256	0.02
506.453	-0.01
506.651	0.04
506.848	0.02
507.045	-0
507.242	0.01
507.44	-0.01
507.637	-0.01
507.834	-0.02
508.031	0.03
508.229	-0.02
508.426	-0
508.623	0.03
508.82	-0.03
509.017	-0.02
509.214	0.01
509.411	0.01
509.608	-0.02
509.805	0
510.003	-0.02
510.2	-0.02
510.397	0.04
510.594	-0.02
510.791	-0.02
510.988	-0.01
511.184	0.03
511.381	0.02
511.578	-0.02
511.775	0.03
511.972	-0.02
512.169	0
512.366	-0.01
512.563	0.02
512.76	0.01
512.956	0.01
513.153	-0.01
513.35	0.02
513.547	-0.01
513.744	-0.01
513.94	-0.02
514.137	0.02
514.334	0
514.53	0.02
514.727	-0
514.924	0.04
515.12	0
515.317	-0.01
515.514	-0.03
515.71	-0.01
515.907	0.01
516.103	0.01
516.3	0.01
516.497	0.03
516.693	0.03
516.89	-0.01
517.086	-0.02
517.283	0.06
517.479	0.02
517.676	-0.01
517.872	0
518.068	-0.01
518.265	0.01
518.461	-0.02
518.658	-0.02
518.854	0.01
519.05	-0.01
519.247	0
519.443	0.01
519.639	0.01
519.836	0.02
520.032	0.01
520.228	-0
520.424	0.04
520.621	0.02
520.817	-0.01
521.013	0.01
521.209	0.01
521.405	0.05
521.601	0.01
521.798	0
521.994	0.04
522.19	-0.01
522.386	-0.03
522.582	0.02
522.778	-0
522.974	-0.01
523.17	0
523.366	-0.01
523.562	0
523.758	-0.02
523.954	-0.02
524.15	-0.01
524.346	0.01
524.542	-0
524.738	0.01
524.934	-0.01
525.129	0.01
525.325	0.03
525.521	0
525.717	0.05
525.913	0.02
526.109	0
526.304	0.01
526.5	0.01
526.696	0.02
526.892	-0
527.087	0.01
527.283	-0.03
527.479	0.01
527.674	0
527.87	-0.02
528.066	-0.02
528.261	0.02
528.457	0.02
528.653	-0
528.848	-0.02
529.044	0.02
529.239	0
529.435	0.04
529.63	0.02
529.826	0.05
530.021	0.01
530.217	0.02
530.412	-0
530.608	-0.02
530.803	0.03
530.999	-0.01
531.194	-0.02
531.389	-0
531.585	-0.03
531.78	0.01
531.975	-0.01
532.171	0.01
532.366	0
532.561	0.02
532.757	-0.01
532.952	-0
533.147	0.02
533.342	-0.01
533.538	-0.01
533.733	0.02
533.928	0
534.123	-0.02
534.318	-0.03
534.513	-0.02
534.709	0.02
534.904	-0.02
535.099	-0
535.294	-0
535.489	0
535.684	0.01
535.879	-0.01
536.074	-0.02
536.269	-0.02
536.464	0.03
536.659	0
536.854	0.01
537.049	0.01
537.244	0.02
537.439	-0.01
537.634	0.04
537.828	-0
538.023	-0.02
538.218	-0.02
538.413	0.02
538.608	-0.02
538.803	0.02
538.997	-0.05
539.192	0.01
539.387	0.02
539.582	0.01
539.776	0.02
539.971	0
540.166	-0
540.36	-0.02
540.555	0.01
540.75	0
540.944	0.02
541.139	-0.05
541.334	-0
541.528	0
541.723	0.01
541.917	-0.01
542.112	-0.04
542.306	0
542.501	0
542.695	0.01
542.89	-0.02
543.084	0.01
543.279	-0.01
543.473	-0.01
543.668	0
543.862	-0.01
544.056	0.02
544.251	-0
544.445	0
544.64	-0.01
544.834	-0.02
545.028	0
545.222	0.01
545.417	0.02
545.611	0.01
545.805	-0.01
546	-0.02
546.194	0.02
546.388	-0.02
546.582	0.02
546.776	0
546.97	-0.01
547.165	0.01
547.359	0.01
547.553	-0.01
547.747	0
547.941	0
548.135	-0.03
548.329	0.03
548.523	0
548.717	0
548.911	-0
549.105	-0.02
549.299	0.02
549.493	0.02
549.687	0.02
549.881	0.01
550.075	-0.01
550.269	-0.01
550.463	0.01
550.657	-0.03
550.85	-0.01
551.044	-0.02
551.238	0.02
551.432	-0.02
551.626	-0.05
551.82	0.01
552.013	0.01
552.207	-0
552.401	0.02
552.594	0
552.788	-0.02
552.982	0.01
553.176	-0.02
553.369	0.02
553.563	-0.02
553.756	-0.03
553.95	-0.03
554.144	0.01
554.337	0.03
554.531	0
554.724	-0
554.918	-0.03
555.111	0.01
555.305	-0.01
555.498	0.05
555.692	0.04
555.885	-0.02
556.079	0.03
556.272	-0.01
556.466	0.03
556.659	-0.01
556.852	-0.01
557.046	-0.01
557.239	0.03
557.432	-0.02
557.626	-0.01
557.819	0.02
558.012	0.02
558.206	0.01
558.399	0
558.592	-0.01
558.785	0.01
558.979	0.02
559.172	0
559.365	0.04
559.558	0
559.751	-0
559.944	-0.02
560.138	-0.04
560.331	-0.01
560.524	-0
560.717	0.01
560.91	-0
561.103	0.03
561.296	0.01
561.489	0
561.682	0.01
561.875	0.03
562.068	0.06
562.261	0.02
562.454	0.06
562.647	0
562.84	0.02
563.032	-0.01
563.225	0.03
563.418	0.01
563.611	-0
563.804	-0.02
563.997	-0.04
564.19	-0.01
564.382	-0.02
564.575	-0.01
564.768	-0.02
564.961	0.02
565.153	-0.02
565.346	0.03
565.539	0.01
565.731	0
565.924	0.03
566.117	0.02
566.309	0.01
566.502	-0.02
566.695	-0
566.887	-0
567.08	-0.01
567.272	-0.01
567.465	-0.01
567.657	0.01
567.85	0.01
568.042	0.03
568.235	0.04
568.427	-0.01
568.62	0.02
568.812	0.03
569.005	0.01
569.197	-0.02
569.389	0.01
569.582	0.01
569.774	0.01
569.966	-0.04
570.159	-0.03
570.351	0
570.543	-0.01
570.736	-0.01
570.928	-0.05
571.12	0.01
571.312	-0.02
571.505	-0.02
571.697	0.05
571.889	-0.01
572.081	-0.01
572.273	-0.04
572.465	0.05
572.658	0.01
572.85	0.01
573.042	0.01
573.234	-0
573.426	0.03
573.618	-0.05
573.81	0.01
574.002	0.03
574.194	0.03
574.386	-0.05
574.578	-0.05
574.77	-0.01
574.962	-0.01
575.154	-0.03
575.346	-0
575.538	0.03
575.729	-0.03
575.921	-0.01
576.113	-0.01
576.305	0.02
576.497	-0
576.689	0
576.88	-0.03
577.072	0.02
577.264	-0.01
577.456	0
577.647	-0.07
577.839	-0.01
578.031	0.05
578.223	-0.02
578.414	-0.04
578.606	0.01
578.798	0.01
578.989	-0.02
579.181	0.03
579.372	0.01
579.564	-0.01
579.755	0.02
579.947	-0.02
580.139	0.03
580.33	-0.05
580.522	-0.02
580.713	-0.06
580.905	-0.01
581.096	0.01
581.287	-0
581.479	-0.01
581.67	0.02
581.862	-0
582.053	-0.04
582.244	-0.04
582.436	-0
582.627	0.02
582.818	-0.02
583.01	-0.03
583.201	0.03
583.392	0.01
583.583	0.01
583.775	0
583.966	-0.02
584.157	-0.02
584.348	-0.03
584.54	-0.04
584.731	0.02
584.922	-0.01
585.113	-0.02
585.304	-0.02
585.495	0.02
585.686	0.01
585.877	0
586.068	-0
586.259	0.01
586.45	0
586.641	-0.03
586.832	-0.04
587.023	-0.02
587.214	-0.01
587.405	0
587.596	-0.01
587.787	0.03
587.978	-0.01
588.169	-0.04
588.36	-0.03
588.551	0.02
588.742	-0.02
588.932	0.03
589.123	-0.01
589.314	0.02
589.505	0.02
589.696	-0
589.886	-0.03
590.077	-0.05
590.268	-0.01
590.458	-0.04
590.649	-0.03
590.84	0.02
591.03	-0.01
591.221	-0.04
591.412	-0.03
591.602	0.03
591.793	0.03
591.984	-0.03
592.174	-0.03
592.365	0.1
592.555	-0.01
592.746	0.05
592.936	0.03
593.127	0.01
593.317	0.02
593.508	0
593.698	-0.04
593.889	0
594.079	0.01
594.269	-0.01
594.46	-0.02
594.65	-0.02
594.84	0.02
595.031	-0.04
595.221	-0.02
595.411	-0.04
595.602	0.02
595.792	-0.01
595.982	-0.02
596.172	0.04
596.363	0
596.553	0
596.743	0.01
596.933	0
597.123	0.01
597.314	-0.02
597.504	-0.03
597.694	0.02
597.884	-0.01
598.074	0
598.264	-0.04
598.454	0.01
598.644	0.02
598.834	0
599.024	-0.08
599.214	-0.02
599.404	0.05
599.594	-0.02
599.784	-0.01
599.974	0.05
600.164	0.03
600.354	-0.02
600.544	-0.04
600.734	0
600.924	0.05
601.114	-0.02
601.303	-0
601.493	0.01
601.683	-0.01
601.873	0.01
602.063	-0.04
602.252	0.05
602.442	-0.04
602.632	-0.01
602.821	-0.02
603.011	0.02
603.201	-0.01
603.39	-0.04
603.58	-0.02
603.77	0
603.959	0.04
604.149	-0
604.339	-0.01
604.528	0.06
604.718	0.02
604.907	-0.02
605.097	-0.02
605.286	-0.03
605.476	0.01
605.665	0.02
605.855	0
606.044	0.04
606.234	0.01
606.423	-0.01
606.612	-0.06
606.802	-0.01
606.991	0.03
607.181	0.03
607.37	-0.03
607.559	-0
607.749	-0.02
607.938	-0.02
608.127	0.01
608.316	-0.03
608.506	0.01
608.695	-0
608.884	-0.03
609.073	-0.01
609.263	-0
609.452	0.02
609.641	0.01
609.83	-0.04
610.019	-0.01
610.208	-0.03
610.397	0.01
610.586	0.02
610.775	0.01
610.965	-0.01
611.154	-0.01
611.343	-0
611.532	0.01
611.721	-0.02
611.91	-0.04
612.099	0.01
612.287	-0.04
612.476	-0.04
612.665	0
612.854	0.01
613.043	0.04
613.232	-0.03
613.421	-0.04
613.61	0.03
613.798	-0.03
613.987	0.01
614.176	-0
614.365	0.04
614.554	-0
614.742	0.02
614.931	-0.01
615.12	0.02
615.309	0
615.497	0.04
615.686	-0.01
615.875	-0.01
616.063	0.03
616.252	-0.04
616.44	-0.02
616.629	-0.02
616.818	0.03
617.006	0.02
617.195	0
617.383	-0.02
617.572	0
617.76	-0.02
617.949	-0
618.137	0.01
618.326	-0.01
618.514	-0.04
618.703	-0.02
618.891	0.04
619.079	-0.07
619.268	0.02
619.456	-0.01
619.644	0.06
619.833	0
620.021	0
620.209	-0.04
620.398	0.04
620.586	0.02
620.774	0.03
620.962	-0
621.151	0.04
621.339	-0
621.527	-0.04
621.715	-0.05
621.903	-0.02
622.092	-0.05
622.28	0
622.468	0.01
622.656	-0.03
622.844	0.03
623.032	-0.02
623.22	-0.05
623.408	0.01
623.596	0.01
623.784	0.05
623.972	-0.05
624.16	-0.01
624.348	0.07
624.536	-0.02
624.724	-0.03
624.912	0
625.1	0.04
625.288	-0.01
625.476	-0.02
625.664	0.04
625.851	-0.02
626.039	-0.02
626.227	0.03
626.415	-0.03
626.603	-0.06
626.79	0.01
626.978	-0.01
627.166	0.06
627.354	0.03
627.541	-0.02
627.729	-0.02
627.917	0.03
628.104	0.02
628.292	0.02
628.48	-0
628.667	0.03
628.855	0.02
629.042	0.02
629.23	-0.03
629.418	-0.02
629.605	0.02
629.793	-0.01
629.98	-0.02
630.168	-0.03
630.355	0.01
630.543	0.01
630.73	0.01
630.917	0.01
631.105	0.04
631.292	-0.04
631.48	0.01
631.667	0.07
631.854	0.01
632.042	0.01
632.229	-0.03
632.416	0
632.604	0.03
632.791	-0.03
632.978	0.03
633.165	0.04
633.353	0.08
633.54	0.05
633.727	-0.06
633.914	0.01
634.101	-0.04
634.289	0.03
634.476	-0.04
634.663	-0.02
634.85	0.02
635.037	-0.01
635.224	-0.04
635.411	0.03
635.598	0.05
635.785	0.04
635.972	-0.03
636.159	0.03
636.346	-0.01
636.533	0.03
636.72	0.02
636.907	0.01
637.094	-0.01
637.281	-0.02
637.468	0.02
637.655	0
637.842	0
638.029	0.01
638.215	0.01
638.402	0.01
638.589	-0.03
638.776	0.01
638.963	-0.01
639.149	0.02
639.336	0.06
639.523	0.01
639.709	0.01
639.896	0.02
640.083	0.05
640.27	0.03
640.456	-0.01
640.643	0.04
640.829	-0.01
641.016	0.01
641.203	-0.02
641.389	0.05
641.576	0.02
641.762	0.01
641.949	-0.02
642.135	0.02
642.322	0.04
642.508	-0.02
642.695	0.03
642.881	0.02
643.068	0.02
643.254	0.01
643.441	0.04
643.627	0
643.813	-0.01
644	0.05
644.186	-0.01
644.372	-0.04
644.559	0.04
644.745	0.01
644.931	0.02
645.118	0.03
645.304	0.02
645.49	-0.01
645.676	-0
645.862	0.01
646.049	0.05
646.235	0.04
646.421	0.1
646.607	0.07
646.793	-0.02
646.979	0
647.165	0.01
647.352	0.02
647.538	0.05
647.724	0.04
647.91	0.05
648.096	0.05
648.282	0.04
648.468	0.02
648.654	0.01
648.84	0.01
649.026	0.04
649.212	0.01
649.397	-0
649.583	-0.01
649.769	0.04
649.955	0
650.141	0.04
650.327	0.04
650.513	-0.02
650.698	0.03
650.884	-0.06
651.07	-0
651.256	0.05
651.442	0.01
651.627	0.02
651.813	0.06
651.999	0.05
652.184	0.04
652.37	0.02
652.556	0.02
652.741	0.06
652.927	-0.04
653.113	0.03
653.298	0.02
653.484	0
653.669	-0.03
653.855	0
654.04	0.05
654.226	0.02
654.412	0
654.597	0.01
654.782	0.05
654.968	0.07
655.153	0.06
655.339	0.03
655.524	-0.04
655.71	0.06
655.895	0.01
656.08	0.01
656.266	0.06
656.451	0.06
656.636	0
656.822	0.03
657.007	0.02
657.192	-0.01
657.378	0.01
657.563	0.05
657.748	0.02
657.933	0.04
658.118	0.04
658.304	0.01
658.489	0.06
658.674	0.04
658.859	-0.03
659.044	0.06
659.229	0.05
659.414	0.01
659.599	0.04
659.785	-0.01
659.97	0.03
660.155	0.06
660.34	0.06
660.525	0.02
660.71	0.01
660.895	0.08
661.08	0.02
661.264	0.03
661.449	0.08
661.634	0.1
661.819	0.05
662.004	0.08
662.189	-0.05
662.374	0.01
662.559	0
662.743	-0
662.928	0
663.113	0.02
663.298	-0
663.483	0.03
663.667	0.11
663.852	-0
664.037	0.08
664.221	0.01
664.406	0.08
664.591	0.06
664.775	0.07
664.96	-0.01
665.145	0.07
665.329	0.04
665.514	0.02
665.698	0.09
665.883	0
666.068	0.11
666.252	0.03
666.437	-0
666.621	0.09
666.806	0.08
666.99	0.03
667.174	0.03
667.359	0.08
667.543	0.06
667.728	0
667.912	0.01
668.096	0.08
668.281	0.05
668.465	0.05
668.649	0.07
668.834	0.03
669.018	0.06
669.202	0.05
669.387	0.05
669.571	0.09
669.755	0.02
669.939	0.09
670.124	0.08
670.308	0.17
670.492	0.08
670.676	0.08
670.86	0.02
671.044	0.03
671.228	0.13
671.413	0.02
671.597	0.03
671.781	0.03
671.965	0.11
672.149	0.09
672.333	0.1
672.517	0.09
672.701	0.08
672.885	0.09
673.069	0.05
673.253	0.17
673.437	0.07
673.621	0.1
673.804	0.08
673.988	0.08
674.172	0.12
674.356	0.03
674.54	0.07
674.724	0.22
674.908	0.12
675.091	0.11
675.275	0.13
675.459	0.12
675.643	0.11
675.826	0.14
676.01	0.15
676.194	0.06
676.377	0.16
676.561	0.16
676.745	0.13
676.928	0.14
677.112	0.21
677.296	0.1
677.479	0.11
677.663	0.12
677.846	0.17
678.03	0.15
678.213	0.14
678.397	0.19
678.58	0.11
678.764	0.15
678.947	0.14
679.131	0.14
679.314	0.19
679.498	0.18
679.681	0.21
679.865	0.22
680.048	0.16
680.231	0.16
680.415	0.12
680.598	0.15
680.781	0.19
680.965	0.17
681.148	0.17
681.331	0.18
681.514	0.19
681.698	0.15
681.881	0.21
682.064	0.23
682.247	0.2
682.43	0.16
682.614	0.24
682.797	0.29
682.98	0.27
683.163	0.16
683.346	0.24
683.529	0.28
683.712	0.23
683.895	0.29
684.078	0.25
684.261	0.21
684.444	0.26
684.627	0.29
684.81	0.22
684.993	0.28
685.176	0.33
685.359	0.25
685.542	0.26
685.725	0.34
685.908	0.25
686.091	0.29
686.274	0.36
686.457	0.33
686.639	0.35
686.822	0.32
687.005	0.32
687.188	0.32
687.371	0.45
687.553	0.42
687.736	0.34
687.919	0.39
688.102	0.46
688.284	0.35
688.467	0.36
688.65	0.35
688.832	0.34
689.015	0.37
689.197	0.3
689.38	0.51
689.563	0.49
689.745	0.34
689.928	0.34
690.11	0.39
690.293	0.44
690.475	0.36
690.658	0.44
690.84	0.42
691.023	0.43
691.205	0.37
691.388	0.45
691.57	0.52
691.752	0.48
691.935	0.41
692.117	0.48
692.3	0.52
692.482	0.48
692.664	0.51
692.847	0.54
693.029	0.59
693.211	0.52
693.393	0.48
693.576	0.51
693.758	0.58
693.94	0.53
694.122	0.54
694.304	0.56
694.487	0.56
694.669	0.64
694.851	0.56
695.033	0.66
695.215	0.59
695.397	0.64
695.579	0.73
695.761	0.63
695.943	0.62
696.125	0.69
696.308	0.76
696.49	0.61
696.671	0.86
696.853	0.78
697.035	0.91
697.217	0.77
697.399	0.82
697.581	0.78
697.763	0.81
697.945	0.77
698.127	0.85
698.309	0.9
698.491	0.89
698.672	0.88
698.854	0.97
699.036	0.93
699.218	0.89
699.399	0.98
699.581	0.95
699.763	0.95
699.945	0.97
700.126	0.92
700.308	1.03
700.49	1.01
700.671	0.93
700.853	1.06
701.035	1.09
701.216	1.03
701.398	1.03
701.579	1.11
701.761	1.18
701.943	1.11
702.124	1.17
702.306	1.12
702.487	1.32
702.669	1.24
702.85	1.21
703.031	1.18
703.213	1.45
703.394	1.32
703.576	1.26
703.757	1.48
703.938	1.43
704.12	1.45
704.301	1.47
704.483	1.38
704.664	1.49
704.845	1.58
705.026	1.55
705.208	1.54
705.389	1.6
705.57	1.64
705.751	1.58
705.933	1.67
706.114	1.69
706.295	1.73
706.476	1.61
706.657	1.86
706.838	1.79
707.02	1.84
707.201	1.78
707.382	1.75
707.563	1.88
707.744	1.83
707.925	1.89
708.106	1.91
708.287	2.07
708.468	2.17
708.649	2.06
708.83	2.18
709.011	2.12
709.192	2.2
709.373	2.24
709.554	2.21
709.734	2.38
709.915	2.36
710.096	2.42
710.277	2.25
710.458	2.49
710.639	2.46
710.819	2.38
711	2.49
711.181	2.56
711.362	2.63
711.542	2.69
711.723	2.7
711.904	2.88
712.085	2.73
712.265	2.79
712.446	2.85
712.627	2.86
712.807	2.97
712.988	3.04
713.168	3.02
713.349	3.06
713.53	2.99
713.71	3.15
713.891	3.18
714.071	3.33
714.252	3.39
714.432	3.42
714.613	3.28
714.793	3.58
714.974	3.61
715.154	3.77
715.334	3.75
715.515	3.75
715.695	3.65
715.876	3.82
716.056	3.85
716.236	3.95
716.417	4.11
716.597	3.95
716.777	4.26
716.957	4.25
717.138	4.28
717.318	4.24
717.498	4.45
717.678	4.54
717.859	4.53
718.039	4.5
718.219	4.76
718.399	4.77
718.579	4.82
718.759	4.91
718.939	5.12
719.12	5.14
719.3	5.17
719.48	5.13
719.66	5.06
719.84	5.45
720.02	5.31
720.2	5.43
720.38	5.62
720.56	5.84
720.74	5.7
720.92	5.84
721.1	6.06
721.279	6.14
721.459	6.08
721.639	6.07
721.819	6.28
721.999	6.26
722.179	6.5
722.359	6.39
722.538	6.74
722.718	6.74
722.898	6.99
723.078	6.94
723.257	6.99
723.437	7.15
723.617	7.26
723.797	7.32
723.976	7.42
724.156	7.68
724.336	7.64
724.515	7.84
724.695	7.79
724.874	8
725.054	8.05
725.234	8.14
725.413	8.42
725.593	8.34
725.772	8.65
725.952	8.76
726.131	8.66
726.311	8.88
726.49	8.86
726.67	9.01
726.849	9.26
727.028	9.22
727.208	9.38
727.387	9.47
727.567	9.47
727.746	9.67
727.925	9.85
728.105	9.64
728.284	9.88
728.463	9.97
728.643	10.24
728.822	10.27
729.001	10.3
729.18	10.55
729.359	10.86
729.539	10.84
729.718	11
729.897	10.89
730.076	11.2
730.255	11.04
730.434	11.61
730.614	11.53
730.793	11.84
730.972	11.83
731.151	11.79
731.33	12.05
731.509	12.1
731.688	12.14
731.867	12.44
732.046	12.42
732.225	12.7
732.404	12.63
732.583	12.66
732.762	13.1
732.941	13.19
733.12	13.28
733.298	13.36
733.477	13.58
733.656	13.59
733.835	13.84
734.014	13.98
734.193	13.61
734.371	14.21
734.55	14.24
734.729	14.28
734.908	14.27
735.086	14.45
735.265	14.83
735.444	14.52
735.623	14.84
735.801	14.97
735.98	15.22
736.159	15.26
736.337	15.33
736.516	15.43
736.694	15.28
736.873	15.29
737.052	15.8
737.23	15.52
737.409	15.48
737.587	15.79
737.766	15.66
737.944	15.76
738.123	15.89
738.301	15.82
738.479	15.97
738.658	15.74
738.836	15.55
739.015	15.67
739.193	15.7
739.371	15.56
739.55	15.04
739.728	15.21
739.906	15.34
740.085	15.32
740.263	15.24
740.441	14.77
740.62	14.88
740.798	14.73
740.976	14.37
741.154	14.11
741.332	14.37
741.511	13.73
741.689	13.66
741.867	13.58
742.045	13.1
742.223	12.63
742.401	12.65
742.579	12.32
742.757	12.6
742.935	12.06
743.114	11.71
743.292	11.52
743.47	11.23
743.648	11.09
743.826	11.05
744.004	10.84
744.181	10.53
744.359	10.02
744.537	9.74
744.715	9.34
744.893	9.31
745.071	9.01
745.249	8.84
745.427	8.53
745.605	8.25
745.782	8.02
745.96	7.99
746.138	7.84
746.316	7.44
746.493	7.11
746.671	7.03
746.849	6.68
747.027	6.62
747.204	6.38
747.382	6.35
747.56	5.87
747.737	5.64
747.915	5.54
748.093	5.62
748.27	5.15
748.448	5.16
748.625	4.88
748.803	4.68
748.98	4.66
749.158	4.56
749.335	4.47
749.513	4.18
749.69	4.17
749.868	4.03
750.045	3.85
750.223	3.76
750.4	3.46
750.578	3.68
750.755	3.56
750.932	3.24
751.11	3.41
751.287	3.02
751.464	3.31
751.642	2.94
751.819	2.92
751.996	2.86
752.173	2.78
752.351	2.51
752.528	2.6
752.705	2.46
752.882	2.45
753.06	2.38
753.237	2.42
753.414	2.38
753.591	2.39
753.768	2.1
753.945	1.97
754.122	1.84
754.299	1.85
754.476	1.77
754.654	1.86
754.831	1.77
755.008	1.71
755.185	1.54
755.362	1.56
755.539	1.59
755.716	1.45
755.892	1.48
756.069	1.43
756.246	1.31
756.423	1.32
756.6	1.45
756.777	1.17
756.954	1.27
757.131	1.26
757.307	1.1
757.484	1.25
757.661	1.16
757.838	1.03
758.015	0.89
758.191	1.06
758.368	0.97
758.545	1.03
758.721	1.01
758.898	0.78
759.075	0.97
759.251	0.89
759.428	0.95
759.605	0.68
759.781	0.87
759.958	0.8
760.134	0.73
760.311	0.63
760.488	0.71
760.664	0.86
760.841	0.66
761.017	0.64
761.194	0.72
761.37	0.75
761.547	0.64
761.723	0.62
761.899	0.73
762.076	0.43
762.252	0.54
762.429	0.48
762.605	0.64
762.781	0.44
762.958	0.62
763.134	0.4
763.31	0.34
763.486	0.54
763.663	0.28
763.839	0.54
764.015	0.27
764.191	0.34
764.368	0.45
764.544	0.28
764.72	0.42
764.896	0.44
765.072	0.44
765.248	0.26
765.425	0.4
765.601	0.39
765.777	0.42
765.953	0.23
766.129	0.15
766.305	0.22
766.481	0.44
766.657	0.39
766.833	0.54
767.009	0.15
767.185	0.32
767.361	0.24
767.537	0.15
767.713	0.47
767.889	0.21
768.065	0.33
768.24	0.1
768.416	0.41
768.592	0.26
768.768	0.25
768.944	0.31
769.12	0.02
769.295	0.24
769.471	0.27
769.647	0.17
769.823	0.37
769.998	0.13
770.174	0.12
770.35	0.49
770.525	0.38
770.701	0.33
770.877	0.08
771.052	0.15
771.228	0.31
771.403	0.29
771.579	0.33
771.755	0.51
771.93	0.25
772.106	-0.03
772.281	-0.03
772.457	0.37
772.632	0.35
772.808	-0.03
772.983	0.17
773.159	-0.02
773.334	0.24
773.509	0.12
773.685	0.01
773.86	0.4
774.036	0.39
774.211	0.2
774.386	-0.02
774.562	0.1
774.737	0.2
774.912	-0.01
775.087	0.33
775.263	0.03
775.438	0.2
775.613	0.13
775.788	0.13
775.964	0.2
776.139	0.55
776.314	-0.06
776.489	0.16
776.664	0.27
776.839	0.05
777.014	0.1
777.19	0.31
777.365	0.36
777.54	0.29
777.715	0.01
777.89	0.13
778.065	0.21
778.24	0.1
778.415	0.32
778.59	-0.06
778.765	-0.04
778.94	0.2
779.115	0.1
779.289	0.09
779.464	0.05
779.639	0.09
779.814	-0.21
779.989	0.04
780.164	0.34
780.339	0.13
780.513	0.09
780.688	0.06
780.863	0.01
781.038	0.19
781.212	-0.12
781.387	0.08
781.562	0.46
781.737	-0.14
781.911	0.29
782.086	-0.08
782.261	0
782.435	0.36
782.61	-0.07
782.784	-0.14
782.959	0.27
783.134	0.09
783.308	-0.13
783.483	0.04
783.657	0.59
783.832	0.23
784.006	-0.2
784.181	0.12
784.355	0.37
784.53	-0.11
784.704	-0.08
784.878	0.48
785.053	0.25
785.227	0.23
785.402	0.53
785.576	-0.24
785.75	0.01
785.925	0.19
786.099	0.12
786.273	0.11
786.448	0.2
786.622	0.34
786.796	0.32
786.97	-0.08
787.145	0.64
787.319	-0.37
787.493	0.07
787.667	-0.49
787.841	0.08
788.015	0.47
788.19	0.05
788.364	0.05
788.538	0.12
788.712	0.33
788.886	-0.08
789.06	0.22
789.234	0.27
789.408	-0.18
789.582	0.07
789.756	0.16
789.93	-0.14
790.104	-0.03
790.278	-0.06
790.452	-0.17
790.626	0.34
790.8	0.2
790.973	0.19
791.147	0.33
791.321	0.38
791.495	0.24
791.669	0.42
791.843	0.1
792.016	0.03
792.19	0.5
792.364	-0.1
792.538	0.56
792.711	0.45
792.885	-0.01
793.059	-0.3
793.233	-0.41
793.406	0.35
793.58	-0.06
793.754	0.14
793.927	0.17
794.101	0.42
794.274	0.02
794.448	0.38
794.622	-0.14
794.795	0.19
794.969	-0.07
795.142	0.57
795.316	-0.06
795.489	-0.08
795.663	0.62
795.836	0.07
796.009	-0.04
796.183	0.32
796.356	0.07
796.53	0.17
796.703	0.11
796.876	0.74
797.05	0.02
797.223	-0.04
797.396	0.08
797.57	0.1
797.743	0.44
797.916	0.49
798.09	-0.05
798.263	0.31
798.436	0.17
798.609	-0.04
798.782	0.07
798.956	0.21
799.129	0.12
799.302	-0.08
799.475	-0
799.648	-0.12
799.821	-0.02
799.994	0.17
800.167	-0.27
800.34	0.21
800.514	0.04
800.687	-0.26
800.86	-0.12
801.033	0.03
801.206	-0.13
801.379	-0.03
801.551	0.29
801.724	0.08
801.897	0.36
802.07	0.02
802.243	-0.42
802.416	0.17
802.589	-0.08
802.762	-0.01
802.935	0.01
803.107	0.15
803.28	0.15
803.453	0.4
803.626	-0.02
803.798	-0.27
803.971	-0.1
804.144	0.34
804.317	0.48
804.489	0.25
804.662	0.14
804.835	0.46
805.007	-0.34
805.18	0.35
805.353	0.51
805.525	-0.1
805.698	-0.26
805.87	0.21
806.043	0.31
806.215	-0.21
806.388	-0.16
806.56	0.03
806.733	0.38
806.905	-0.14
807.078	0.02
807.25	-0.09
807.423	-0.07
807.595	0.12
807.768	0.07
807.94	0.51
808.112	0.17
808.285	0.29
808.457	0.06
808.629	0.33
808.802	0.28
808.974	0.21
809.146	-0.05
809.318	-0.21
809.491	0.09
809.663	0.38
809.835	-0.1
810.007	0.32
810.18	0.24
810.352	-0.18
810.524	-0.09
810.696	0.17
810.868	0.49
811.04	0.13
811.212	0.18
811.384	0.52
811.556	0.06
811.728	0.06
811.901	0.75
812.073	-0.13
812.245	0.23
812.417	-0.08
812.589	-0.28
812.76	0.32
812.932	0.13
813.104	0.29
813.276	0.05
813.448	0.69
813.62	0.44
813.792	0.11
813.964	-0.03
814.136	-0.03
814.307	-0.13
814.479	-0.36
814.651	0.27
814.823	0.7
814.995	-0.11
815.166	-0.3
815.338	-0.13
815.51	-0.35
815.681	0.65
815.853	0.34
816.025	-0.1
816.196	0.36
816.368	0.2
816.54	-0.1
816.711	-0.01
816.883	-0.06
817.054	1.27
817.226	-1.08
817.398	0.32
817.569	0.2
817.741	0.21
817.912	-0.16
818.084	-0.26
818.255	0.26
818.426	-0.17
818.598	-0.03
818.769	-0.08
818.941	0.37
819.112	1.02
819.283	0.47
819.455	-0.01
819.626	0.16
819.798	0.32
819.969	-0.15
820.14	0.28
820.311	-0.48
820.483	0.19
820.654	0.18
820.825	0.35
820.996	-0.36
821.168	-0.17
821.339	-0
821.51	-0.03
821.681	0.96
821.852	0.19
822.023	-0.37
822.195	-0.42
822.366	0.56
822.537	0.16
822.708	0.08
822.879	-0.16
823.05	0.62
823.221	-0.09
823.392	0.47
823.563	0.37
823.734	-0.37
823.905	-0.06
824.076	0
824.247	-0.4
824.418	-0.01
824.589	0.51
824.759	-0.66
824.93	-0.17
825.101	-0.66
825.272	0.8
825.443	0.59
825.614	0.38
825.784	-0.88
825.955	0.9
826.126	0.64
826.297	0.1
826.467	0.52
826.638	0.62
826.809	-0.84
826.98	0.55
827.15	0.51
827.321	-0.04
827.492	0.94
827.662	0.64
827.833	0.96
828.003	0.95
828.174	-0.81
828.345	-0.7
828.515	0.41
828.686	0.23
828.856	0.2
829.027	0.71
829.197	0.36
829.368	0.56
829.538	-0.42
829.709	0.04
829.879	0.57
830.049	0.13
830.22	-0.01
830.39	0.33
830.56	0.52
830.731	-0.3
830.901	0.24
831.072	0.34
831.242	-0.17
831.412	0.35
831.582	-0.05
831.753	-0.16
831.923	0.58
832.093	-0.11
832.263	-0.19
832.434	-0.33
832.604	-0.22
832.774	0.5
832.944	-0.09
833.114	0.07
833.284	0.03
833.454	-0.67
833.624	-0.27
833.795	-0.25
833.965	1.32
834.135	0.71
834.305	-0.78
834.475	-0.16
834.645	0.55
834.815	-0.27
834.985	-0.56
835.155	-0.06
835.325	-0.17
835.494	0.55
835.664	0.08
835.834	-0.54
836.004	-0.13
836.174	0.66
836.344	0.51
836.514	-0.54
836.684	-0.6
836.853	0.18
837.023	-0.48
837.193	-0.5
837.363	0.26
837.532	0.47
837.702	0.37
837.872	-0.35
838.041	0.86
838.211	1.71
838.381	-0.38
838.55	0.14
838.72	1.44
838.89	1.19
839.059	-0.21
839.229	-0.12
839.398	1.89
839.568	0.19
839.738	0.3
839.907	0.63
840.077	0.22
840.246	-0.05
840.416	-0.69
840.585	0.02
840.755	0.92
840.924	1.17
841.093	-0.59
841.263	0.25
841.432	0.7
841.602	-0.43
841.771	-0.08
841.94	0.3
842.11	1.73
842.279	1.08
842.448	-0.29
842.617	-0.43
842.787	1.45
842.956	-0.54
843.125	-0.16
843.294	0.55
843.464	1.39
843.633	0.68
843.802	-0.26
843.971	-0.08
844.14	0.63
844.309	0.78
844.479	-1.47
844.648	-0.03
844.817	-0.16
844.986	-0.1
845.155	0.03
845.324	0.57
845.493	-0.19
845.662	-0.8
845.831	1.74
846	0.41
846.169	-0.01
846.338	1.57
846.507	0.34
846.676	0.69
846.844	0.38
847.013	0.39
847.182	0.3
847.351	-0.22
847.52	0.14
847.689	1.1
847.858	-0.26
848.026	-0.39
848.195	-0.52
848.364	-0.26
848.533	-0.02
848.701	-0.24
848.87	-0.01
849.039	0.46
849.207	0.91
849.376	1.5
849.545	2.05
849.713	-0.43
849.882	-0.18
850.051	0.4
850.219	0.38
850.388	0.76
850.556	-0.08
850.725	-1.08
850.893	-0.26
851.062	0.15
851.23	0.14
851.399	-1.13
851.567	0.31
851.736	-0.29
851.904	-1.6
852.073	0.31
852.241	1.42
852.41	0.18
852.578	-0.22
852.746	-0.07
852.915	0.73
853.083	-0.41
853.251	-0.57
853.42	-0.17
853.588	-0.2
853.756	1.83
853.924	0.02
854.093	0.1
854.261	-0.11
854.429	-1.2
854.597	0.72
854.765	-0.43
854.934	0.45
855.102	1.21
855.27	0.56
855.438	0.52
855.606	0.94
855.774	1.92
855.942	-0.87
856.11	-0.38
856.278	0.15
856.446	1.47
856.614	0.7
856.782	-1.35
856.95	1.6
857.118	1.03
857.286	0.62
857.454	-1
857.622	0.83
857.79	0.49
857.958	0.19
858.126	0.33
858.294	-1.43
858.462	0.78
858.629	0.05
858.797	-1.07
858.965	-0
859.133	0.57
859.301	-0.64
859.468	0.77
859.636	-0.86
859.804	1.23
859.971	1.28
860.139	-0.07
860.307	2.33
860.474	0.53
860.642	0.26
860.81	0.25
860.977	-0.04
861.145	2.19
861.313	-0.72
861.48	1.35
861.648	1.68
861.815	-0.54
861.983	-0.86
862.15	0.19
862.318	0.99
862.485	2.48
862.653	-0.89
862.82	0.65
862.988	1.59
863.155	1.06
863.322	-0.2
863.49	0.13
863.657	0.42
863.824	1.32
863.992	1.25
864.159	0.9
864.326	2.25
864.494	0.37
864.661	3.45
864.828	-0.4
864.996	2.04
865.163	1.59
865.33	-0.09
865.497	-1.67
865.664	0.75
865.832	-1.46
865.999	-0.7
866.166	0.22
866.333	0.22
866.5	-0.81
866.667	1.12
866.834	0.79
867.001	2.62
867.168	0.12
867.335	1.51
867.502	0.4
867.669	1.56
867.836	2.52
868.003	0.13
868.17	1.78
868.337	2.97
868.504	3.22
868.671	-0.23
868.838	-1.06
869.005	1.53
869.172	2.44
869.339	0.8
869.505	0.9
869.672	-1.25
869.839	1.78
870.006	0.44
870.173	0.47
870.339	2.11
870.506	2.24
870.673	-1.01
870.84	1.97
871.006	0.81
871.173	1.23
871.34	1.71
871.506	-0.1
871.673	3.05
871.839	-0.41
872.006	1.16
872.173	0.67
872.339	1.9
872.506	1.46
872.672	0.85
872.839	-1.07
873.005	0.46
873.172	2.1
873.338	3.53
873.505	0.9
873.671	1.93
873.838	0.59
874.004	-1.99
874.171	0.75
874.337	0.99
874.503	1.94
874.67	-1.05
874.836	-0.98
875.002	2.8
875.169	2
875.335	1.69
875.501	-0.84
875.668	2.48
875.834	3.24
876	-0.18
876.166	2.95
876.332	2.04
876.499	5.18
876.665	0.8
876.831	1.55
876.997	5.64
877.163	0.48
877.329	0.35
877.495	1.3
877.662	1.92
877.828	1.88
877.994	0.94
878.16	-1.92
878.326	-1.09
878.492	0.35
878.658	-0.32
878.824	1.71
878.99	2.04
879.156	-0.08
879.322	2.5
879.487	1.16
879.653	1.27
879.819	-0.3
879.985	-0.5
880.151	0.54
880.317	3.53
880.483	1.29
880.648	2.11
880.814	-2.99
880.98	1.12
881.146	-0.58
881.312	-1.03
881.477	-0.19
881.643	2.03
881.809	2.13
881.974	3.08
882.14	-2.86
882.306	2.24
882.471	4.12
882.637	0.02
882.803	2.26
882.968	3.1
883.134	2.95
883.299	0.11
883.465	1.64
883.63	2.82
883.796	2.33
883.961	2.73
884.127	1.23
884.292	-3.23
884.458	-0.98
884.623	-0.98
