Data from Apollo_Calib_20240827__AbsoluteIrradiance__350__04-59-01-565.txt Node

Date: Wed Aug 28 04:59:01 BST 2024
User: biology
Spectrometer: FLMT08252
Trigger mode: 0
Integration Time (sec): 5.000000E-1
Scans to average: 5
Electric dark correction enabled: true
Nonlinearity correction enabled: false
Boxcar width: 0
XAxis mode: Wavelengths
Number of Pixels in Spectrum: 3648
>>>>>Begin Spectral Data<<<<<
179.588	-0
179.809	-0
180.03	-0
180.251	-0
180.473	-0
180.694	0
180.915	0
181.136	-0
181.357	0
181.578	0
181.799	0
182.02	-0
182.241	-0
182.462	-0
182.683	0
182.904	-0
183.125	-0
183.346	0
183.567	0
183.788	0
184.009	-0
184.23	0
184.451	0
184.672	-0
184.892	-0
185.113	0
185.334	0
185.555	-0
185.776	-0
185.996	0
186.217	0
186.438	0
186.659	-0
186.879	0
187.1	-0
187.321	-0
187.541	-0
187.762	0
187.983	0
188.203	0
188.424	0
188.644	-0
188.865	0
189.086	-0
189.306	0
189.527	0
189.747	0
189.968	-0
190.188	0
190.409	0
190.629	0
190.849	-0
191.07	-0
191.29	0
191.511	0
191.731	-0
191.951	-0
192.172	0
192.392	0
192.612	0
192.833	-0
193.053	0
193.273	0
193.493	0
193.714	0
193.934	0
194.154	0
194.374	0
194.594	0
194.815	0
195.035	-0
195.255	-0
195.475	-0
195.695	0
195.915	0
196.135	0
196.355	0
196.575	0
196.795	0
197.015	-0
197.235	-0
197.455	-0
197.675	0
197.895	-0
198.115	-0
198.335	0
198.555	0
198.775	0
198.995	0
199.214	0
199.434	0
199.654	-0
199.874	0
200.094	1.32
200.313	-0.38
200.533	-0.08
200.753	-0.19
200.973	1.57
201.192	0.84
201.412	-0.18
201.632	-0.36
201.851	1.31
202.071	-0.36
202.291	-0.28
202.51	-0.39
202.73	1.01
202.95	-0.15
203.169	-0.59
203.389	0.5
203.608	0.15
203.828	-0.24
204.047	-0.23
204.267	0.92
204.486	0.33
204.706	0.39
204.925	0.07
205.145	0.11
205.364	1.17
205.583	0.92
205.803	-0.13
206.022	-0.27
206.242	0.51
206.461	-0
206.68	0.01
206.9	0.27
207.119	0.7
207.338	0.67
207.557	-0.01
207.777	0.27
207.996	0.35
208.215	0.41
208.434	0.05
208.654	-0.15
208.873	0.17
209.092	0.9
209.311	-0.09
209.53	0.21
209.749	0.06
209.968	0.19
210.187	-0.24
210.407	-0.33
210.626	0.15
210.845	0.35
211.064	0.23
211.283	-0.02
211.502	0.36
211.721	0.17
211.94	0.05
212.159	0.3
212.377	0.44
212.596	0.45
212.815	0.17
213.034	0.27
213.253	0.48
213.472	0.62
213.691	0.06
213.91	-0.17
214.128	-0.12
214.347	0.47
214.566	-0.24
214.785	-0.03
215.003	0.35
215.222	0.23
215.441	0.12
215.66	-0.1
215.878	0.12
216.097	0.23
216.316	-0.01
216.534	-0.1
216.753	0.19
216.972	-0.14
217.19	-0.01
217.409	-0.1
217.627	-0.03
217.846	0.11
218.064	0.1
218.283	-0.22
218.501	0.51
218.72	0.27
218.938	-0.01
219.157	0.02
219.375	0.25
219.594	0.31
219.812	-0.16
220.031	-0.01
220.249	0.56
220.467	0.33
220.686	0.06
220.904	-0.26
221.122	-0.14
221.341	0.55
221.559	-0.01
221.777	-0.06
221.995	0.14
222.214	0.34
222.432	-0.01
222.65	0.24
222.868	0.3
223.086	0.14
223.305	0.26
223.523	0.15
223.741	0.51
223.959	-0.11
224.177	-0.27
224.395	-0.02
224.613	0.12
224.831	0.37
225.049	-0
225.267	0.01
225.485	0.12
225.703	0.11
225.921	0.07
226.139	0.03
226.357	0.17
226.575	0.15
226.793	0.03
227.011	0.75
227.229	0.18
227.447	0.24
227.665	-0.06
227.883	-0.18
228.1	0.18
228.318	0.08
228.536	-0.1
228.754	-0.18
228.972	0.23
229.189	0.2
229.407	0.13
229.625	-0.03
229.843	0.34
230.06	0.18
230.278	0.05
230.496	0.12
230.713	0.09
230.931	0.34
231.149	0.03
231.366	-0.12
231.584	0.2
231.801	0.37
232.019	0.06
232.236	-0.08
232.454	-0.01
232.671	0.14
232.889	0.13
233.106	-0.09
233.324	0.17
233.541	0.05
233.759	0.07
233.976	0.07
234.194	0.11
234.411	0.16
234.628	-0.06
234.846	0.04
235.063	0.09
235.28	0.06
235.498	0
235.715	-0.05
235.932	0.27
236.149	0.08
236.367	-0.03
236.584	0.11
236.801	0.11
237.018	0.13
237.236	0.15
237.453	-0.07
237.67	0.27
237.887	0.08
238.104	-0
238.321	0.04
238.538	0.11
238.755	0.25
238.973	-0.12
239.19	0.12
239.407	0.09
239.624	0.18
239.841	-0.03
240.058	-0.06
240.275	0.19
240.492	0.1
240.709	0.1
240.925	0.02
241.142	0.02
241.359	0.02
241.576	-0.02
241.793	0.02
242.01	0.03
242.227	0.18
242.444	0.11
242.66	0.16
242.877	0.07
243.094	0
243.311	0.08
243.527	0.01
243.744	0.21
243.961	0.18
244.178	-0.01
244.394	0.14
244.611	0.19
244.828	0.28
245.044	-0.06
245.261	0.05
245.477	0.17
245.694	0.14
245.911	0.02
246.127	0.11
246.344	0.16
246.56	0.19
246.777	0.05
246.993	0.01
247.21	0.14
247.426	0.2
247.643	0.06
247.859	-0.09
248.076	-0.01
248.292	0.39
248.508	0.04
248.725	0.11
248.941	0.11
249.157	0.18
249.374	0.03
249.59	0.07
249.806	0.15
250.023	0.17
250.239	0.07
250.455	0.03
250.671	0.13
250.888	0.18
251.104	0.05
251.32	0.06
251.536	0.05
251.752	0.05
251.969	0.06
252.185	0.04
252.401	0.24
252.617	0.15
252.833	0.05
253.049	0.03
253.265	0.08
253.481	0.13
253.697	0.03
253.913	0.01
254.129	0.07
254.345	0.14
254.561	0.03
254.777	0.06
254.993	0.23
255.209	0.11
255.425	0.02
255.641	-0.01
255.857	0.11
256.073	0.14
256.288	-0.02
256.504	0.05
256.72	0.17
256.936	0.23
257.152	0.08
257.367	0.07
257.583	0.09
257.799	0.13
258.015	0.03
258.23	0.06
258.446	0.22
258.662	0.02
258.877	0.01
259.093	0.04
259.309	0.05
259.524	0.04
259.74	-0
259.955	0.02
260.171	0.11
260.387	0.08
260.602	0.12
260.818	0.14
261.033	0.04
261.249	0
261.464	0.06
261.68	-0.04
261.895	0.07
262.11	0.13
262.326	0.07
262.541	-0.02
262.757	0.09
262.972	0.05
263.187	0.14
263.403	0.1
263.618	0.14
263.833	0.15
264.049	0.03
264.264	0.04
264.479	0.18
264.694	0.14
264.91	0.02
265.125	0.11
265.34	0.16
265.555	0.24
265.77	0.07
265.986	0.05
266.201	0.06
266.416	0.15
266.631	0.06
266.846	0.09
267.061	0.08
267.276	0.17
267.491	-0.09
267.706	0.11
267.921	0.13
268.136	0.08
268.351	0.03
268.566	-0
268.781	0.12
268.996	0.19
269.211	0.05
269.426	0.01
269.641	0.03
269.856	0.16
270.071	0.04
270.285	-0.01
270.5	0.12
270.715	0.15
270.93	0.07
271.145	0.08
271.359	0.18
271.574	0.01
271.789	0.06
272.004	0.03
272.218	0.09
272.433	0.16
272.648	0
272.862	0.17
273.077	0.1
273.292	0.06
273.506	0.01
273.721	0.05
273.936	0.1
274.15	0.17
274.365	0.04
274.579	0.08
274.794	0.11
275.008	0.15
275.223	0.02
275.437	0.05
275.652	0.2
275.866	0.14
276.081	0.08
276.295	0.11
276.509	0.08
276.724	0.09
276.938	0.08
277.153	0.06
277.367	0.13
277.581	0.06
277.796	0.04
278.01	0.02
278.224	0.17
278.438	0.16
278.653	0
278.867	0
279.081	0.13
279.295	0.03
279.51	0.1
279.724	-0.02
279.938	0.09
280.152	0.1
280.366	0.01
280.58	0.1
280.794	0.19
281.008	0.13
281.222	0.23
281.437	0.17
281.651	0.07
281.865	0.18
282.079	0.01
282.293	-0.02
282.507	0.07
282.721	0.05
282.935	0.04
283.148	-0
283.362	0.06
283.576	0.03
283.79	0.06
284.004	-0.05
284.218	0.15
284.432	0.05
284.646	0.1
284.859	0.02
285.073	0.04
285.287	0.08
285.501	0.07
285.714	0.05
285.928	0.11
286.142	0.09
286.356	0.03
286.569	0.05
286.783	0.17
286.997	0.15
287.21	0.11
287.424	0.13
287.637	0.07
287.851	0.05
288.065	0.08
288.278	0.02
288.492	0.13
288.705	0.06
288.919	0.07
289.132	0.03
289.346	0.15
289.559	0
289.773	0.03
289.986	0.02
290.2	0.07
290.413	0.09
290.626	0.05
290.84	0.03
291.053	0.04
291.267	0.12
291.48	0.06
291.693	0.06
291.906	-0
292.12	0.07
292.333	0.07
292.546	0.03
292.76	0.17
292.973	0.07
293.186	0.15
293.399	0.04
293.612	0.13
293.826	0.07
294.039	0.07
294.252	0.05
294.465	0.13
294.678	0.07
294.891	0.12
295.104	-0.01
295.317	0.07
295.53	0.09
295.743	0.08
295.956	0.05
296.169	0.14
296.382	0.13
296.595	0.08
296.808	0.06
297.021	0.13
297.234	0.12
297.447	0.06
297.66	0.08
297.873	0.14
298.086	0.11
298.299	0.03
298.511	-0.01
298.724	0.1
298.937	0.03
299.15	0.01
299.363	0.07
299.575	0.1
299.788	0.1
300.001	0.04
300.213	0.04
300.426	0.08
300.639	0.02
300.852	0.05
301.064	0.13
301.277	0.14
301.489	0.1
301.702	0.11
301.915	0.08
302.127	0.08
302.34	0.06
302.552	0.09
302.765	0.04
302.977	0.12
303.19	0.01
303.402	0.09
303.615	0.07
303.827	0.09
304.04	0.07
304.252	0.1
304.464	0.08
304.677	0.17
304.889	0.16
305.102	0.08
305.314	-0.01
305.526	0.11
305.739	0.07
305.951	0.05
306.163	0.09
306.375	0.18
306.588	0.1
306.8	0.06
307.012	0.04
307.224	0.1
307.436	0.14
307.649	-0.02
307.861	0.07
308.073	0.12
308.285	0.05
308.497	0.05
308.709	0.07
308.921	0.11
309.133	0.12
309.346	0.05
309.558	0.07
309.77	0.1
309.982	0.13
310.194	0.09
310.406	0.08
310.617	0.16
310.829	0.11
311.041	0.11
311.253	0.07
311.465	0.07
311.677	0.06
311.889	0.08
312.101	0.04
312.313	0.1
312.524	0.14
312.736	0.05
312.948	0.04
313.16	0.14
313.372	0.11
313.583	0.08
313.795	0.05
314.007	0
314.218	0.11
314.43	0.09
314.642	0.05
314.853	0.05
315.065	0.13
315.277	0.02
315.488	0.06
315.7	0.1
315.912	0.11
316.123	0.08
316.335	0.01
316.546	0.18
316.758	0.07
316.969	0.06
317.181	0.06
317.392	0.1
317.604	0.17
317.815	0.04
318.026	0.02
318.238	0.04
318.449	0.12
318.661	0.04
318.872	0.06
319.083	0.05
319.295	0.13
319.506	0.04
319.717	0.1
319.929	0.13
320.14	0.08
320.351	0.09
320.562	0.05
320.774	0.05
320.985	0.11
321.196	0.02
321.407	0.01
321.618	0.13
321.829	0.05
322.041	0.13
322.252	0.05
322.463	0.14
322.674	0.11
322.885	0.05
323.096	0.04
323.307	0.08
323.518	0.11
323.729	0.05
323.94	0.04
324.151	0.08
324.362	0.12
324.573	0.13
324.784	0.04
324.995	0.14
325.206	0.04
325.417	0.08
325.628	0.02
325.838	0.09
326.049	0.14
326.26	0.1
326.471	0.08
326.682	0.11
326.892	0.09
327.103	-0.01
327.314	0.02
327.525	0.14
327.735	0.1
327.946	0.04
328.157	0.03
328.368	0.1
328.578	0.07
328.789	0.09
328.999	0.08
329.21	0.02
329.421	0.09
329.631	0.06
329.842	0.05
330.052	0.11
330.263	0.07
330.473	0.09
330.684	0.07
330.894	0.06
331.105	0.08
331.315	0.08
331.526	-0
331.736	0.08
331.947	0.12
332.157	0.11
332.367	0.02
332.578	0.13
332.788	0.15
332.999	0.11
333.209	0.04
333.419	0.03
333.629	0.12
333.84	0.08
334.05	0.08
334.26	0.15
334.47	0.08
334.681	0.12
334.891	0.01
335.101	0.14
335.311	0.17
335.521	0.05
335.732	0.05
335.942	0.15
336.152	0.09
336.362	0.11
336.572	0.07
336.782	0.11
336.992	0.01
337.202	0.06
337.412	0.09
337.622	0.1
337.832	0.1
338.042	0.08
338.252	0.05
338.462	0.05
338.672	0.1
338.882	0.07
339.092	0.08
339.302	0.15
339.511	0.12
339.721	0.04
339.931	0.01
340.141	0.13
340.351	0.14
340.561	0.07
340.77	0.06
340.98	0.09
341.19	0.11
341.4	0.08
341.609	0.05
341.819	0.09
342.029	0.07
342.238	0.07
342.448	0.06
342.658	0.11
342.867	0.06
343.077	0.09
343.286	0.11
343.496	0.09
343.706	0.14
343.915	0.06
344.125	0.09
344.334	0.06
344.544	0.02
344.753	0.04
344.963	0.06
345.172	0.05
345.381	0.04
345.591	0.04
345.8	0.1
346.01	0.17
346.219	0.15
346.428	-0.05
346.638	0.05
346.847	0.08
347.056	0.14
347.266	0.02
347.475	0.07
347.684	0.09
347.893	0.09
348.103	0.11
348.312	0.06
348.521	0.08
348.73	0.09
348.94	0.08
349.149	0.08
349.358	0.07
349.567	0.06
349.776	0.01
349.985	0
350.194	0.11
350.403	0.11
350.612	0.04
350.821	0.04
351.03	0.1
351.239	0.03
351.448	0.08
351.657	0.07
351.866	0.17
352.075	0.1
352.284	0.14
352.493	0.05
352.702	0.14
352.911	0.09
353.12	0.09
353.329	0.06
353.538	0.12
353.746	0.07
353.955	0.06
354.164	0.08
354.373	0.08
354.582	0.09
354.79	0.05
354.999	0.1
355.208	0.05
355.416	0.12
355.625	0.02
355.834	0.04
356.042	0.11
356.251	0.07
356.46	0.04
356.668	0.06
356.877	0.17
357.085	0.13
357.294	0.03
357.503	0.13
357.711	0.04
357.92	0.16
358.128	0.1
358.337	0.06
358.545	0.08
358.754	0.06
358.962	0.13
359.17	0.04
359.379	0.1
359.587	0.1
359.796	0.06
360.004	0.12
360.212	0.11
360.421	0.14
360.629	0.05
360.837	0.05
361.046	0.12
361.254	0.2
361.462	0.07
361.67	0.09
361.879	0.09
362.087	0.16
362.295	0.04
362.503	0.1
362.711	0.02
362.92	0.08
363.128	0.04
363.336	0.02
363.544	0.04
363.752	0.07
363.96	0.07
364.168	0.04
364.376	0.06
364.584	0.07
364.792	0.1
365	0.05
365.208	0.1
365.416	0.13
365.624	0.1
365.832	0.05
366.04	0.16
366.248	0.07
366.456	0.08
366.664	0.08
366.872	0.07
367.079	0.06
367.287	0.03
367.495	0.09
367.703	0.08
367.911	0.06
368.118	0.07
368.326	0.07
368.534	0.03
368.742	0.15
368.949	0.01
369.157	0.03
369.365	0.14
369.572	0.06
369.78	0.07
369.988	0.11
370.195	0.09
370.403	0.12
370.61	0.05
370.818	0.1
371.026	0.14
371.233	0.05
371.441	0.1
371.648	0.06
371.856	0.11
372.063	0.09
372.271	0.04
372.478	0.07
372.685	0.1
372.893	0.1
373.1	0.1
373.308	0.04
373.515	0.18
373.722	0.1
373.93	0.08
374.137	0.11
374.344	0.12
374.552	0.07
374.759	0.1
374.966	0.09
375.173	0.1
375.381	0.14
375.588	0.08
375.795	0.01
376.002	0.08
376.209	0.05
376.417	0.08
376.624	0.06
376.831	0.08
377.038	0.07
377.245	0.03
377.452	0.07
377.659	0.1
377.866	0.07
378.073	0.06
378.28	0.1
378.487	0.13
378.694	0.1
378.901	0.11
379.108	0.06
379.315	0.14
379.522	0.13
379.729	0.1
379.936	0.11
380.143	0.09
380.35	0.1
380.557	0.08
380.763	0.11
380.97	0.06
381.177	0.08
381.384	0.1
381.591	0.08
381.797	0.1
382.004	0.09
382.211	0.12
382.418	0.1
382.624	0.12
382.831	0.14
383.038	0.08
383.244	0.09
383.451	0.09
383.658	0.12
383.864	0.11
384.071	0.07
384.277	0.15
384.484	0.08
384.69	0.11
384.897	0.08
385.103	0.1
385.31	0.04
385.516	0.07
385.723	0.07
385.929	0.11
386.136	0.07
386.342	0.11
386.549	0.06
386.755	0.15
386.961	0.12
387.168	0.1
387.374	0.08
387.58	0.17
387.787	0.06
387.993	0.11
388.199	0.09
388.406	0.1
388.612	0.12
388.818	0.04
389.024	0.06
389.231	0.14
389.437	0.15
389.643	0.09
389.849	0.09
390.055	0.08
390.261	0.08
390.467	0.13
390.674	0.08
390.88	0.13
391.086	0.15
391.292	0.06
391.498	0.14
391.704	0.09
391.91	0.11
392.116	0.09
392.322	0.05
392.528	0.09
392.734	0.05
392.94	0.13
393.146	0.09
393.352	0.12
393.557	0.1
393.763	0.09
393.969	0.11
394.175	0.1
394.381	0.12
394.587	0.09
394.792	0.09
394.998	0.11
395.204	0.13
395.41	0.05
395.615	0.14
395.821	0.15
396.027	0.13
396.233	0.09
396.438	0.1
396.644	0.18
396.85	0.13
397.055	0.1
397.261	0.13
397.466	0.2
397.672	0.09
397.878	0.17
398.083	0.14
398.289	0.05
398.494	0.13
398.7	0.13
398.905	0.06
399.111	0.18
399.316	0.06
399.522	0.15
399.727	0.09
399.932	0.12
400.138	0.1
400.343	0.16
400.549	0.15
400.754	0.19
400.959	0.13
401.165	0.12
401.37	0.14
401.575	0.09
401.78	0.11
401.986	0.1
402.191	0.1
402.396	0.16
402.601	0.19
402.807	0.17
403.012	0.14
403.217	0.21
403.422	0.14
403.627	0.16
403.832	0.1
404.037	0.2
404.243	0.17
404.448	0.15
404.653	0.14
404.858	0.16
405.063	0.16
405.268	0.15
405.473	0.12
405.678	0.13
405.883	0.35
406.088	0.19
406.293	0.15
406.498	0.2
406.703	0.24
406.907	0.16
407.112	0.13
407.317	0.14
407.522	0.2
407.727	0.15
407.932	0.21
408.136	0.3
408.341	0.25
408.546	0.21
408.751	0.24
408.956	0.19
409.16	0.28
409.365	0.2
409.57	0.21
409.774	0.24
409.979	0.32
410.184	0.29
410.388	0.18
410.593	0.3
410.798	0.27
411.002	0.28
411.207	0.35
411.411	0.31
411.616	0.21
411.82	0.33
412.025	0.37
412.229	0.3
412.434	0.42
412.638	0.39
412.843	0.32
413.047	0.36
413.252	0.39
413.456	0.34
413.66	0.44
413.865	0.41
414.069	0.48
414.273	0.44
414.478	0.48
414.682	0.48
414.886	0.46
415.091	0.51
415.295	0.41
415.499	0.59
415.703	0.58
415.908	0.57
416.112	0.52
416.316	0.64
416.52	0.69
416.724	0.62
416.929	0.64
417.133	0.86
417.337	0.72
417.541	0.75
417.745	0.84
417.949	0.88
418.153	0.88
418.357	0.85
418.561	1.06
418.765	1.02
418.969	1.14
419.173	1.12
419.377	1.08
419.581	1.27
419.785	1.25
419.989	1.23
420.193	1.32
420.397	1.38
420.601	1.48
420.804	1.53
421.008	1.51
421.212	1.68
421.416	1.63
421.62	1.63
421.823	1.72
422.027	1.83
422.231	1.8
422.435	1.83
422.638	1.88
422.842	2
423.046	1.98
423.249	2.16
423.453	2.21
423.657	2.33
423.86	2.34
424.064	2.4
424.268	2.58
424.471	2.56
424.675	2.76
424.878	2.83
425.082	2.89
425.285	3.05
425.489	3.14
425.692	3.19
425.896	3.14
426.099	3.41
426.303	3.51
426.506	3.54
426.71	3.82
426.913	3.96
427.116	4.04
427.32	4.08
427.523	4.2
427.726	4.39
427.93	4.44
428.133	4.76
428.336	4.82
428.54	5.02
428.743	5.25
428.946	5.43
429.149	5.46
429.353	5.52
429.556	5.63
429.759	5.72
429.962	5.84
430.165	5.99
430.368	5.77
430.571	5.78
430.775	5.84
430.978	5.83
431.181	5.99
431.384	6.13
431.587	6.14
431.79	6.51
431.993	6.5
432.196	6.67
432.399	7.05
432.602	7.19
432.805	7.25
433.008	7.8
433.211	7.66
433.414	7.86
433.616	7.99
433.819	7.98
434.022	8.17
434.225	8.27
434.428	8.29
434.631	8.8
434.833	8.63
435.036	8.94
435.239	8.98
435.442	9.19
435.645	9.25
435.847	9.47
436.05	9.88
436.253	9.96
436.455	10.16
436.658	10.11
436.861	10.5
437.063	10.57
437.266	10.63
437.468	10.99
437.671	11.36
437.874	11.47
438.076	11.41
438.279	11.93
438.481	11.98
438.684	12.78
438.886	12.56
439.089	13.06
439.291	13.06
439.494	13.55
439.696	13.83
439.899	14.51
440.101	15.01
440.303	15.4
440.506	16.2
440.708	16.16
440.91	16.43
441.113	16.78
441.315	17.28
441.517	17.18
441.72	17.81
441.922	17.68
442.124	17.86
442.326	18.38
442.529	18.71
442.731	19.16
442.933	19.36
443.135	19.43
443.337	19.75
443.539	20.57
443.742	20.44
443.944	21.15
444.146	21.09
444.348	21.25
444.55	21.34
444.752	21.53
444.954	21.98
445.156	21.89
445.358	22.62
445.56	23.08
445.762	23.06
445.964	23.7
446.166	23.36
446.368	23.6
446.57	23.78
446.772	23.56
446.974	23.42
447.175	23.91
447.377	23.62
447.579	24.31
447.781	24.09
447.983	23.69
448.184	23.26
448.386	23.74
448.588	23.37
448.79	23.29
448.991	23.9
449.193	23.9
449.395	22.95
449.597	22.5
449.798	22.45
450	21.73
450.202	21.71
450.403	21.91
450.605	21.7
450.806	21.22
451.008	21.04
451.21	20.7
451.411	20.09
451.613	19.03
451.814	19.42
452.016	19.21
452.217	18.12
452.419	18.33
452.62	17.8
452.821	17.44
453.023	17.06
453.224	16.52
453.426	16.12
453.627	14.99
453.828	15.22
454.03	15.38
454.231	15.07
454.432	14.86
454.634	14.35
454.835	14.08
455.036	13.89
455.238	13.34
455.439	12.8
455.64	12.47
455.841	12.28
456.042	12.33
456.244	11.96
456.445	11.68
456.646	11.2
456.847	10.99
457.048	10.99
457.249	10.93
457.45	10.45
457.651	9.88
457.852	9.58
458.054	9.25
458.255	9.27
458.456	9.21
458.657	9.03
458.858	8.39
459.058	8.4
459.259	8.43
459.46	8.08
459.661	7.98
459.862	7.96
460.063	7.98
460.264	7.69
460.465	7.35
460.666	7.34
460.866	7.03
461.067	6.75
461.268	6.86
461.469	6.75
461.67	6.52
461.87	6.34
462.071	6.35
462.272	6.23
462.473	6.02
462.673	6.25
462.874	6.19
463.075	6.06
463.275	5.99
463.476	6
463.676	5.86
463.877	5.72
464.078	5.61
464.278	5.66
464.479	5.5
464.679	5.36
464.88	5.17
465.08	5.09
465.281	4.98
465.481	4.74
465.682	4.51
465.882	4.53
466.083	4.37
466.283	4.29
466.483	4.08
466.684	3.91
466.884	3.83
467.085	3.76
467.285	3.79
467.485	3.62
467.686	3.49
467.886	3.32
468.086	3.28
468.286	3.22
468.487	3.22
468.687	3.04
468.887	2.97
469.087	3.06
469.287	2.9
469.488	2.71
469.688	2.87
469.888	2.74
470.088	2.72
470.288	2.67
470.488	2.52
470.688	2.4
470.888	2.42
471.088	2.16
471.288	2.22
471.488	2.19
471.688	2.17
471.888	2.06
472.088	2.2
472.288	2.08
472.488	1.94
472.688	1.91
472.888	1.88
473.088	1.86
473.288	1.77
473.488	1.7
473.688	1.82
473.887	1.69
474.087	1.65
474.287	1.58
474.487	1.57
474.687	1.56
474.886	1.52
475.086	1.4
475.286	1.43
475.486	1.41
475.685	1.42
475.885	1.33
476.085	1.36
476.284	1.31
476.484	1.3
476.684	1.28
476.883	1.34
477.083	1.23
477.282	1.14
477.482	1.18
477.681	1.11
477.881	1.05
478.08	1.04
478.28	1
478.479	1.03
478.679	1.11
478.878	0.97
479.078	0.98
479.277	0.98
479.477	0.93
479.676	0.92
479.875	0.88
480.075	0.87
480.274	0.87
480.473	0.86
480.673	0.84
480.872	0.84
481.071	0.82
481.271	0.79
481.47	0.73
481.669	0.75
481.868	0.74
482.067	0.7
482.267	0.66
482.466	0.62
482.665	0.65
482.864	0.62
483.063	0.59
483.262	0.63
483.461	0.65
483.661	0.64
483.86	0.59
484.059	0.59
484.258	0.56
484.457	0.56
484.656	0.53
484.855	0.6
485.054	0.47
485.253	0.47
485.452	0.45
485.651	0.48
485.849	0.48
486.048	0.42
486.247	0.41
486.446	0.44
486.645	0.37
486.844	0.38
487.043	0.38
487.241	0.42
487.44	0.36
487.639	0.37
487.838	0.4
488.037	0.37
488.235	0.4
488.434	0.36
488.633	0.31
488.831	0.34
489.03	0.36
489.229	0.3
489.427	0.28
489.626	0.31
489.825	0.34
490.023	0.29
490.222	0.27
490.42	0.3
490.619	0.31
490.817	0.31
491.016	0.26
491.214	0.3
491.413	0.25
491.611	0.25
491.81	0.23
492.008	0.25
492.207	0.22
492.405	0.24
492.604	0.16
492.802	0.23
493	0.23
493.199	0.2
493.397	0.18
493.595	0.2
493.794	0.19
493.992	0.24
494.19	0.17
494.388	0.2
494.587	0.19
494.785	0.21
494.983	0.15
495.181	0.17
495.379	0.2
495.578	0.19
495.776	0.16
495.974	0.18
496.172	0.17
496.37	0.16
496.568	0.12
496.766	0.17
496.964	0.2
497.162	0.15
497.36	0.15
497.558	0.16
497.756	0.16
497.954	0.13
498.152	0.12
498.35	0.14
498.548	0.13
498.746	0.13
498.944	0.09
499.142	0.12
499.34	0.1
499.538	0.14
499.736	0.1
499.933	0.18
500.131	0.17
500.329	0.13
500.527	0.15
500.725	0.14
500.922	0.15
501.12	0.12
501.318	0.13
501.516	0.1
501.713	0.11
501.911	0.11
502.109	0.09
502.306	0.13
502.504	0.09
502.701	0.08
502.899	0.1
503.097	0.12
503.294	0.11
503.492	0.12
503.689	0.11
503.887	0.12
504.084	0.14
504.282	0.1
504.479	0.06
504.677	0.1
504.874	0.07
505.072	0.09
505.269	0.07
505.466	0.09
505.664	0.13
505.861	0.04
506.059	0.07
506.256	0.11
506.453	0.09
506.651	0.1
506.848	0.11
507.045	0.08
507.242	0.09
507.44	0.07
507.637	0.08
507.834	0.06
508.031	0.09
508.229	0.06
508.426	0.08
508.623	0.11
508.82	0.06
509.017	0.06
509.214	0.07
509.411	0.06
509.608	0.06
509.805	0.06
510.003	0.07
510.2	0.03
510.397	0.1
510.594	0.04
510.791	0.05
510.988	0.06
511.184	0.07
511.381	0.09
511.578	0.06
511.775	0.08
511.972	0.06
512.169	0.06
512.366	0.06
512.563	0.1
512.76	0.04
512.956	0.1
513.153	0.04
513.35	0.06
513.547	0.05
513.744	0.04
513.94	0.04
514.137	0.08
514.334	0.08
514.53	0.08
514.727	0.05
514.924	0.1
515.12	0.04
515.317	0.02
515.514	0.05
515.71	0.04
515.907	0.06
516.103	0.05
516.3	0.08
516.497	0.07
516.693	0.11
516.89	0.06
517.086	0.03
517.283	0.09
517.479	0.07
517.676	0.05
517.872	0.05
518.068	0.04
518.265	0.05
518.461	0.03
518.658	0.03
518.854	0.08
519.05	0.04
519.247	0.02
519.443	0.05
519.639	0.07
519.836	0.05
520.032	0.04
520.228	0.05
520.424	0.1
520.621	0.06
520.817	0.03
521.013	0.08
521.209	0.05
521.405	0.13
521.601	0.05
521.798	0.04
521.994	0.09
522.19	0.03
522.386	0.01
522.582	0.05
522.778	0.03
522.974	0.03
523.17	0.04
523.366	0.05
523.562	0.06
523.758	0.04
523.954	0.03
524.15	0.04
524.346	0.06
524.542	0.03
524.738	0.02
524.934	0.04
525.129	0.03
525.325	0.07
525.521	0.04
525.717	0.06
525.913	0.05
526.109	0.05
526.304	0.04
526.5	0.08
526.696	0.07
526.892	0.02
527.087	0.04
527.283	0.03
527.479	0.02
527.674	0.02
527.87	0.05
528.066	0.04
528.261	0.07
528.457	0.04
528.653	0.03
528.848	0.01
529.044	0.02
529.239	0.03
529.435	0.05
529.63	0.06
529.826	0.08
530.021	0.05
530.217	0.07
530.412	0.03
530.608	0
530.803	0.05
530.999	0.03
531.194	-0.01
531.389	0.07
531.585	-0.01
531.78	0.03
531.975	0.04
532.171	0.05
532.366	0.03
532.561	0.04
532.757	0
532.952	0.02
533.147	0.06
533.342	0.04
533.538	0.03
533.733	0.07
533.928	0.05
534.123	0.02
534.318	-0
534.513	0.04
534.709	0.03
534.904	0.02
535.099	0.02
535.294	0.03
535.489	0.04
535.684	0.01
535.879	0.02
536.074	0.05
536.269	0
536.464	0.06
536.659	0.02
536.854	0.05
537.049	0.04
537.244	0.05
537.439	0.02
537.634	0.07
537.828	0.03
538.023	0.03
538.218	0.01
538.413	0.03
538.608	0.03
538.803	0.04
538.997	-0.02
539.192	0.05
539.387	0.05
539.582	0.05
539.776	0.04
539.971	0.04
540.166	0.02
540.36	0.01
540.555	0.03
540.75	-0.01
540.944	0.04
541.139	-0.01
541.334	0.02
541.528	0.04
541.723	0.06
541.917	0
542.112	-0
542.306	0
542.501	0.02
542.695	0.02
542.89	0.01
543.084	0.04
543.279	0.01
543.473	0.03
543.668	0.03
543.862	0.02
544.056	0.04
544.251	0.05
544.445	0.01
544.64	0.02
544.834	0
545.028	0.04
545.222	0.04
545.417	0.05
545.611	0.04
545.805	0.03
546	0.02
546.194	0.03
546.388	0.02
546.582	0.04
546.776	0.04
546.97	0.04
547.165	0.02
547.359	0.04
547.553	0.01
547.747	0.04
547.941	0.02
548.135	0.02
548.329	0.06
548.523	0.04
548.717	0.03
548.911	0.02
549.105	0.02
549.299	0.02
549.493	0.05
549.687	0.03
549.881	0.04
550.075	0.04
550.269	0.01
550.463	0.05
550.657	0.02
550.85	0.02
551.044	0.01
551.238	0.05
551.432	0.02
551.626	0
551.82	0.04
552.013	-0.01
552.207	0.02
552.401	0.05
552.594	0.03
552.788	0
552.982	0.01
553.176	0.01
553.369	0.05
553.563	0.05
553.756	0.01
553.95	-0.02
554.144	0.03
554.337	0.04
554.531	0.04
554.724	0.04
554.918	0.03
555.111	0.01
555.305	0.04
555.498	0.08
555.692	0.05
555.885	0.03
556.079	0.04
556.272	0.01
556.466	0.04
556.659	0.03
556.852	0.01
557.046	-0
557.239	0.04
557.432	0.01
557.626	0.01
557.819	0.04
558.012	0.05
558.206	0.07
558.399	0.02
558.592	0.04
558.785	0
558.979	0.05
559.172	0.04
559.365	0.04
559.558	0.02
559.751	0.03
559.944	0.03
560.138	0.03
560.331	0.02
560.524	-0
560.717	0.03
560.91	0.03
561.103	0.05
561.296	0.04
561.489	0.03
561.682	0.04
561.875	0.07
562.068	0.03
562.261	0.04
562.454	0.07
562.647	0.04
562.84	0.07
563.032	0
563.225	0.04
563.418	0.01
563.611	-0
563.804	0.03
563.997	0
564.19	-0.01
564.382	0.03
564.575	0
564.768	-0
564.961	0.01
565.153	0
565.346	0.05
565.539	0.04
565.731	0.07
565.924	0.02
566.117	0.07
566.309	0.05
566.502	0.03
566.695	0.03
566.887	0.03
567.08	0
567.272	-0
567.465	0.02
567.657	0
567.85	0.04
568.042	0.06
568.235	0.07
568.427	-0.02
568.62	0.01
568.812	0.06
569.005	0.04
569.197	-0.02
569.389	0.04
569.582	0.04
569.774	0.04
569.966	0
570.159	-0.01
570.351	0.06
570.543	0.02
570.736	0.04
570.928	0.02
571.12	0.02
571.312	0.02
571.505	-0.02
571.697	0.07
571.889	-0.02
572.081	0.04
572.273	-0
572.465	0.04
572.658	0.02
572.85	0.04
573.042	0.02
573.234	0.04
573.426	0.04
573.618	0
573.81	0
574.002	0.08
574.194	0.06
574.386	-0.03
574.578	-0.05
574.77	0.01
574.962	0.04
575.154	-0
575.346	0.02
575.538	0.03
575.729	-0
575.921	0
576.113	0.01
576.305	0.05
576.497	0.01
576.689	-0.01
576.88	0
577.072	0.04
577.264	0.02
577.456	0.02
577.647	-0.07
577.839	0.02
578.031	0.05
578.223	-0.02
578.414	-0.04
578.606	0.06
578.798	0.04
578.989	0.02
579.181	0.03
579.372	0.04
579.564	0.01
579.755	0.02
579.947	0.04
580.139	0.06
580.33	-0.03
580.522	0.03
580.713	-0.05
580.905	0.04
581.096	0.03
581.287	0.02
581.479	0.01
581.67	0.04
581.862	0.02
582.053	0.01
582.244	-0.01
582.436	0.03
582.627	0.04
582.818	0.01
583.01	-0.02
583.201	0.04
583.392	0.02
583.583	0.02
583.775	0.01
583.966	0.01
584.157	-0
584.348	0.01
584.54	-0.03
584.731	0.04
584.922	0.02
585.113	-0.05
585.304	0.02
585.495	0.05
585.686	0.01
585.877	0.02
586.068	0.05
586.259	0.04
586.45	0.05
586.641	0.01
586.832	-0.04
587.023	0.01
587.214	0.01
587.405	0.02
587.596	-0.01
587.787	0.07
587.978	0.02
588.169	0.02
588.36	-0.02
588.551	0.04
588.742	-0.01
588.932	0.04
589.123	-0
589.314	0.05
589.505	0.04
589.696	0.01
589.886	-0.01
590.077	-0.01
590.268	0.05
590.458	-0.02
590.649	-0.01
590.84	0.04
591.03	0.01
591.221	-0.02
591.412	-0.03
591.602	0.05
591.793	0.07
591.984	0
592.174	0.02
592.365	0.08
592.555	-0.01
592.746	0.03
592.936	0.02
593.127	0.03
593.317	0.05
593.508	-0
593.698	0.01
593.889	0.03
594.079	0.01
594.269	0.01
594.46	-0
594.65	0.01
594.84	0.02
595.031	-0.01
595.221	-0.02
595.411	-0.03
595.602	0.05
595.792	0.01
595.982	0.01
596.172	0.07
596.363	0.03
596.553	0.02
596.743	0.01
596.933	0.01
597.123	0.07
597.314	-0.01
597.504	-0.02
597.694	0.07
597.884	0.05
598.074	0.01
598.264	-0.02
598.454	0.01
598.644	0.05
598.834	0.03
599.024	-0.04
599.214	-0.01
599.404	0.07
599.594	0.02
599.784	-0
599.974	0.08
600.164	0.05
600.354	-0.03
600.544	0.01
600.734	0.03
600.924	0.06
601.114	0.02
601.303	0.01
601.493	0.01
601.683	0
601.873	0.03
602.063	-0.04
602.252	0.06
602.442	-0.03
602.632	0.01
602.821	-0.01
603.011	0.05
603.201	0
603.39	-0.02
603.58	-0.01
603.77	0.04
603.959	0.04
604.149	0.02
604.339	0
604.528	0.04
604.718	0.04
604.907	-0.01
605.097	-0
605.286	-0.03
605.476	0.04
605.665	0.02
605.855	-0
606.044	0.06
606.234	0.04
606.423	0.02
606.612	-0.01
606.802	0.03
606.991	0.03
607.181	0.05
607.37	-0.04
607.559	0.01
607.749	0
607.938	-0.01
608.127	0.01
608.316	0
608.506	0.03
608.695	-0
608.884	-0.02
609.073	0.02
609.263	0.02
609.452	0.02
609.641	0.01
609.83	-0.03
610.019	0.03
610.208	-0.02
610.397	0.01
610.586	0.05
610.775	-0.02
610.965	0.03
611.154	-0
611.343	0.03
611.532	0.01
611.721	-0.03
611.91	-0
612.099	0.03
612.287	0
612.476	-0.03
612.665	0.02
612.854	-0.01
613.043	0.07
613.232	-0
613.421	-0.04
613.61	0
613.798	-0.01
613.987	0.05
614.176	-0
614.365	0.05
614.554	0.01
614.742	0.05
614.931	-0.03
615.12	0.03
615.309	0.01
615.497	0.03
615.686	-0
615.875	0.01
616.063	0.01
616.252	-0.01
616.44	0.01
616.629	0.01
616.818	0.03
617.006	0.03
617.195	-0.01
617.383	0.04
617.572	0.03
617.76	0.02
617.949	-0.02
618.137	0.03
618.326	0.04
618.514	-0
618.703	0.01
618.891	0.07
619.079	-0.04
619.268	0.02
619.456	-0.03
619.644	0.08
619.833	0
620.021	0.04
620.209	-0.04
620.398	0.04
620.586	0.03
620.774	0.04
620.962	-0.02
621.151	0.05
621.339	-0.01
621.527	-0.02
621.715	-0.01
621.903	0
622.092	-0.04
622.28	0.03
622.468	-0
622.656	0.03
622.844	0.03
623.032	-0.02
623.22	-0.05
623.408	0.02
623.596	0.03
623.784	0.01
623.972	-0
624.16	0.02
624.348	0.07
624.536	0
624.724	-0.03
624.912	0.05
625.1	0.05
625.288	-0.01
625.476	-0.01
625.664	0.04
625.851	-0.02
626.039	0.01
626.227	0.04
626.415	0.02
626.603	-0.04
626.79	0.02
626.978	-0.01
627.166	0.04
627.354	0.01
627.541	-0.01
627.729	-0.06
627.917	0.05
628.104	0.02
628.292	0.01
628.48	0.02
628.667	0.01
628.855	0.05
629.042	0.02
629.23	-0.01
629.418	0.03
629.605	0.01
629.793	-0.01
629.98	-0.02
630.168	-0
630.355	0.02
630.543	0.03
630.73	0.01
630.917	0.05
631.105	0.08
631.292	-0.02
631.48	-0
631.667	0.08
631.854	0
632.042	-0
632.229	-0.05
632.416	0
632.604	0.03
632.791	-0.02
632.978	0.03
633.165	0.01
633.353	0.08
633.54	0.04
633.727	-0.05
633.914	-0
634.101	-0.06
634.289	0.05
634.476	-0
634.663	-0.01
634.85	0.04
635.037	-0.03
635.224	-0.05
635.411	0.07
635.598	0.06
635.785	0.01
635.972	0.01
636.159	0.05
636.346	-0.02
636.533	0.03
636.72	-0.01
636.907	-0.01
637.094	0.02
637.281	-0.01
637.468	0.01
637.655	-0
637.842	0.01
638.029	-0.04
638.215	0.04
638.402	0.01
638.589	-0.02
638.776	0.03
638.963	-0.01
639.149	0.06
639.336	0.06
639.523	0.01
639.709	0
639.896	0
640.083	0.08
640.27	-0.01
640.456	-0.02
640.643	-0
640.829	-0.01
641.016	-0
641.203	-0.05
641.389	0.03
641.576	0.01
641.762	0.01
641.949	-0.03
642.135	0.04
642.322	0.02
642.508	-0.06
642.695	0.02
642.881	-0.01
643.068	0.01
643.254	-0.02
643.441	0.03
643.627	0.01
643.813	-0.03
644	0.04
644.186	-0.01
644.372	0.03
644.559	0.03
644.745	0
644.931	-0.04
645.118	0.01
645.304	0.01
645.49	-0.03
645.676	0.01
645.862	0.05
646.049	0.07
646.235	-0.01
646.421	0.08
646.607	0.09
646.793	0
646.979	-0.01
647.165	0
647.352	-0
647.538	0.11
647.724	0.03
647.91	0.02
648.096	0.06
648.282	0.04
648.468	-0
648.654	0.02
648.84	0.02
649.026	-0.02
649.212	0.01
649.397	-0.04
649.583	-0.01
649.769	0.05
649.955	0.01
650.141	0.03
650.327	0.07
650.513	-0.02
650.698	0.05
650.884	-0.07
651.07	-0.01
651.256	0.03
651.442	0.02
651.627	-0
651.813	0.03
651.999	0.02
652.184	0.05
652.37	-0.05
652.556	-0.04
652.741	0.07
652.927	-0.05
653.113	0.03
653.298	0
653.484	0.01
653.669	-0.01
653.855	0.01
654.04	0.04
654.226	0.01
654.412	-0.01
654.597	-0.04
654.782	0.02
654.968	0.06
655.153	0.02
655.339	0.01
655.524	-0.05
655.71	0.07
655.895	-0.03
656.08	0.04
656.266	0.07
656.451	0.04
656.636	-0.05
656.822	0.01
657.007	-0.06
657.192	-0
657.378	-0.05
657.563	0.04
657.748	0.04
657.933	-0.01
658.118	-0.02
658.304	-0.02
658.489	0.05
658.674	-0.01
658.859	-0.03
659.044	0.02
659.229	0.05
659.414	0
659.599	-0.02
659.785	-0.04
659.97	-0.02
660.155	0.05
660.34	0.03
660.525	0.02
660.71	0.01
660.895	0.01
661.08	-0
661.264	-0.04
661.449	0.07
661.634	0.04
661.819	0.04
662.004	0.02
662.189	-0.07
662.374	-0.06
662.559	-0.01
662.743	-0.02
662.928	0.02
663.113	-0.02
663.298	-0.09
663.483	-0.01
663.667	-0.01
663.852	-0.04
664.037	0.03
664.221	-0.02
664.406	0.02
664.591	0.02
664.775	-0.01
664.96	-0
665.145	0.02
665.329	0.06
665.514	-0.02
665.698	0.03
665.883	-0.06
666.068	0.08
666.252	0.02
666.437	-0.06
666.621	0.01
666.806	0.04
666.99	0.03
667.174	-0.05
667.359	0.05
667.543	-0.03
667.728	0.02
667.912	-0.08
668.096	0.03
668.281	-0.02
668.465	-0.01
668.649	0.01
668.834	-0.01
669.018	0.01
669.202	-0.01
669.387	-0.06
669.571	0.08
669.755	-0.03
669.939	0
670.124	-0.02
670.308	0.06
670.492	0.03
670.676	0.01
670.86	0.04
671.044	-0.04
671.228	0.04
671.413	-0.03
671.597	-0.05
671.781	-0.04
671.965	0.05
672.149	0.01
672.333	0.01
672.517	-0.06
672.701	0.03
672.885	-0.01
673.069	-0.09
673.253	0.07
673.437	-0
673.621	-0.01
673.804	-0.03
673.988	0
674.172	0.02
674.356	-0.04
674.54	0
674.724	0.12
674.908	-0.01
675.091	0.04
675.275	0
675.459	0.04
675.643	0.07
675.826	0.03
676.01	0.01
676.194	-0.01
676.377	0.08
676.561	0.02
676.745	0.04
676.928	0.03
677.112	0.04
677.296	-0.04
677.479	0.01
677.663	-0.01
677.846	0.02
678.03	-0.03
678.213	-0.01
678.397	0.06
678.58	-0.04
678.764	-0.03
678.947	-0.03
679.131	-0.06
679.314	0
679.498	-0
679.681	0.01
679.865	0.04
680.048	0.02
680.231	-0
680.415	-0
680.598	-0.02
680.781	0.03
680.965	-0.02
681.148	0.03
681.331	-0.04
681.514	0.05
681.698	-0.03
681.881	0.02
682.064	0.04
682.247	0.05
682.43	-0.03
682.614	0.04
682.797	0.03
682.98	0.07
683.163	-0.02
683.346	0.01
683.529	-0.01
683.712	-0.05
683.895	0.03
684.078	-0.03
684.261	-0.02
684.444	0.03
684.627	0.01
684.81	-0.03
684.993	0.04
685.176	0.07
685.359	-0.04
685.542	-0.06
685.725	0.03
685.908	0.04
686.091	-0.01
686.274	0.06
686.457	0.05
686.639	0.03
686.822	0.02
687.005	-0.01
687.188	0.09
687.371	0.1
687.553	-0.01
687.736	0.05
687.919	0.06
688.102	0.11
688.284	-0.06
688.467	-0.03
688.65	0.01
688.832	0
689.015	0.02
689.197	-0.05
689.38	0.08
689.563	0.09
689.745	-0.06
689.928	0.02
690.11	0.03
690.293	0.02
690.475	-0.03
690.658	0.06
690.84	-0.03
691.023	-0.02
691.205	0.01
691.388	0.01
691.57	0
691.752	0.07
691.935	-0.06
692.117	-0
692.3	0.03
692.482	0.02
692.664	0.04
692.847	-0
693.029	0.05
693.211	0.04
693.393	-0.04
693.576	-0.02
693.758	0.03
693.94	0.04
694.122	-0.02
694.304	0.05
694.487	-0.02
694.669	0.09
694.851	-0.05
695.033	0.01
695.215	-0
695.397	-0
695.579	-0.02
695.761	-0.02
695.943	-0.06
696.125	0.06
696.308	0.01
696.49	-0.1
696.671	0.14
696.853	0.01
697.035	0.14
697.217	0.04
697.399	0.09
697.581	-0.02
697.763	-0.05
697.945	-0.01
698.127	0.02
698.309	0.11
698.491	0.01
698.672	0.08
698.854	0.05
699.036	0.1
699.218	-0.04
699.399	0.07
699.581	0.02
699.763	0.02
699.945	-0.06
700.126	-0.06
700.308	0.02
700.49	-0.02
700.671	-0.05
700.853	-0.03
701.035	-0
701.216	0.01
701.398	-0.07
701.579	-0
701.761	0.1
701.943	-0.06
702.124	-0.03
702.306	-0.02
702.487	0.12
702.669	0.02
702.85	-0.04
703.031	-0.08
703.213	0.06
703.394	0.08
703.576	-0.04
703.757	0.03
703.938	0.08
704.12	0.14
704.301	0.06
704.483	-0.05
704.664	0.05
704.845	0.12
705.026	0.07
705.208	0.01
705.389	0.02
705.57	0.02
705.751	0.01
705.933	-0.02
706.114	0.07
706.295	0.07
706.476	-0.03
706.657	0.1
706.838	0.07
707.02	0.09
707.201	-0.02
707.382	0
707.563	0.06
707.744	0.02
707.925	-0.05
708.106	-0.04
708.287	0.04
708.468	0.05
708.649	-0.03
708.83	0.03
709.011	0.04
709.192	0.06
709.373	-0.12
709.554	-0.01
709.734	0.05
709.915	0.06
710.096	-0.01
710.277	-0.05
710.458	0.01
710.639	0.14
710.819	-0.06
711	0.01
711.181	0.11
711.362	0.13
711.542	0.03
711.723	0.02
711.904	0.07
712.085	-0.02
712.265	0.07
712.446	-0.01
712.627	-0.05
712.807	0
712.988	0.03
713.168	-0.09
713.349	0.11
713.53	-0.18
713.71	-0.03
713.891	-0.14
714.071	0.08
714.252	-0.04
714.432	0.03
714.613	-0.07
714.793	0.02
714.974	0.08
715.154	0.02
715.334	0.1
715.515	0.11
715.695	-0.05
715.876	0.03
716.056	0.01
716.236	0.06
716.417	-0.04
716.597	-0.04
716.777	0.18
716.957	0.02
717.138	-0.01
717.318	0.02
717.498	-0.09
717.678	-0
717.859	0.05
718.039	-0.02
718.219	0.02
718.399	0.08
718.579	-0.07
718.759	-0.09
718.939	-0.05
719.12	-0.03
719.3	0.09
719.48	-0.14
719.66	-0.11
719.84	0.15
720.02	0
720.2	-0.03
720.38	-0.03
720.56	0.13
720.74	0
720.92	0.03
721.1	0.08
721.279	0.06
721.459	-0.02
721.639	-0.01
721.819	0.02
721.999	-0
722.179	0.09
722.359	-0.11
722.538	0.02
722.718	0.08
722.898	-0.02
723.078	0.01
723.257	0.02
723.437	-0
723.617	-0.01
723.797	-0.03
723.976	0.02
724.156	0.06
724.336	0.15
724.515	0.2
724.695	-0.04
724.874	0.01
725.054	0.16
725.234	-0.06
725.413	0.01
725.593	0.02
725.772	0.01
725.952	0.01
726.131	-0.02
726.311	0.01
726.49	0.01
726.67	-0.06
726.849	-0.1
727.028	0.05
727.208	0
727.387	0.04
727.567	-0.05
727.746	-0.01
727.925	-0.02
728.105	-0.12
728.284	-0.06
728.463	0.03
728.643	0.11
728.822	-0.04
729.001	-0.01
729.18	-0.04
729.359	0.07
729.539	-0.05
729.718	-0.04
729.897	0.12
730.076	-0.04
730.255	-0.16
730.434	0.04
730.614	0.1
730.793	0.11
730.972	0.01
731.151	0.04
731.33	0.13
731.509	0.1
731.688	0.01
731.867	0.01
732.046	-0.13
732.225	0.23
732.404	-0.08
732.583	-0.03
732.762	0.05
732.941	0.03
733.12	-0
733.298	0
733.477	0.14
733.656	-0.05
733.835	-0.1
734.014	0.11
734.193	-0.06
734.371	0.03
734.55	0.06
734.729	-0.09
734.908	0.04
735.086	0.09
735.265	0.11
735.444	-0.14
735.623	-0.05
735.801	-0.04
735.98	-0
736.159	0.01
736.337	0.07
736.516	0.03
736.694	0.15
736.873	-0.01
737.052	0.17
737.23	0.21
737.409	-0.02
737.587	0.19
737.766	-0.15
737.944	-0.07
738.123	0.05
738.301	0.08
738.479	0.03
738.658	-0.02
738.836	-0.16
739.015	-0.13
739.193	0.11
739.371	-0.11
739.55	-0.04
739.728	-0.05
739.906	0.2
740.085	0.19
740.263	-0
740.441	-0.13
740.62	0.14
740.798	-0
740.976	-0.04
741.154	-0.11
741.332	0.05
741.511	0.1
741.689	0.02
741.867	0.09
742.045	-0.02
742.223	-0.04
742.401	-0.1
742.579	-0.06
742.757	0.11
742.935	-0.17
743.114	-0.07
743.292	-0.14
743.47	0.08
743.648	-0.06
743.826	0.02
744.004	0.04
744.181	0
744.359	-0.03
744.537	0.02
744.715	-0.08
744.893	-0.12
745.071	-0
745.249	0.03
745.427	-0.05
745.605	0.04
745.782	0.06
745.96	0.13
746.138	-0.01
746.316	0.14
746.493	-0.08
746.671	0
746.849	-0.08
747.027	0.1
747.204	-0.05
747.382	0.14
747.56	-0.05
747.737	0.01
747.915	-0.02
748.093	0
748.27	-0.03
748.448	-0.02
748.625	-0.1
748.803	-0.07
748.98	-0.03
749.158	0.14
749.335	0.08
749.513	0.06
749.69	0.08
749.868	-0.11
750.045	0.01
750.223	-0.11
750.4	-0.18
750.578	0.16
750.755	-0.06
750.932	-0.19
751.11	0.09
751.287	-0.07
751.464	0.13
751.642	-0.06
751.819	0.08
751.996	0.12
752.173	-0.11
752.351	-0.16
752.528	0.01
752.705	0
752.882	0.02
753.06	0.11
753.237	0.1
753.414	0.17
753.591	0.16
753.768	0.03
753.945	-0.04
754.122	-0.11
754.299	0.03
754.476	-0.1
754.654	-0.01
754.831	0.04
755.008	-0.01
755.185	-0.02
755.362	-0.01
755.539	0.05
755.716	-0.13
755.892	-0.07
756.069	-0.11
756.246	0.05
756.423	-0.06
756.6	0.16
756.777	-0.06
756.954	0.22
757.131	-0.02
757.307	-0.07
757.484	-0.05
757.661	-0.01
757.838	0.06
758.015	-0.08
758.191	0.18
758.368	0.04
758.545	0.24
758.721	-0.02
758.898	-0.12
759.075	0.07
759.251	0.1
759.428	0.1
759.605	-0.09
759.781	0.01
759.958	0.06
760.134	0.14
760.311	-0.1
760.488	0.17
760.664	0.05
760.841	0.08
761.017	-0.11
761.194	0.11
761.37	0.11
761.547	0.03
761.723	-0
761.899	0.18
762.076	-0.12
762.252	-0.04
762.429	-0.11
762.605	0.14
762.781	-0
762.958	0.14
763.134	-0.07
763.31	-0.01
763.486	0.11
763.663	-0.13
763.839	-0.03
764.015	-0.21
764.191	-0.02
764.368	-0.04
764.544	-0.04
764.72	0.01
764.896	0.15
765.072	-0.03
765.248	-0.01
765.425	-0
765.601	-0.02
765.777	0.04
765.953	-0.37
766.129	-0.06
766.305	-0.16
766.481	0.05
766.657	0.09
766.833	0.13
767.009	-0.2
767.185	-0.1
767.361	-0.02
767.537	-0.05
767.713	0.21
767.889	-0.13
768.065	0.06
768.24	0.03
768.416	0.2
768.592	-0.01
768.768	-0.06
768.944	0.04
769.12	-0.09
769.295	-0.01
769.471	0.06
769.647	-0.06
769.823	0.24
769.998	-0.06
770.174	-0.18
770.35	0.3
770.525	0.33
770.701	-0.05
770.877	0.07
771.052	-0.17
771.228	0.17
771.403	0.06
771.579	0.12
771.755	0.15
771.93	-0.02
772.106	-0.14
772.281	-0.15
772.457	-0.01
772.632	0.12
772.808	-0.18
772.983	-0.12
773.159	-0.18
773.334	0.16
773.509	0.07
773.685	-0.12
773.86	0.24
774.036	0.31
774.211	0.05
774.386	-0.07
774.562	0.18
774.737	-0.04
774.912	-0.07
775.087	0.2
775.263	0.01
775.438	-0.01
775.613	-0.05
775.788	-0.14
775.964	0.16
776.139	0.42
776.314	-0.16
776.489	-0.04
776.664	0.08
776.839	-0.06
777.014	0.15
777.19	0.02
777.365	0.22
777.54	0.27
777.715	0.09
777.89	0.05
778.065	-0.16
778.24	-0.08
778.415	0.11
778.59	-0.1
778.765	0.01
778.94	0.02
779.115	-0.11
779.289	-0.1
779.464	0.14
779.639	-0.06
779.814	-0.1
779.989	-0.1
780.164	0.26
780.339	0.16
780.513	-0.16
780.688	-0.06
780.863	-0.1
781.038	0.21
781.212	-0.21
781.387	-0.02
781.562	0.33
781.737	0.06
781.911	0.22
782.086	-0
782.261	-0.08
782.435	0.23
782.61	0.05
782.784	-0.07
782.959	0.11
783.134	-0.18
783.308	-0.31
783.483	-0
783.657	0.46
783.832	-0.16
784.006	-0.47
784.181	-0
784.355	0.3
784.53	-0.34
784.704	-0.07
784.878	0.32
785.053	-0.05
785.227	0.25
785.402	0.16
785.576	-0.12
785.75	-0.04
785.925	0.01
786.099	-0.13
786.273	0.02
786.448	0.23
786.622	0.05
786.796	0.04
786.97	-0.17
787.145	0.66
787.319	-0.13
787.493	-0.11
787.667	-0.38
787.841	-0.02
788.015	0.43
788.19	-0.02
788.364	0.03
788.538	-0.04
788.712	0.32
788.886	0.13
789.06	0.07
789.234	0.11
789.408	-0.23
789.582	-0.01
789.756	-0.1
789.93	-0.11
790.104	0.01
790.278	-0.08
790.452	-0.03
790.626	0.14
790.8	0.02
790.973	0.19
791.147	0.34
791.321	0.18
791.495	0.18
791.669	-0.07
791.843	0.06
792.016	-0.13
792.19	0.4
792.364	-0.11
792.538	0.55
792.711	0.27
792.885	-0.11
793.059	-0.22
793.233	-0.11
793.406	0.38
793.58	0.1
793.754	0.08
793.927	-0.11
794.101	0.28
794.274	0.14
794.448	-0.07
794.622	-0.15
794.795	0.23
794.969	-0.4
795.142	0.19
795.316	-0.11
795.489	-0.04
795.663	0.28
795.836	0.07
796.009	-0.14
796.183	0.34
796.356	0.03
796.53	0.1
796.703	-0.06
796.876	0.26
797.05	-0.08
797.223	0.1
797.396	0.21
797.57	0.15
797.743	0.27
797.916	-0.13
798.09	-0.09
798.263	0.01
798.436	0.22
798.609	-0.19
798.782	-0.29
798.956	0.11
799.129	-0.27
799.302	-0.16
799.475	-0.29
799.648	0.09
799.821	-0.35
799.994	0.12
800.167	-0.56
800.34	-0
800.514	-0.13
800.687	-0.33
800.86	-0.09
801.033	-0.11
801.206	-0.06
801.379	-0.27
801.551	0.12
801.724	0.21
801.897	0.32
802.07	-0.24
802.243	-0.22
802.416	-0
802.589	0.05
802.762	0.03
802.935	0.02
803.107	0.4
803.28	0.32
803.453	0.44
803.626	-0.3
803.798	-0.16
803.971	-0.24
804.144	0.14
804.317	0.18
804.489	0.17
804.662	0.08
804.835	0.13
805.007	-0.45
805.18	0.54
805.353	0.28
805.525	-0.26
805.698	-0.18
805.87	0.36
806.043	0.39
806.215	-0.43
806.388	-0.32
806.56	0.23
806.733	0.37
806.905	-0.29
807.078	0.04
807.25	-0.09
807.423	0.32
807.595	0
807.768	-0.03
807.94	0.31
808.112	0.07
808.285	-0.12
808.457	-0.23
808.629	-0.11
808.802	0.24
808.974	0.07
809.146	-0.54
809.318	-0.14
809.491	-0.08
809.663	0.04
809.835	-0.01
810.007	0.18
810.18	-0.15
810.352	-0.53
810.524	-0.15
810.696	-0.16
810.868	0.47
811.04	-0.23
811.212	0.41
811.384	0.31
811.556	0.26
811.728	-0.26
811.901	0.52
812.073	-0.18
812.245	0.01
812.417	-0.01
812.589	-0.7
812.76	0.42
812.932	0.05
813.104	0.22
813.276	-0.02
813.448	0.63
813.62	-0.1
813.792	-0.09
813.964	-0.1
814.136	0.09
814.307	0.05
814.479	-0.29
814.651	0.03
814.823	0.7
814.995	-0.24
815.166	-0.06
815.338	-0.21
815.51	-0.89
815.681	0.55
815.853	-0.41
816.025	0.18
816.196	0.68
816.368	0.34
816.54	-0.33
816.711	-0.11
816.883	0.27
817.054	0.72
817.226	-0.7
817.398	-0.02
817.569	-0.34
817.741	0.22
817.912	-0.31
818.084	-0.26
818.255	0.27
818.426	-0.17
818.598	-0.44
818.769	-0.49
818.941	-0.04
819.112	0.15
819.283	-0.01
819.455	-0.56
819.626	0.16
819.798	0.24
819.969	0.12
820.14	-0.16
820.311	-0.18
820.483	0.13
820.654	0.06
820.825	0.19
820.996	-0.32
821.168	-0.62
821.339	-0.05
821.51	-0.38
821.681	-0.31
821.852	-0.46
822.023	-0.53
822.195	-0.8
822.366	0.41
822.537	-0.05
822.708	-0.02
822.879	-0.64
823.05	0.41
823.221	-0.34
823.392	0.21
823.563	0.08
823.734	0.1
823.905	0.08
824.076	0.05
824.247	-0.34
824.418	-0.16
824.589	0.74
824.759	-0.06
824.93	0.13
825.101	-0.77
825.272	0.51
825.443	0.19
825.614	0.29
825.784	-0.8
825.955	0.53
826.126	0.59
826.297	0.21
826.467	0.69
826.638	0.56
826.809	-1.17
826.98	-0.17
827.15	-0.12
827.321	-0.15
827.492	0.65
827.662	0
827.833	0.83
828.003	0.2
828.174	-0.41
828.345	-0.45
828.515	1.08
828.686	-0.09
828.856	-0.27
829.027	-0.23
829.197	0.43
829.368	0.44
829.538	-0.45
829.709	-0.46
829.879	0.35
830.049	0.25
830.22	-0.3
830.39	0.03
830.56	0.58
830.731	-0.61
830.901	-1.2
831.072	-0.13
831.242	0.48
831.412	0.04
831.582	-0.13
831.753	-0.8
831.923	0.19
832.093	0.04
832.263	0.28
832.434	-0.93
832.604	-0.16
832.774	0.83
832.944	0.21
833.114	-0.22
833.284	0.05
833.454	-0.42
833.624	-0.32
833.795	-0.26
833.965	0.76
834.135	0.59
834.305	-0.91
834.475	-0.88
834.645	-0.08
834.815	-0.38
834.985	-0.61
835.155	-0.63
835.325	0.2
835.494	0.47
835.664	0.23
835.834	-0.92
836.004	0.22
836.174	0.06
836.344	0.35
836.514	-0.92
836.684	-0.46
836.853	-0.15
837.023	0.16
837.193	-0.04
837.363	0.8
837.532	0.66
837.702	-0.39
837.872	-0.56
838.041	0.81
838.211	1.55
838.381	-0.49
838.55	-0.33
838.72	0.99
838.89	1.34
839.059	-0.27
839.229	-0.5
839.398	1.71
839.568	-0.32
839.738	0.09
839.907	0.42
840.077	-0.67
840.246	-0.52
840.416	-0.8
840.585	-0.97
840.755	1.53
840.924	-0.08
841.093	-0.38
841.263	0.2
841.432	0.03
841.602	-0.98
841.771	-0.93
841.94	0.21
842.11	2.04
842.279	1.07
842.448	-0.22
842.617	-0.69
842.787	1.2
842.956	-1.26
843.125	-0.19
843.294	0.55
843.464	0.93
843.633	-0.31
843.802	-1.48
843.971	0.16
844.14	0.33
844.309	0.75
844.479	-1.11
844.648	-0.9
844.817	-0.55
844.986	-0.29
845.155	-0.88
845.324	-0.37
845.493	-0.79
845.662	-0.39
845.831	0.29
846	0.06
846.169	-0.89
846.338	0.97
846.507	0.19
846.676	-0.1
846.844	-0.93
847.013	-0.06
847.182	-0.2
847.351	-0.57
847.52	-0.06
847.689	0.69
847.858	-0.15
848.026	-0.59
848.195	0.17
848.364	-0.74
848.533	-1
848.701	-0.01
848.87	0.77
849.039	0.95
849.207	1.05
849.376	1.08
849.545	0.65
849.713	-0.03
849.882	-0.03
850.051	-0.13
850.219	0.22
850.388	0.59
850.556	-1.23
850.725	-0.24
850.893	-0.47
851.062	-0.66
851.23	-0.35
851.399	-1.85
851.567	-0.73
851.736	-0.1
851.904	-1.25
852.073	0.38
852.241	0.46
852.41	-0.04
852.578	-0.82
852.746	-0.18
852.915	0.7
853.083	0.01
853.251	-1.13
853.42	0.23
853.588	0.12
853.756	0.68
853.924	1.38
854.093	0.11
854.261	-0.35
854.429	-0.99
854.597	0.18
854.765	-1.43
854.934	1.43
855.102	0.94
855.27	-0.85
855.438	0.02
855.606	1.3
855.774	1.41
855.942	-1.69
856.11	-1.53
856.278	-0.74
856.446	1.25
856.614	-0.28
856.782	-0.44
856.95	1.22
857.118	1.12
857.286	-0.56
857.454	-0.95
857.622	1.46
857.79	0.64
857.958	-0.9
858.126	-0.3
858.294	-2.58
858.462	-0.14
858.629	-1.04
858.797	-1.45
858.965	0.38
859.133	0.85
859.301	-0.19
859.468	-0.14
859.636	-0.37
859.804	1.87
859.971	-0.22
860.139	-0.82
860.307	1
860.474	0.73
860.642	-0.91
860.81	-1.46
860.977	-1.64
861.145	-0.14
861.313	-0.35
861.48	-0.88
861.648	2.34
861.815	-1.27
861.983	-1.59
862.15	0.08
862.318	1.59
862.485	1.6
862.653	-0.41
862.82	-0.63
862.988	1.61
863.155	2.64
863.322	-1.26
863.49	-1.62
863.657	-1.49
863.824	1.35
863.992	1.41
864.159	0.3
864.326	0.62
864.494	-1.39
864.661	2.23
864.828	-1.44
864.996	0.83
865.163	1.01
865.33	-1.68
865.497	-2.9
865.664	-1.2
865.832	-2.53
865.999	-1.26
866.166	-1.44
866.333	-2.09
866.5	-1.22
866.667	-0.16
866.834	-0.35
867.001	1.39
867.168	-0.83
867.335	1.19
867.502	-2.38
867.669	0.91
867.836	1.87
868.003	-0.9
868.17	1.29
868.337	2.74
868.504	2.82
868.671	-1.7
868.838	-0.71
869.005	-0.08
869.172	1.55
869.339	0.35
869.505	-1.05
869.672	-0.64
869.839	2.19
870.006	0.28
870.173	-1.88
870.339	-0.12
870.506	2.06
870.673	-2.74
870.84	0.61
871.006	0.44
871.173	-0.45
871.34	-0.76
871.506	0.02
871.673	-0.4
871.839	-1.59
872.006	-0.38
872.173	-0.73
872.339	0.97
872.506	1.22
872.672	-1.29
872.839	-2.24
873.005	-0.19
873.172	3.28
873.338	2.43
873.505	-1.06
873.671	0.26
873.838	0.45
874.004	-2.2
874.171	-0.67
874.337	0.16
874.503	1.09
874.67	-1.78
874.836	-2.06
875.002	1.75
875.169	2.28
875.335	0.51
875.501	-0.82
875.668	1.66
875.834	-0.75
876	-1.64
876.166	0.94
876.332	-0.53
876.499	2.79
876.665	-1.19
876.831	-0.85
876.997	2.59
877.163	-0.01
877.329	-0.98
877.495	-0.61
877.662	0.54
877.828	1.69
877.994	-0.62
878.16	-1.69
878.326	-2.15
878.492	-0.51
878.658	-3.12
878.824	0.19
878.99	1.76
879.156	-0.98
879.322	2.59
879.487	-1.65
879.653	-0.46
879.819	2.34
879.985	-1.51
880.151	0.05
880.317	-0.5
880.483	1.2
880.648	-0.44
880.814	-2.19
880.98	-0.63
881.146	-4.42
881.312	-1.02
881.477	-2
881.643	-2
881.809	3.06
881.974	0.87
882.14	-2.08
882.306	1.03
882.471	2.46
882.637	-1.17
882.803	-0.23
882.968	3.13
883.134	2.7
883.299	-2.37
883.465	-0.63
883.63	1.99
883.796	2.06
883.961	1.65
884.127	0.21
884.292	-3.5
884.458	-3.2
884.623	-3.2
