Data from Apollo_Calib_20240827__AbsoluteIrradiance__369__05-18-00-723.txt Node

Date: Wed Aug 28 05:18:00 BST 2024
User: biology
Spectrometer: FLMT08252
Trigger mode: 0
Integration Time (sec): 5.000000E-1
Scans to average: 5
Electric dark correction enabled: true
Nonlinearity correction enabled: false
Boxcar width: 0
XAxis mode: Wavelengths
Number of Pixels in Spectrum: 3648
>>>>>Begin Spectral Data<<<<<
179.588	-0
179.809	-0
180.03	-0
180.251	-0
180.473	-0
180.694	0
180.915	0
181.136	-0
181.357	0
181.578	-0
181.799	0
182.02	-0
182.241	-0
182.462	-0
182.683	0
182.904	-0
183.125	-0
183.346	0
183.567	0
183.788	0
184.009	-0
184.23	0
184.451	0
184.672	-0
184.892	-0
185.113	0
185.334	0
185.555	-0
185.776	0
185.996	0
186.217	0
186.438	0
186.659	-0
186.879	0
187.1	0
187.321	0
187.541	0
187.762	0
187.983	0
188.203	0
188.424	0
188.644	0
188.865	0
189.086	-0
189.306	0
189.527	0
189.747	0
189.968	0
190.188	0
190.409	0
190.629	0
190.849	0
191.07	-0
191.29	0
191.511	0
191.731	-0
191.951	0
192.172	0
192.392	0
192.612	0
192.833	0
193.053	0
193.273	0
193.493	0
193.714	0
193.934	0
194.154	0
194.374	0
194.594	0
194.815	0
195.035	0
195.255	0
195.475	-0
195.695	0
195.915	0
196.135	0
196.355	0
196.575	0
196.795	0
197.015	-0
197.235	0
197.455	0
197.675	0
197.895	0
198.115	-0
198.335	0
198.555	0
198.775	0
198.995	0
199.214	0
199.434	0
199.654	0
199.874	0
200.094	1.77
200.313	0.95
200.533	0.39
200.753	-0.3
200.973	1.95
201.192	1
201.412	-0.13
201.632	0.14
201.851	1.69
202.071	0.24
202.291	0.26
202.51	0.52
202.73	0.93
202.95	0.47
203.169	-0.17
203.389	0.36
203.608	0.47
203.828	0.35
204.047	0.09
204.267	0.87
204.486	0.32
204.706	0.69
204.925	0.53
205.145	0.33
205.364	0.85
205.583	1.23
205.803	0.03
206.022	-0.05
206.242	0.28
206.461	0.21
206.68	0.15
206.9	0.8
207.119	1.2
207.338	0.83
207.557	0.24
207.777	0.11
207.996	0.53
208.215	0.79
208.434	0.3
208.654	-0.03
208.873	0.39
209.092	0.96
209.311	-0.01
209.53	0.24
209.749	0.43
209.968	0.41
210.187	0.45
210.407	0.01
210.626	0.37
210.845	0.44
211.064	0.5
211.283	-0.04
211.502	0.72
211.721	0.32
211.94	0.46
212.159	0.58
212.377	0.64
212.596	0.75
212.815	0.38
213.034	0.45
213.253	0.38
213.472	0.48
213.691	0.21
213.91	0.07
214.128	0.17
214.347	0.69
214.566	-0.08
214.785	-0.15
215.003	0.49
215.222	0.47
215.441	0.23
215.66	0.04
215.878	0.36
216.097	0.59
216.316	0.13
216.534	0.15
216.753	0.35
216.972	0.15
217.19	0.02
217.409	0.12
217.627	0.15
217.846	0.23
218.064	0.25
218.283	0.15
218.501	0.85
218.72	0.46
218.938	0.07
219.157	0.12
219.375	0.39
219.594	0.37
219.812	-0.14
220.031	0.15
220.249	0.69
220.467	0.52
220.686	0.22
220.904	0.09
221.122	0.02
221.341	0.61
221.559	0.23
221.777	-0.05
221.995	0.18
222.214	0.34
222.432	0.07
222.65	0.22
222.868	0.36
223.086	0.27
223.305	0.38
223.523	0.22
223.741	0.49
223.959	0.17
224.177	-0.12
224.395	0.12
224.613	0.28
224.831	0.43
225.049	-0.15
225.267	-0.04
225.485	0.05
225.703	0.23
225.921	0.15
226.139	0.15
226.357	0.39
226.575	0.25
226.793	0.12
227.011	0.8
227.229	0.23
227.447	0.36
227.665	0.07
227.883	-0.14
228.1	0.2
228.318	0.22
228.536	-0.08
228.754	0.06
228.972	0.22
229.189	0.27
229.407	0.14
229.625	0.19
229.843	0.38
230.06	0.2
230.278	0.13
230.496	0.12
230.713	0.32
230.931	0.41
231.149	0.21
231.366	-0.09
231.584	0.24
231.801	0.51
232.019	0.08
232.236	-0.04
232.454	0.05
232.671	0.24
232.889	0.19
233.106	0.08
233.324	0.22
233.541	0.15
233.759	0.15
233.976	0.08
234.194	0.14
234.411	0.11
234.628	0.18
234.846	0.1
235.063	0.1
235.28	0.18
235.498	0.05
235.715	-0.01
235.932	0.31
236.149	0.21
236.367	0.04
236.584	0.25
236.801	0.12
237.018	0.32
237.236	0.06
237.453	0.07
237.67	0.28
237.887	0.16
238.104	0.16
238.321	0.08
238.538	0.02
238.755	0.28
238.973	0.06
239.19	0.15
239.407	0.27
239.624	0.19
239.841	0.04
240.058	0.15
240.275	0.22
240.492	0.19
240.709	0.11
240.925	0.12
241.142	0.11
241.359	0.08
241.576	-0.01
241.793	0.06
242.01	0.06
242.227	0.31
242.444	0.19
242.66	0.27
242.877	0.16
243.094	0.09
243.311	0.24
243.527	0.08
243.744	0.17
243.961	0.2
244.178	0.13
244.394	0.11
244.611	0.34
244.828	0.34
245.044	0.04
245.261	0.05
245.477	0.25
245.694	0.09
245.911	0.11
246.127	0.16
246.344	0.28
246.56	0.19
246.777	0.07
246.993	0.09
247.21	0.14
247.426	0.13
247.643	0.08
247.859	0.02
248.076	0.09
248.292	0.24
248.508	-0
248.725	0.12
248.941	0.12
249.157	0.23
249.374	0.13
249.59	0.16
249.806	0.11
250.023	0.19
250.239	0.17
250.455	0.02
250.671	0.15
250.888	0.14
251.104	0.24
251.32	0.05
251.536	0.19
251.752	0.14
251.969	0.2
252.185	0.1
252.401	0.36
252.617	0.24
252.833	0.13
253.049	0.15
253.265	0.13
253.481	0.17
253.697	0.09
253.913	0.03
254.129	0.19
254.345	0.15
254.561	0.07
254.777	0.17
254.993	0.18
255.209	0.1
255.425	0.11
255.641	0.02
255.857	0.23
256.073	0.11
256.288	-0
256.504	0.02
256.72	0.16
256.936	0.28
257.152	0.16
257.367	0.12
257.583	0.11
257.799	0.21
258.015	0.03
258.23	0.15
258.446	0.28
258.662	0.15
258.877	0.14
259.093	-0
259.309	0.18
259.524	0.18
259.74	0.08
259.955	0.05
260.171	0.13
260.387	0.14
260.602	0.18
260.818	0.17
261.033	0.1
261.249	0.1
261.464	-0.03
261.68	-0.05
261.895	0.15
262.11	0.17
262.326	0.07
262.541	0.05
262.757	0.21
262.972	0.17
263.187	0.16
263.403	0.14
263.618	0.21
263.833	0.06
264.049	0.04
264.264	0.09
264.479	0.14
264.694	0.22
264.91	0.02
265.125	0.11
265.34	0.2
265.555	0.31
265.77	0.09
265.986	0.11
266.201	0.24
266.416	0.22
266.631	0.1
266.846	0.12
267.061	0.14
267.276	0.13
267.491	-0.02
267.706	0.1
267.921	0.13
268.136	0.13
268.351	0.19
268.566	0.01
268.781	0.2
268.996	0.15
269.211	0.11
269.426	0.04
269.641	0.13
269.856	0.18
270.071	0.1
270.285	0.07
270.5	0.18
270.715	0.15
270.93	0.09
271.145	0.15
271.359	0.16
271.574	0.02
271.789	0.09
272.004	0.08
272.218	0.15
272.433	0.22
272.648	0.07
272.862	0.15
273.077	0.12
273.292	0.15
273.506	0.07
273.721	0.11
273.936	0.24
274.15	0.17
274.365	0.1
274.579	0.13
274.794	0.15
275.008	0.22
275.223	0.04
275.437	0.06
275.652	0.17
275.866	0.2
276.081	0.11
276.295	0.21
276.509	0.14
276.724	0.15
276.938	0.12
277.153	0.11
277.367	0.11
277.581	0.06
277.796	0.11
278.01	0.04
278.224	0.18
278.438	0.24
278.653	0.03
278.867	0.1
279.081	0.23
279.295	0.17
279.51	0.12
279.724	0.05
279.938	0.2
280.152	0.16
280.366	0.07
280.58	0.14
280.794	0.22
281.008	0.15
281.222	0.15
281.437	0.28
281.651	0.17
281.865	0.23
282.079	0.11
282.293	0.03
282.507	0.07
282.721	0.11
282.935	0.13
283.148	-0.01
283.362	0.07
283.576	0.09
283.79	0.14
284.004	0.06
284.218	0.22
284.432	0.11
284.646	0.12
284.859	0.09
285.073	0.08
285.287	0.15
285.501	0.11
285.714	0.08
285.928	0.12
286.142	0.17
286.356	0.05
286.569	0.09
286.783	0.22
286.997	0.12
287.21	0.11
287.424	0.11
287.637	0.12
287.851	0.16
288.065	0.13
288.278	0.08
288.492	0.15
288.705	0.11
288.919	0.16
289.132	0.03
289.346	0.13
289.559	0.05
289.773	0.04
289.986	0.11
290.2	0.12
290.413	0.18
290.626	0.05
290.84	0.08
291.053	0.15
291.267	0.16
291.48	0.1
291.693	0.1
291.906	0.05
292.12	0.13
292.333	0.07
292.546	0.13
292.76	0.21
292.973	0.15
293.186	0.14
293.399	0.06
293.612	0.18
293.826	0.08
294.039	0.13
294.252	0.09
294.465	0.17
294.678	0.14
294.891	0.1
295.104	0.07
295.317	0.14
295.53	0.12
295.743	0.07
295.956	0.08
296.169	0.2
296.382	0.13
296.595	0.11
296.808	0.07
297.021	0.18
297.234	0.17
297.447	0.14
297.66	0.14
297.873	0.17
298.086	0.14
298.299	0.06
298.511	0.06
298.724	0.09
298.937	0.08
299.15	0.07
299.363	0.12
299.575	0.14
299.788	0.13
300.001	0.09
300.213	0.1
300.426	0.08
300.639	0.08
300.852	0.08
301.064	0.11
301.277	0.21
301.489	0.16
301.702	0.1
301.915	0.08
302.127	0.1
302.34	0.12
302.552	0.16
302.765	0.09
302.977	0.16
303.19	0.09
303.402	0.07
303.615	0.09
303.827	0.12
304.04	0.1
304.252	0.17
304.464	0.1
304.677	0.26
304.889	0.21
305.102	0.11
305.314	0.06
305.526	0.16
305.739	0.15
305.951	0.08
306.163	0.11
306.375	0.2
306.588	0.09
306.8	0.09
307.012	0.04
307.224	0.16
307.436	0.23
307.649	0.07
307.861	0.11
308.073	0.15
308.285	0.09
308.497	0.09
308.709	0.05
308.921	0.14
309.133	0.21
309.346	0.15
309.558	0.11
309.77	0.13
309.982	0.19
310.194	0.16
310.406	0.12
310.617	0.19
310.829	0.14
311.041	0.13
311.253	0.07
311.465	0.1
311.677	0.16
311.889	0.14
312.101	0.09
312.313	0.14
312.524	0.18
312.736	0.06
312.948	0.1
313.16	0.22
313.372	0.16
313.583	0.16
313.795	0.12
314.007	0.14
314.218	0.16
314.43	0.1
314.642	0.09
314.853	0.06
315.065	0.14
315.277	0.08
315.488	0.13
315.7	0.16
315.912	0.17
316.123	0.14
316.335	0.13
316.546	0.23
316.758	0.15
316.969	0.07
317.181	0.12
317.392	0.13
317.604	0.16
317.815	0.05
318.026	0.12
318.238	0.05
318.449	0.15
318.661	0.06
318.872	0.04
319.083	0.07
319.295	0.13
319.506	0.11
319.717	0.15
319.929	0.13
320.14	0.16
320.351	0.15
320.562	0.06
320.774	0.15
320.985	0.14
321.196	0.06
321.407	0.06
321.618	0.17
321.829	0.13
322.041	0.18
322.252	0.09
322.463	0.22
322.674	0.14
322.885	0.06
323.096	0.1
323.307	0.14
323.518	0.15
323.729	0.07
323.94	0.08
324.151	0.15
324.362	0.16
324.573	0.13
324.784	0.1
324.995	0.16
325.206	0.15
325.417	0.15
325.628	0.16
325.838	0.13
326.049	0.1
326.26	0.12
326.471	0.09
326.682	0.14
326.892	0.12
327.103	0.02
327.314	0.09
327.525	0.18
327.735	0.1
327.946	0.16
328.157	0.12
328.368	0.16
328.578	0.09
328.789	0.23
328.999	0.15
329.21	0.11
329.421	0.14
329.631	0.06
329.842	0.04
330.052	0.16
330.263	0.17
330.473	0.14
330.684	0.1
330.894	0.13
331.105	0.12
331.315	0.18
331.526	0.04
331.736	0.2
331.947	0.15
332.157	0.14
332.367	0.05
332.578	0.15
332.788	0.17
332.999	0.14
333.209	0.11
333.419	0.1
333.629	0.13
333.84	0.15
334.05	0.16
334.26	0.19
334.47	0.11
334.681	0.18
334.891	0.11
335.101	0.15
335.311	0.21
335.521	0.13
335.732	0.08
335.942	0.2
336.152	0.16
336.362	0.14
336.572	0.13
336.782	0.13
336.992	0.11
337.202	0.11
337.412	0.12
337.622	0.12
337.832	0.13
338.042	0.11
338.252	0.09
338.462	0.09
338.672	0.13
338.882	0.08
339.092	0.08
339.302	0.19
339.511	0.15
339.721	0.08
339.931	0.1
340.141	0.15
340.351	0.21
340.561	0.13
340.77	0.1
340.98	0.15
341.19	0.13
341.4	0.09
341.609	0.11
341.819	0.14
342.029	0.12
342.238	0.15
342.448	0.09
342.658	0.16
342.867	0.19
343.077	0.16
343.286	0.12
343.496	0.17
343.706	0.13
343.915	0.11
344.125	0.12
344.334	0.12
344.544	0.08
344.753	0.09
344.963	0.1
345.172	0.07
345.381	0.05
345.591	0.11
345.8	0.11
346.01	0.2
346.219	0.18
346.428	-0.02
346.638	0.11
346.847	0.14
347.056	0.2
347.266	0.08
347.475	0.08
347.684	0.16
347.893	0.16
348.103	0.13
348.312	0.14
348.521	0.1
348.73	0.14
348.94	0.16
349.149	0.09
349.358	0.09
349.567	0.08
349.776	0.05
349.985	0.1
350.194	0.15
350.403	0.19
350.612	0.11
350.821	0.12
351.03	0.15
351.239	0.05
351.448	0.13
351.657	0.1
351.866	0.2
352.075	0.16
352.284	0.17
352.493	0.06
352.702	0.21
352.911	0.11
353.12	0.14
353.329	0.09
353.538	0.13
353.746	0.11
353.955	0.06
354.164	0.13
354.373	0.09
354.582	0.16
354.79	0.18
354.999	0.19
355.208	0.11
355.416	0.18
355.625	0.07
355.834	0.13
356.042	0.12
356.251	0.08
356.46	0.09
356.668	0.14
356.877	0.2
357.085	0.17
357.294	-0.01
357.503	0.13
357.711	0.15
357.92	0.29
358.128	0.14
358.337	0.11
358.545	0.13
358.754	0.1
358.962	0.17
359.17	0.09
359.379	0.1
359.587	0.12
359.796	0.13
360.004	0.16
360.212	0.11
360.421	0.18
360.629	0.06
360.837	0.14
361.046	0.18
361.254	0.26
361.462	0.14
361.67	0.11
361.879	0.12
362.087	0.17
362.295	0.12
362.503	0.15
362.711	0.04
362.92	0.07
363.128	0.07
363.336	0.06
363.544	0.08
363.752	0.13
363.96	0.09
364.168	0.04
364.376	0.09
364.584	0.15
364.792	0.2
365	0.13
365.208	0.14
365.416	0.15
365.624	0.16
365.832	0.09
366.04	0.2
366.248	0.13
366.456	0.13
366.664	0.14
366.872	0.13
367.079	0.1
367.287	0.11
367.495	0.17
367.703	0.12
367.911	0.11
368.118	0.12
368.326	0.14
368.534	0.08
368.742	0.2
368.949	0.05
369.157	0.08
369.365	0.15
369.572	0.1
369.78	0.09
369.988	0.16
370.195	0.17
370.403	0.17
370.61	0.09
370.818	0.11
371.026	0.2
371.233	0.07
371.441	0.16
371.648	0.1
371.856	0.15
372.063	0.12
372.271	0.12
372.478	0.09
372.685	0.16
372.893	0.14
373.1	0.12
373.308	0.13
373.515	0.23
373.722	0.15
373.93	0.09
374.137	0.17
374.344	0.2
374.552	0.11
374.759	0.18
374.966	0.16
375.173	0.09
375.381	0.15
375.588	0.13
375.795	0.08
376.002	0.11
376.209	0.12
376.417	0.11
376.624	0.13
376.831	0.14
377.038	0.13
377.245	0.04
377.452	0.14
377.659	0.12
377.866	0.11
378.073	0.13
378.28	0.12
378.487	0.18
378.694	0.16
378.901	0.12
379.108	0.11
379.315	0.19
379.522	0.23
379.729	0.16
379.936	0.12
380.143	0.15
380.35	0.15
380.557	0.12
380.763	0.13
380.97	0.18
381.177	0.17
381.384	0.17
381.591	0.08
381.797	0.14
382.004	0.16
382.211	0.17
382.418	0.15
382.624	0.13
382.831	0.15
383.038	0.12
383.244	0.16
383.451	0.15
383.658	0.15
383.864	0.13
384.071	0.13
384.277	0.22
384.484	0.09
384.69	0.17
384.897	0.13
385.103	0.13
385.31	0.12
385.516	0.11
385.723	0.09
385.929	0.11
386.136	0.17
386.342	0.19
386.549	0.16
386.755	0.24
386.961	0.15
387.168	0.14
387.374	0.12
387.58	0.18
387.787	0.18
387.993	0.17
388.199	0.11
388.406	0.11
388.612	0.14
388.818	0.12
389.024	0.09
389.231	0.18
389.437	0.23
389.643	0.19
389.849	0.14
390.055	0.19
390.261	0.13
390.467	0.2
390.674	0.15
390.88	0.17
391.086	0.15
391.292	0.08
391.498	0.17
391.704	0.16
391.91	0.16
392.116	0.11
392.322	0.08
392.528	0.17
392.734	0.15
392.94	0.17
393.146	0.13
393.352	0.18
393.557	0.15
393.763	0.13
393.969	0.21
394.175	0.18
394.381	0.18
394.587	0.12
394.792	0.16
394.998	0.22
395.204	0.21
395.41	0.13
395.615	0.19
395.821	0.22
396.027	0.23
396.233	0.13
396.438	0.16
396.644	0.27
396.85	0.2
397.055	0.17
397.261	0.17
397.466	0.28
397.672	0.22
397.878	0.24
398.083	0.22
398.289	0.18
398.494	0.23
398.7	0.23
398.905	0.08
399.111	0.21
399.316	0.13
399.522	0.21
399.727	0.19
399.932	0.17
400.138	0.17
400.343	0.21
400.549	0.2
400.754	0.19
400.959	0.22
401.165	0.19
401.37	0.19
401.575	0.32
401.78	0.23
401.986	0.18
402.191	0.18
402.396	0.22
402.601	0.28
402.807	0.26
403.012	0.26
403.217	0.22
403.422	0.25
403.627	0.26
403.832	0.2
404.037	0.28
404.243	0.28
404.448	0.17
404.653	0.23
404.858	0.31
405.063	0.29
405.268	0.24
405.473	0.27
405.678	0.19
405.883	0.41
406.088	0.29
406.293	0.19
406.498	0.24
406.703	0.25
406.907	0.24
407.112	0.22
407.317	0.32
407.522	0.33
407.727	0.26
407.932	0.33
408.136	0.39
408.341	0.34
408.546	0.32
408.751	0.32
408.956	0.31
409.16	0.4
409.365	0.37
409.57	0.36
409.774	0.37
409.979	0.45
410.184	0.44
410.388	0.4
410.593	0.47
410.798	0.42
411.002	0.4
411.207	0.51
411.411	0.5
411.616	0.48
411.82	0.49
412.025	0.55
412.229	0.54
412.434	0.61
412.638	0.56
412.843	0.59
413.047	0.58
413.252	0.57
413.456	0.62
413.66	0.69
413.865	0.63
414.069	0.76
414.273	0.71
414.478	0.74
414.682	0.73
414.886	0.76
415.091	0.73
415.295	0.79
415.499	0.89
415.703	0.91
415.908	0.97
416.112	0.88
416.316	1.11
416.52	1.05
416.724	0.98
416.929	1.05
417.133	1.36
417.337	1.09
417.541	1.24
417.745	1.24
417.949	1.4
418.153	1.38
418.357	1.42
418.561	1.62
418.765	1.52
418.969	1.68
419.173	1.78
419.377	1.75
419.581	1.96
419.785	1.91
419.989	1.95
420.193	2.06
420.397	2.14
420.601	2.25
420.804	2.42
421.008	2.34
421.212	2.47
421.416	2.46
421.62	2.53
421.823	2.65
422.027	2.73
422.231	2.81
422.435	2.82
422.638	2.91
422.842	3
423.046	3.05
423.249	3.25
423.453	3.32
423.657	3.46
423.86	3.59
424.064	3.69
424.268	3.88
424.471	3.9
424.675	4.14
424.878	4.16
425.082	4.31
425.285	4.71
425.489	4.64
425.692	4.75
425.896	4.8
426.099	5.15
426.303	5.19
426.506	5.44
426.71	5.72
426.913	5.84
427.116	6.12
427.32	6.18
427.523	6.3
427.726	6.6
427.93	6.73
428.133	7.2
428.336	7.38
428.54	7.67
428.743	7.91
428.946	8.18
429.149	8.18
429.353	8.33
429.556	8.46
429.759	8.59
429.962	8.81
430.165	8.99
430.368	8.66
430.571	8.83
430.775	9
430.978	8.94
431.181	9.12
431.384	9.21
431.587	9.44
431.79	9.9
431.993	9.76
432.196	10.21
432.399	10.77
432.602	10.91
432.805	11.16
433.008	11.71
433.211	11.62
433.414	12.22
433.616	12.16
433.819	12.14
434.022	12.55
434.225	12.73
434.428	12.75
434.631	13.42
434.833	13.16
435.036	13.61
435.239	13.88
435.442	13.97
435.645	14.35
435.847	14.55
436.05	15.04
436.253	15.31
436.455	15.48
436.658	15.34
436.861	15.81
437.063	16.02
437.266	16.23
437.468	16.64
437.671	17.11
437.874	17.31
438.076	17.35
438.279	18.14
438.481	18.25
438.684	19.42
438.886	18.9
439.089	19.6
439.291	19.68
439.494	20.25
439.696	20.78
439.899	21.78
440.101	22.38
440.303	22.75
440.506	24.1
440.708	23.86
440.91	24.31
441.113	24.68
441.315	25.4
441.517	25.37
441.72	26.29
441.922	26.01
442.124	25.9
442.326	26.75
442.529	27.16
442.731	27.39
442.933	28.24
443.135	28.13
443.337	28.34
443.539	29.47
443.742	29.14
443.944	30.34
444.146	30.2
444.348	30.33
444.55	30.38
444.752	30.89
444.954	31.16
445.156	31.36
445.358	32.21
445.56	32.53
445.762	32.55
445.964	33.42
446.166	33.09
446.368	33.31
446.57	33.57
446.772	33.03
446.974	32.75
447.175	33.51
447.377	32.94
447.579	34.07
447.781	33.51
447.983	33.13
448.184	32.61
448.386	33.36
448.588	32.71
448.79	32.61
448.991	33.34
449.193	33.51
449.395	32.24
449.597	31.34
449.798	31.24
450	30.64
450.202	30.42
450.403	30.61
450.605	30.43
450.806	29.93
451.008	29.75
451.21	29.23
451.411	28.37
451.613	26.96
451.814	27.39
452.016	27.22
452.217	25.85
452.419	25.81
452.62	25.27
452.821	24.81
453.023	24.51
453.224	23.75
453.426	22.98
453.627	21.47
453.828	21.74
454.03	21.86
454.231	21.62
454.432	21.36
454.634	20.63
454.835	20.33
455.036	20.19
455.238	19.22
455.439	18.58
455.64	18.24
455.841	17.95
456.042	17.86
456.244	17.53
456.445	16.97
456.646	16.32
456.847	16.27
457.048	15.92
457.249	15.88
457.45	15.02
457.651	14.46
457.852	14.16
458.054	13.55
458.255	13.43
458.456	13.5
458.657	13.26
458.858	12.51
459.058	12.23
459.259	12.4
459.46	11.84
459.661	11.68
459.862	11.6
460.063	11.67
460.264	11.24
460.465	10.83
460.666	10.87
460.866	10.38
461.067	9.83
461.268	9.96
461.469	9.82
461.67	9.49
461.87	9.24
462.071	9.11
462.272	9.07
462.473	8.8
462.673	9.19
462.874	9
463.075	8.83
463.275	8.81
463.476	8.87
463.676	8.57
463.877	8.37
464.078	8.27
464.278	8.27
464.479	8.06
464.679	7.88
464.88	7.71
465.08	7.43
465.281	7.27
465.481	6.9
465.682	6.53
465.882	6.57
466.083	6.38
466.283	6.29
466.483	6.07
466.684	5.74
466.884	5.58
467.085	5.53
467.285	5.62
467.485	5.32
467.686	5.23
467.886	5.08
468.086	4.78
468.286	4.84
468.487	4.82
468.687	4.64
468.887	4.47
469.087	4.56
469.287	4.4
469.488	4.1
469.688	4.29
469.888	4.17
470.088	4.07
470.288	3.91
470.488	3.81
470.688	3.59
470.888	3.56
471.088	3.3
471.288	3.34
471.488	3.34
471.688	3.23
471.888	3.21
472.088	3.25
472.288	3.18
472.488	2.91
472.688	2.88
472.888	2.87
473.088	2.81
473.288	2.65
473.488	2.67
473.688	2.69
473.887	2.57
474.087	2.54
474.287	2.47
474.487	2.42
474.687	2.39
474.886	2.34
475.086	2.25
475.286	2.19
475.486	2.17
475.685	2.08
475.885	2.01
476.085	2.07
476.284	2.01
476.484	2.01
476.684	1.95
476.883	1.96
477.083	1.83
477.282	1.74
477.482	1.82
477.681	1.75
477.881	1.61
478.08	1.6
478.28	1.56
478.479	1.55
478.679	1.6
478.878	1.49
479.078	1.43
479.277	1.46
479.477	1.41
479.676	1.38
479.875	1.35
480.075	1.28
480.274	1.28
480.473	1.34
480.673	1.24
480.872	1.28
481.071	1.2
481.271	1.22
481.47	1.17
481.669	1.14
481.868	1.09
482.067	1.08
482.267	1.01
482.466	0.99
482.665	0.98
482.864	0.97
483.063	0.96
483.262	0.98
483.461	1
483.661	0.97
483.86	0.9
484.059	0.92
484.258	0.91
484.457	0.86
484.656	0.82
484.855	0.85
485.054	0.72
485.253	0.73
485.452	0.73
485.651	0.75
485.849	0.72
486.048	0.65
486.247	0.67
486.446	0.69
486.645	0.6
486.844	0.64
487.043	0.61
487.241	0.65
487.44	0.55
487.639	0.61
487.838	0.58
488.037	0.58
488.235	0.63
488.434	0.57
488.633	0.5
488.831	0.55
489.03	0.52
489.229	0.51
489.427	0.45
489.626	0.52
489.825	0.51
490.023	0.46
490.222	0.45
490.42	0.45
490.619	0.47
490.817	0.42
491.016	0.41
491.214	0.44
491.413	0.41
491.611	0.38
491.81	0.38
492.008	0.42
492.207	0.42
492.405	0.36
492.604	0.33
492.802	0.36
493	0.35
493.199	0.33
493.397	0.33
493.595	0.34
493.794	0.27
493.992	0.36
494.19	0.3
494.388	0.31
494.587	0.28
494.785	0.3
494.983	0.25
495.181	0.27
495.379	0.28
495.578	0.26
495.776	0.28
495.974	0.29
496.172	0.26
496.37	0.24
496.568	0.22
496.766	0.23
496.964	0.26
497.162	0.23
497.36	0.22
497.558	0.24
497.756	0.26
497.954	0.23
498.152	0.21
498.35	0.26
498.548	0.21
498.746	0.21
498.944	0.15
499.142	0.2
499.34	0.18
499.538	0.19
499.736	0.18
499.933	0.22
500.131	0.24
500.329	0.17
500.527	0.24
500.725	0.21
500.922	0.22
501.12	0.19
501.318	0.2
501.516	0.18
501.713	0.19
501.911	0.16
502.109	0.16
502.306	0.18
502.504	0.16
502.701	0.15
502.899	0.17
503.097	0.2
503.294	0.18
503.492	0.16
503.689	0.16
503.887	0.14
504.084	0.19
504.282	0.16
504.479	0.11
504.677	0.16
504.874	0.12
505.072	0.17
505.269	0.14
505.466	0.14
505.664	0.17
505.861	0.08
506.059	0.1
506.256	0.14
506.453	0.13
506.651	0.18
506.848	0.13
507.045	0.17
507.242	0.13
507.44	0.1
507.637	0.13
507.834	0.13
508.031	0.15
508.229	0.09
508.426	0.15
508.623	0.15
508.82	0.1
509.017	0.09
509.214	0.09
509.411	0.12
509.608	0.09
509.805	0.11
510.003	0.12
510.2	0.1
510.397	0.13
510.594	0.09
510.791	0.08
510.988	0.09
511.184	0.13
511.381	0.11
511.578	0.08
511.775	0.15
511.972	0.08
512.169	0.1
512.366	0.09
512.563	0.1
512.76	0.07
512.956	0.08
513.153	0.1
513.35	0.11
513.547	0.06
513.744	0.07
513.94	0.07
514.137	0.11
514.334	0.1
514.53	0.12
514.727	0.1
514.924	0.14
515.12	0.09
515.317	0.05
515.514	0.07
515.71	0.08
515.907	0.09
516.103	0.09
516.3	0.11
516.497	0.12
516.693	0.13
516.89	0.07
517.086	0.07
517.283	0.08
517.479	0.11
517.676	0.08
517.872	0.08
518.068	0.06
518.265	0.06
518.461	0.05
518.658	0.06
518.854	0.1
519.05	0.06
519.247	0.06
519.443	0.1
519.639	0.09
519.836	0.09
520.032	0.08
520.228	0.08
520.424	0.13
520.621	0.09
520.817	0.07
521.013	0.11
521.209	0.09
521.405	0.12
521.601	0.07
521.798	0.08
521.994	0.13
522.19	0.06
522.386	0.03
522.582	0.06
522.778	0.06
522.974	0.07
523.17	0.08
523.366	0.08
523.562	0.1
523.758	0.07
523.954	0.05
524.15	0.08
524.346	0.1
524.542	0.06
524.738	0.05
524.934	0.08
525.129	0.07
525.325	0.06
525.521	0.07
525.717	0.08
525.913	0.09
526.109	0.08
526.304	0.07
526.5	0.08
526.696	0.1
526.892	0.06
527.087	0.07
527.283	0.06
527.479	0.09
527.674	0.04
527.87	0.06
528.066	0.04
528.261	0.08
528.457	0.06
528.653	0.07
528.848	0.06
529.044	0.06
529.239	0.05
529.435	0.07
529.63	0.08
529.826	0.11
530.021	0.08
530.217	0.1
530.412	0.05
530.608	0.04
530.803	0.06
530.999	0.07
531.194	0.01
531.389	0.06
531.585	0.01
531.78	0.06
531.975	0.05
532.171	0.07
532.366	0.05
532.561	0.06
532.757	0.05
532.952	0.06
533.147	0.08
533.342	0.07
533.538	0.05
533.733	0.1
533.928	0.08
534.123	0.04
534.318	0.04
534.513	0.03
534.709	0.04
534.904	0.05
535.099	0.03
535.294	0.05
535.489	0.09
535.684	0.04
535.879	0.03
536.074	0.06
536.269	0.04
536.464	0.07
536.659	0.05
536.854	0.06
537.049	0.09
537.244	0.08
537.439	0.04
537.634	0.08
537.828	0.05
538.023	0.05
538.218	0.01
538.413	0.05
538.608	0
538.803	0.07
538.997	0.02
539.192	0.07
539.387	0.08
539.582	0.08
539.776	0.07
539.971	0.03
540.166	0.06
540.36	0.02
540.555	0.05
540.75	0.06
540.944	0.06
541.139	0.01
541.334	0.04
541.528	0.07
541.723	0.07
541.917	0.04
542.112	0.01
542.306	0.04
542.501	0.06
542.695	0.06
542.89	0.04
543.084	0.06
543.279	0.05
543.473	0.04
543.668	0.04
543.862	0.06
544.056	0.07
544.251	0.05
544.445	0.06
544.64	0.05
544.834	0.01
545.028	0.04
545.222	0.06
545.417	0.05
545.611	0.04
545.805	0.05
546	0.05
546.194	0.05
546.388	0.05
546.582	0.06
546.776	0.04
546.97	0.06
547.165	0.07
547.359	0.08
547.553	0.02
547.747	0.04
547.941	0.06
548.135	0.03
548.329	0.06
548.523	0.06
548.717	0.04
548.911	0.03
549.105	0.06
549.299	0.06
549.493	0.06
549.687	0.03
549.881	0.06
550.075	0.06
550.269	0.02
550.463	0.06
550.657	0.02
550.85	0.05
551.044	0.03
551.238	0.06
551.432	0.03
551.626	0.04
551.82	0.06
552.013	0.03
552.207	0.05
552.401	0.06
552.594	0.07
552.788	0.04
552.982	0.06
553.176	0.05
553.369	0.05
553.563	0.05
553.756	0.01
553.95	0.03
554.144	0.05
554.337	0.09
554.531	0.07
554.724	0.02
554.918	0.03
555.111	0.08
555.305	0.07
555.498	0.11
555.692	0.06
555.885	0.03
556.079	0.06
556.272	0.02
556.466	0.06
556.659	0.06
556.852	0.03
557.046	0.03
557.239	0.06
557.432	0.01
557.626	0.04
557.819	0.06
558.012	0.07
558.206	0.07
558.399	0.04
558.592	0.05
558.785	0.04
558.979	0.09
559.172	0.05
559.365	0.07
559.558	0.07
559.751	0.02
559.944	0.02
560.138	0.02
560.331	0.04
560.524	0.03
560.717	0.04
560.91	0.04
561.103	0.08
561.296	0.05
561.489	0.05
561.682	0.04
561.875	0.07
562.068	0.05
562.261	0.07
562.454	0.11
562.647	0.07
562.84	0.06
563.032	0.03
563.225	0.04
563.418	0.04
563.611	0.03
563.804	0.04
563.997	0.01
564.19	0.01
564.382	0.05
564.575	0.04
564.768	0.04
564.961	0.03
565.153	0.04
565.346	0.07
565.539	0.07
565.731	0.08
565.924	0.04
566.117	0.07
566.309	0.05
566.502	0.02
566.695	0.03
566.887	0.07
567.08	0.01
567.272	0.04
567.465	0.03
567.657	0.04
567.85	0.07
568.042	0.05
568.235	0.06
568.427	0.03
568.62	0.03
568.812	0.07
569.005	0.05
569.197	-0
569.389	0.05
569.582	0.07
569.774	0.05
569.966	0.02
570.159	-0
570.351	0.05
570.543	0.02
570.736	0.05
570.928	0.03
571.12	0.02
571.312	0.01
571.505	-0
571.697	0.07
571.889	0.04
572.081	0.02
572.273	0.02
572.465	0.07
572.658	0.05
572.85	0.03
573.042	0.02
573.234	0.04
573.426	0.09
573.618	0.01
573.81	0.03
574.002	0.09
574.194	0.08
574.386	-0.01
574.578	-0.04
574.77	0
574.962	0.04
575.154	0.01
575.346	0.03
575.538	0.05
575.729	0.01
575.921	0.03
576.113	0.02
576.305	0.07
576.497	0.01
576.689	0.03
576.88	0.01
577.072	0.08
577.264	0.01
577.456	0.03
577.647	-0.04
577.839	0.05
578.031	0.09
578.223	-0
578.414	0.01
578.606	0.07
578.798	0.07
578.989	0.01
579.181	0.01
579.372	0.04
579.564	0.03
579.755	0.04
579.947	0.03
580.139	0.04
580.33	-0.01
580.522	0.02
580.713	-0.02
580.905	0.01
581.096	0.06
581.287	0.03
581.479	0.02
581.67	0.05
581.862	0.04
582.053	0.01
582.244	-0
582.436	0.04
582.627	0.06
582.818	0.01
583.01	-0
583.201	0.06
583.392	0.06
583.583	0.03
583.775	0.02
583.966	0
584.157	0.03
584.348	0.01
584.54	-0.01
584.731	0.05
584.922	0.06
585.113	0.02
585.304	0.06
585.495	0.06
585.686	0.07
585.877	0.05
586.068	0.04
586.259	0.03
586.45	0.05
586.641	0.01
586.832	-0.05
587.023	0.04
587.214	0.05
587.405	0.03
587.596	0.03
587.787	0.07
587.978	0.04
588.169	0.01
588.36	0.02
588.551	0.07
588.742	0.03
588.932	0.02
589.123	0.03
589.314	0.06
589.505	0.07
589.696	0.05
589.886	0
590.077	0.01
590.268	0.05
590.458	-0.01
590.649	-0.02
590.84	0.06
591.03	0
591.221	-0
591.412	-0.02
591.602	0.08
591.793	0.07
591.984	-0.01
592.174	-0.01
592.365	0.11
592.555	0.01
592.746	0.06
592.936	0.04
593.127	0.04
593.317	0.08
593.508	0.01
593.698	0.01
593.889	0.04
594.079	0.02
594.269	-0.02
594.46	0.04
594.65	0.03
594.84	0.02
595.031	0
595.221	0
595.411	-0.01
595.602	0.05
595.792	0.02
595.982	-0
596.172	0.1
596.363	0.06
596.553	0.04
596.743	0.03
596.933	0.05
597.123	0.07
597.314	0.01
597.504	0.01
597.694	0.07
597.884	0.02
598.074	0.01
598.264	0.02
598.454	0.05
598.644	0.03
598.834	0.04
599.024	-0.02
599.214	0.03
599.404	0.06
599.594	0.01
599.784	0.02
599.974	0.05
600.164	0.06
600.354	0
600.544	-0.02
600.734	0.04
600.924	0.08
601.114	0.01
601.303	0.02
601.493	0.03
601.683	0
601.873	0.05
602.063	-0.03
602.252	0.04
602.442	-0.03
602.632	0
602.821	-0.01
603.011	0.08
603.201	0
603.39	-0.02
603.58	-0.01
603.77	0.04
603.959	0.04
604.149	0.05
604.339	0
604.528	0.06
604.718	0.07
604.907	0.04
605.097	-0.01
605.286	-0.02
605.476	0.06
605.665	0.05
605.855	0.01
606.044	0.09
606.234	0.03
606.423	0.03
606.612	-0.02
606.802	0.03
606.991	0.07
607.181	0.04
607.37	-0.02
607.559	0.01
607.749	-0.01
607.938	0.06
608.127	0
608.316	0.03
608.506	0.05
608.695	0.02
608.884	-0.02
609.073	0.02
609.263	0.05
609.452	0.03
609.641	0.05
609.83	0.01
610.019	0.04
610.208	0
610.397	0.04
610.586	0.05
610.775	0.01
610.965	0.02
611.154	-0.03
611.343	0.04
611.532	0.03
611.721	-0.01
611.91	-0.01
612.099	0.04
612.287	0.03
612.476	0.01
612.665	0.01
612.854	-0
613.043	0.06
613.232	0.04
613.421	-0.06
613.61	0.02
613.798	0.01
613.987	0.05
614.176	0.02
614.365	0.04
614.554	0.05
614.742	0.05
614.931	-0
615.12	0.05
615.309	0.01
615.497	0.05
615.686	-0.02
615.875	0.03
616.063	0.04
616.252	0.02
616.44	0.02
616.629	0.04
616.818	0.07
617.006	0.02
617.195	0.04
617.383	0.04
617.572	0.04
617.76	0
617.949	-0.01
618.137	0.02
618.326	0.07
618.514	0
618.703	0.03
618.891	0.09
619.079	-0.02
619.268	0.03
619.456	0.01
619.644	0.06
619.833	-0
620.021	0.02
620.209	-0.02
620.398	0.03
620.586	0.04
620.774	0.02
620.962	0.02
621.151	0.08
621.339	0.01
621.527	-0
621.715	0
621.903	-0.01
622.092	0.01
622.28	0.02
622.468	-0.01
622.656	0.02
622.844	0.06
623.032	-0
623.22	-0.04
623.408	0.06
623.596	0.03
623.784	0.05
623.972	0.01
624.16	0.01
624.348	0.12
624.536	0.01
624.724	0.01
624.912	0.09
625.1	0.08
625.288	0
625.476	-0.02
625.664	0.05
625.851	-0.01
626.039	0.02
626.227	0.03
626.415	-0
626.603	-0.05
626.79	0.04
626.978	0.01
627.166	0.04
627.354	0.02
627.541	0.01
627.729	-0.04
627.917	0.06
628.104	0.09
628.292	0.02
628.48	0.01
628.667	0.02
628.855	0.02
629.042	0.04
629.23	0.01
629.418	0.05
629.605	0.01
629.793	0.02
629.98	0.01
630.168	0.05
630.355	0.02
630.543	0.06
630.73	0
630.917	0.07
631.105	0.11
631.292	0.02
631.48	0.03
631.667	0.11
631.854	0.04
632.042	0.01
632.229	-0.04
632.416	0.01
632.604	0.01
632.791	-0.02
632.978	0.02
633.165	0.05
633.353	0.1
633.54	0.04
633.727	-0.02
633.914	0.01
634.101	-0.04
634.289	0.05
634.476	-0.01
634.663	-0
634.85	0.06
635.037	-0.03
635.224	-0.04
635.411	0.08
635.598	0.07
635.785	0.01
635.972	-0.01
636.159	0.03
636.346	-0
636.533	0.02
636.72	0.02
636.907	0
637.094	0.07
637.281	0.04
637.468	0.05
637.655	0.01
637.842	0.01
638.029	0.02
638.215	0.05
638.402	0.01
638.589	-0
638.776	0.01
638.963	-0.02
639.149	0.04
639.336	0.1
639.523	0.02
639.709	0.03
639.896	0.02
640.083	0.1
640.27	0.03
640.456	-0.02
640.643	0.04
640.829	-0.03
641.016	-0
641.203	-0.01
641.389	0.04
641.576	0.03
641.762	0.04
641.949	-0
642.135	0.08
642.322	0.02
642.508	-0
642.695	0.01
642.881	0.01
643.068	0.03
643.254	0.02
643.441	0.05
643.627	0.01
643.813	-0.02
644	0.05
644.186	-0
644.372	0.03
644.559	0.06
644.745	-0.01
644.931	-0.03
645.118	0
645.304	-0.02
645.49	0.01
645.676	0.01
645.862	0.03
646.049	0.09
646.235	0.04
646.421	0.07
646.607	0.11
646.793	0.03
646.979	0.02
647.165	0
647.352	0.03
647.538	0.04
647.724	0.05
647.91	0.01
648.096	0.04
648.282	0.06
648.468	0.01
648.654	0.02
648.84	0.03
649.026	0.02
649.212	0.01
649.397	-0.01
649.583	0.02
649.769	0.05
649.955	0.03
650.141	0.01
650.327	0.09
650.513	-0.01
650.698	0.04
650.884	-0.04
651.07	0.01
651.256	0.03
651.442	0.03
651.627	-0.01
651.813	0.03
651.999	0.01
652.184	0.05
652.37	0.03
652.556	-0
652.741	0.06
652.927	-0.03
653.113	0.01
653.298	0
653.484	-0
653.669	-0.05
653.855	0.05
654.04	0.06
654.226	0.07
654.412	-0
654.597	0
654.782	0.01
654.968	0.06
655.153	0.03
655.339	0.05
655.524	-0.01
655.71	0.03
655.895	0.02
656.08	0.04
656.266	0.08
656.451	0.05
656.636	-0.03
656.822	0
657.007	0.01
657.192	-0
657.378	-0.01
657.563	0.03
657.748	0.07
657.933	0.02
658.118	0.02
658.304	0.02
658.489	0.05
658.674	0.05
658.859	-0.04
659.044	0.06
659.229	0.06
659.414	-0.01
659.599	0.01
659.785	-0.04
659.97	0.01
660.155	0.05
660.34	0.03
660.525	0.01
660.71	0.03
660.895	0.06
661.08	0.01
661.264	0.01
661.449	0.09
661.634	0.06
661.819	0.02
662.004	0.05
662.189	-0.05
662.374	-0.01
662.559	-0.03
662.743	-0.03
662.928	0.04
663.113	0.04
663.298	-0.02
663.483	0.01
663.667	0.02
663.852	-0.03
664.037	0.07
664.221	-0
664.406	0.05
664.591	0.03
664.775	0.04
664.96	0.02
665.145	0.04
665.329	0.04
665.514	-0.02
665.698	0.03
665.883	-0.02
666.068	0.09
666.252	0.04
666.437	-0.01
666.621	0.04
666.806	0.05
666.99	0.01
667.174	-0.04
667.359	0.09
667.543	0.01
667.728	0.01
667.912	-0.06
668.096	0.05
668.281	-0.01
668.465	0.03
668.649	0.02
668.834	-0.02
669.018	0.01
669.202	-0
669.387	-0.05
669.571	0.06
669.755	0.02
669.939	0.01
670.124	0.02
670.308	0.11
670.492	0.07
670.676	-0.01
670.86	0.05
671.044	-0.03
671.228	0.07
671.413	0.01
671.597	-0.05
671.781	-0.02
671.965	0.01
672.149	-0.01
672.333	0
672.517	0.01
672.701	0.04
672.885	0.02
673.069	-0.04
673.253	0.09
673.437	-0.02
673.621	-0.02
673.804	-0.02
673.988	0.02
674.172	0.02
674.356	-0.04
674.54	-0.01
674.724	0.1
674.908	-0.02
675.091	0.05
675.275	-0.02
675.459	0.04
675.643	0.02
675.826	0.04
676.01	0.02
676.194	0.03
676.377	0.04
676.561	0.06
676.745	0.04
676.928	0.06
677.112	0.05
677.296	0.03
677.479	0.02
677.663	0.01
677.846	0.06
678.03	0.03
678.213	0
678.397	0.04
678.58	-0
678.764	0.02
678.947	-0.01
679.131	-0.03
679.314	0.03
679.498	-0.01
679.681	0.04
679.865	0.06
680.048	-0
680.231	-0.01
680.415	0.01
680.598	-0.01
680.781	0.03
680.965	0.02
681.148	0.05
681.331	0
681.514	0.03
681.698	0.02
681.881	0.05
682.064	0.04
682.247	0.07
682.43	-0.03
682.614	0.03
682.797	0.03
682.98	0.1
683.163	-0.04
683.346	0.04
683.529	-0.01
683.712	-0.06
683.895	0.03
684.078	-0.01
684.261	-0.01
684.444	0.03
684.627	0.02
684.81	0
684.993	0
685.176	0.05
685.359	0.04
685.542	-0.03
685.725	0.09
685.908	0.02
686.091	-0
686.274	0.1
686.457	0.04
686.639	-0.02
686.822	0.05
687.005	-0
687.188	0.07
687.371	0.11
687.553	0.06
687.736	0.06
687.919	0.12
688.102	0.1
688.284	0.02
688.467	0.02
688.65	0.05
688.832	-0.01
689.015	0.06
689.197	-0.04
689.38	0.11
689.563	0.09
689.745	-0.01
689.928	-0.05
690.11	0.01
690.293	0.03
690.475	-0.06
690.658	0.03
690.84	0.03
691.023	0.03
691.205	-0.01
691.388	0.01
691.57	0.09
691.752	0.04
691.935	-0.07
692.117	-0.02
692.3	-0.01
692.482	0.02
692.664	0.02
692.847	0.06
693.029	0.12
693.211	0.11
693.393	0.05
693.576	-0.03
693.758	0.08
693.94	0.01
694.122	-0
694.304	0.01
694.487	-0.02
694.669	0.12
694.851	-0.04
695.033	0.02
695.215	0.01
695.397	0.02
695.579	0.06
695.761	-0.06
695.943	-0.04
696.125	0.09
696.308	0.07
696.49	-0.1
696.671	0.1
696.853	-0.02
697.035	0.16
697.217	0.06
697.399	0.03
697.581	0.02
697.763	-0.04
697.945	-0.03
698.127	0.07
698.309	0.09
698.491	0.06
698.672	0.04
698.854	0.08
699.036	0.11
699.218	-0.02
699.399	0.13
699.581	0.09
699.763	0.03
699.945	-0.02
700.126	-0.05
700.308	0.05
700.49	0.03
700.671	-0.04
700.853	-0.02
701.035	0.03
701.216	0.01
701.398	0.01
701.579	-0.04
701.761	0.08
701.943	0.01
702.124	-0
702.306	-0.06
702.487	0.14
702.669	0.06
702.85	-0.07
703.031	-0.07
703.213	0.12
703.394	0.1
703.576	-0.04
703.757	0.15
703.938	0.07
704.12	0.17
704.301	0.02
704.483	-0.02
704.664	-0.01
704.845	0.11
705.026	0.06
705.208	0.03
705.389	0
705.57	0.03
705.751	-0
705.933	-0
706.114	0.05
706.295	0.06
706.476	0.01
706.657	0.12
706.838	0.05
707.02	0.08
707.201	0.02
707.382	-0.07
707.563	0.1
707.744	0
707.925	-0.03
708.106	-0.02
708.287	0.03
708.468	0.11
708.649	0.02
708.83	0.12
709.011	-0.01
709.192	0.08
709.373	-0.1
709.554	-0.05
709.734	0.06
709.915	0.06
710.096	-0
710.277	-0.09
710.458	0.06
710.639	0.09
710.819	-0.07
711	0.03
711.181	0.07
711.362	0.02
711.542	0.02
711.723	-0.01
711.904	0.1
712.085	0.07
712.265	0.07
712.446	0
712.627	-0.01
712.807	-0.02
712.988	0.03
713.168	-0.05
713.349	0.12
713.53	-0.1
713.71	-0.01
713.891	-0.06
714.071	-0
714.252	-0.02
714.432	-0.04
714.613	-0.06
714.793	0.02
714.974	0.18
715.154	0.11
715.334	0.08
715.515	0.13
715.695	-0.03
715.876	0.02
716.056	0.02
716.236	0.07
716.417	-0.01
716.597	-0.03
716.777	0.15
716.957	0.02
717.138	0.07
717.318	0.03
717.498	-0.05
717.678	0.03
717.859	0.07
718.039	-0.02
718.219	0.03
718.399	0.11
718.579	-0.01
718.759	-0.06
718.939	0.04
719.12	-0.05
719.3	0.02
719.48	-0.11
719.66	-0.08
719.84	0.14
720.02	0.05
720.2	-0.04
720.38	-0.01
720.56	0.14
720.74	0.06
720.92	0.07
721.1	0.15
721.279	0.13
721.459	0.04
721.639	-0.04
721.819	0.02
721.999	0.02
722.179	0.12
722.359	-0.04
722.538	0.08
722.718	-0.01
722.898	0.01
723.078	0.09
723.257	0.01
723.437	-0
723.617	0.05
723.797	-0.03
723.976	0.03
724.156	0.07
724.336	0.13
724.515	0.18
724.695	-0.08
724.874	0.01
725.054	0.08
725.234	-0.09
725.413	0.1
725.593	0.04
725.772	0.06
725.952	0.02
726.131	-0
726.311	0.08
726.49	0.05
726.67	-0.08
726.849	-0.04
727.028	-0.03
727.208	0.04
727.387	0.1
727.567	-0.11
727.746	-0.04
727.925	-0.02
728.105	0.01
728.284	-0.08
728.463	-0.08
728.643	0.01
728.822	-0.06
729.001	-0.03
729.18	-0.01
729.359	0.12
729.539	0.09
729.718	0.04
729.897	0.05
730.076	0.03
730.255	-0.08
730.434	0.11
730.614	0.1
730.793	0.12
730.972	0.02
731.151	0.06
731.33	0.15
731.509	0.04
731.688	0.05
731.867	0.12
732.046	-0.03
732.225	0.22
732.404	-0.06
732.583	-0.02
732.762	-0.05
732.941	0.13
733.12	0.11
733.298	-0.07
733.477	0.21
733.656	0.01
733.835	-0.06
734.014	0.08
734.193	-0.06
734.371	0.09
734.55	0.08
734.729	-0.12
734.908	0.02
735.086	0.09
735.265	0.09
735.444	-0.13
735.623	-0.07
735.801	-0.11
735.98	0.08
736.159	-0.01
736.337	0.06
736.516	0.02
736.694	0.1
736.873	0.04
737.052	0.19
737.23	0.21
737.409	0.05
737.587	0.19
737.766	-0.13
737.944	0.01
738.123	0.07
738.301	0.05
738.479	-0.04
738.658	0.02
738.836	-0.14
739.015	0.19
739.193	0.08
739.371	-0.08
739.55	-0.02
739.728	-0.11
739.906	0.14
740.085	0.19
740.263	-0
740.441	-0.18
740.62	0.3
740.798	0.16
740.976	-0.09
741.154	-0
741.332	0.16
741.511	-0.01
741.689	0.03
741.867	0.05
742.045	0.07
742.223	0.13
742.401	-0.03
742.579	-0.03
742.757	0.17
742.935	-0.05
743.114	-0.04
743.292	-0.04
743.47	0.03
743.648	0.02
743.826	0.11
744.004	0.06
744.181	0.2
744.359	-0
744.537	0.05
744.715	-0.08
744.893	-0.03
745.071	0.1
745.249	-0.05
745.427	0.06
745.605	0.09
745.782	0.04
745.96	0.17
746.138	0.11
746.316	0.14
746.493	-0.02
746.671	-0.05
746.849	0.05
747.027	0.19
747.204	-0.03
747.382	0.12
747.56	-0.11
747.737	0.04
747.915	0.01
748.093	-0.02
748.27	-0
748.448	0.04
748.625	-0.11
748.803	-0.09
748.98	0.02
749.158	0.05
749.335	0.08
749.513	0.03
749.69	-0.08
749.868	-0.01
750.045	0.14
750.223	0.03
750.4	-0.1
750.578	0.25
750.755	0.11
750.932	-0.17
751.11	0.18
751.287	-0.09
751.464	0.18
751.642	-0.03
751.819	0.06
751.996	0.02
752.173	0.06
752.351	-0.12
752.528	0.01
752.705	0.01
752.882	0.02
753.06	-0.02
753.237	0.07
753.414	0.21
753.591	0.26
753.768	-0.02
753.945	-0.06
754.122	-0.01
754.299	0.1
754.476	-0.03
754.654	0.09
754.831	0.07
755.008	0.15
755.185	-0.03
755.362	-0.06
755.539	0.09
755.716	0.02
755.892	-0.08
756.069	0.04
756.246	0
756.423	-0.01
756.6	0.19
756.777	-0.03
756.954	0.17
757.131	0.01
757.307	-0.05
757.484	-0.11
757.661	0.01
757.838	0.06
758.015	-0.11
758.191	0.01
758.368	0.1
758.545	0.22
758.721	0.2
758.898	-0.19
759.075	0.07
759.251	0.03
759.428	0.05
759.605	-0.17
759.781	0.01
759.958	-0.05
760.134	0.06
760.311	-0.02
760.488	0.21
760.664	0.14
760.841	0.04
761.017	-0.06
761.194	0.18
761.37	0.15
761.547	0.04
761.723	0.02
761.899	0.17
762.076	-0.04
762.252	-0.1
762.429	-0.01
762.605	0.16
762.781	0.02
762.958	0.04
763.134	0.03
763.31	-0.13
763.486	0.21
763.663	-0.2
763.839	0.26
764.015	-0.27
764.191	-0.02
764.368	0.13
764.544	-0.12
764.72	0.13
764.896	0.14
765.072	0.13
765.248	-0.06
765.425	-0.08
765.601	0.01
765.777	0.01
765.953	-0.17
766.129	-0.04
766.305	-0.09
766.481	0.07
766.657	0.06
766.833	0.17
767.009	-0.09
767.185	-0.02
767.361	-0.02
767.537	-0.16
767.713	0.34
767.889	-0.06
768.065	0.04
768.24	0.07
768.416	0.15
768.592	0
768.768	-0.06
768.944	0.13
769.12	-0.06
769.295	0.06
769.471	-0.1
769.647	0.09
769.823	0.15
769.998	-0.06
770.174	-0.15
770.35	0.24
770.525	0.25
770.701	0.08
770.877	0.08
771.052	-0.05
771.228	0.11
771.403	0.07
771.579	0.06
771.755	0.23
771.93	-0.12
772.106	-0.16
772.281	-0.13
772.457	0.14
772.632	0.04
772.808	-0.14
772.983	-0.06
773.159	-0
773.334	0.27
773.509	-0.04
773.685	-0.11
773.86	0.36
774.036	0.3
774.211	0.15
774.386	0.02
774.562	0.05
774.737	0.26
774.912	-0.09
775.087	0.2
775.263	0.09
775.438	0.07
775.613	-0.18
775.788	-0.12
775.964	0.11
776.139	0.42
776.314	-0.14
776.489	0.06
776.664	-0.06
776.839	-0.11
777.014	0.26
777.19	0.21
777.365	0.12
777.54	0.24
777.715	-0.07
777.89	-0.07
778.065	-0.2
778.24	0.08
778.415	0.1
778.59	-0.06
778.765	0.11
778.94	0.17
779.115	0.05
779.289	-0.07
779.464	0.04
779.639	0.11
779.814	-0.26
779.989	-0.17
780.164	0.15
780.339	0.08
780.513	-0.15
780.688	-0.02
780.863	-0.02
781.038	0.03
781.212	-0.08
781.387	0.17
781.562	0.32
781.737	-0.09
781.911	0.14
782.086	-0.13
782.261	-0.07
782.435	0.4
782.61	-0.2
782.784	0.03
782.959	0.15
783.134	-0.08
783.308	-0.32
783.483	0.06
783.657	0.26
783.832	0.33
784.006	-0.45
784.181	-0.11
784.355	0.26
784.53	-0.21
784.704	-0.07
784.878	0.2
785.053	-0.13
785.227	0.37
785.402	0.32
785.576	-0.22
785.75	-0.16
785.925	-0.03
786.099	0.1
786.273	-0.03
786.448	0.34
786.622	0.25
786.796	-0.03
786.97	-0.04
787.145	0.39
787.319	-0.4
787.493	-0.09
787.667	-0.42
787.841	-0.01
788.015	0.24
788.19	-0.19
788.364	0.01
788.538	0.14
788.712	0.06
788.886	0
789.06	0.2
789.234	0.26
789.408	-0.29
789.582	-0.15
789.756	-0.04
789.93	0.06
790.104	0.08
790.278	-0.01
790.452	-0.48
790.626	-0.02
790.8	-0.03
790.973	0.16
791.147	0.29
791.321	0.24
791.495	0.22
791.669	0.07
791.843	0.29
792.016	0.09
792.19	0.31
792.364	0.02
792.538	0.4
792.711	0.28
792.885	0.05
793.059	-0.27
793.233	-0.19
793.406	0.13
793.58	0.21
793.754	0.11
793.927	-0
794.101	0.39
794.274	0.17
794.448	0.39
794.622	-0.27
794.795	0.39
794.969	-0.04
795.142	0.47
795.316	-0.03
795.489	-0.31
795.663	0.25
795.836	0.09
796.009	-0.1
796.183	0.49
796.356	0.22
796.53	0.05
796.703	0.12
796.876	0.67
797.05	0.18
797.223	-0.07
797.396	0.17
797.57	0.13
797.743	0.23
797.916	0.1
798.09	0.13
798.263	0.3
798.436	0.1
798.609	-0.23
798.782	0.06
798.956	0.19
799.129	-0.22
799.302	-0.12
799.475	-0.01
799.648	0.01
799.821	-0.2
799.994	-0.11
800.167	-0.28
800.34	-0.13
800.514	0.14
800.687	-0.07
800.86	-0.02
801.033	0.13
801.206	0.29
801.379	-0.36
801.551	0.3
801.724	0.59
801.897	0.38
802.07	0.07
802.243	-0.34
802.416	-0.11
802.589	-0.24
802.762	0.02
802.935	-0.08
803.107	0.3
803.28	0.31
803.453	0.24
803.626	-0.12
803.798	0.19
803.971	0.08
804.144	-0.06
804.317	0.19
804.489	-0.14
804.662	0.13
804.835	-0.12
805.007	-0.27
805.18	0.74
805.353	0.09
805.525	-0.2
805.698	-0.15
805.87	0.24
806.043	0.44
806.215	-0.18
806.388	-0.14
806.56	0.3
806.733	0.48
806.905	-0.35
807.078	-0.28
807.25	0.21
807.423	0.05
807.595	0.19
807.768	0.15
807.94	0.38
808.112	0.25
808.285	0.24
808.457	0.13
808.629	-0.08
808.802	0.12
808.974	0.19
809.146	-0.22
809.318	-0.13
809.491	0.05
809.663	0.2
809.835	-0.1
810.007	0.16
810.18	-0.15
810.352	-0.38
810.524	-0.24
810.696	0.12
810.868	0.62
811.04	0.27
811.212	-0.01
811.384	0.48
811.556	0.2
811.728	0.1
811.901	0.65
812.073	0.25
812.245	0.22
812.417	-0.1
812.589	-0.27
812.76	0.08
812.932	0.11
813.104	0.57
813.276	-0.21
813.448	0.4
813.62	0.15
813.792	-0.15
813.964	-0.33
814.136	0.31
814.307	-0.08
814.479	0.05
814.651	0.07
814.823	0.94
814.995	-0.31
815.166	0.26
815.338	-0.2
815.51	-0.35
815.681	0.45
815.853	0.1
816.025	-0.14
816.196	0.78
816.368	0.3
816.54	-0.59
816.711	-0.04
816.883	0.4
817.054	1.07
817.226	-0.79
817.398	0.09
817.569	-0.28
817.741	0.31
817.912	-0.15
818.084	0.18
818.255	0.36
818.426	-0.5
818.598	-0.23
818.769	-0.3
818.941	0.16
819.112	0.29
819.283	0.07
819.455	-0.23
819.626	0.37
819.798	0.53
819.969	0.34
820.14	-0.07
820.311	-0.08
820.483	0.12
820.654	-0.11
820.825	0.23
820.996	-0.12
821.168	-0.62
821.339	-0.29
821.51	-0.82
821.681	-0.12
821.852	0.13
822.023	-0.59
822.195	-0.44
822.366	0.46
822.537	0.23
822.708	0.21
822.879	-0.76
823.05	0.65
823.221	-0.12
823.392	0.13
823.563	-0.07
823.734	-0.08
823.905	-0.18
824.076	0.16
824.247	-0.15
824.418	0.19
824.589	0.75
824.759	-0.02
824.93	0.09
825.101	-0.19
825.272	0.65
825.443	-0.51
825.614	0.62
825.784	-0.6
825.955	0.97
826.126	0.59
826.297	-0.26
826.467	0.35
826.638	0.27
826.809	-0.76
826.98	-0.08
827.15	0.09
827.321	0.27
827.492	0.88
827.662	0.03
827.833	0.94
828.003	0.47
828.174	-0.33
828.345	-0.87
828.515	0.8
828.686	0.01
828.856	-0.16
829.027	0.36
829.197	0.26
829.368	0.2
829.538	0.25
829.709	-0.49
829.879	0.06
830.049	0.03
830.22	-0.24
830.39	-0.08
830.56	0.29
830.731	-0.14
830.901	-0.09
831.072	0
831.242	-0.12
831.412	0.03
831.582	0.4
831.753	-1.06
831.923	0.26
832.093	0.15
832.263	-0.21
832.434	-0.39
832.604	-0.13
832.774	1.1
832.944	-0.25
833.114	-0.57
833.284	0.39
833.454	-0.86
833.624	-0.34
833.795	-0.22
833.965	0.13
834.135	0.89
834.305	-0.59
834.475	-0.35
834.645	0.23
834.815	-0.27
834.985	-0.59
835.155	-0.33
835.325	0.07
835.494	0.16
835.664	-0.55
835.834	-0.68
836.004	-0.09
836.174	-0.15
836.344	0.05
836.514	-0.8
836.684	-0.14
836.853	-0.45
837.023	0.33
837.193	-0.03
837.363	0.37
837.532	0.35
837.702	0.02
837.872	-0.96
838.041	0.78
838.211	0.92
838.381	-1.13
838.55	0.26
838.72	1.77
838.89	1.57
839.059	-0.62
839.229	-0.5
839.398	1.39
839.568	0.45
839.738	0.11
839.907	0.98
840.077	-0.07
840.246	-0
840.416	-0.53
840.585	-0.58
840.755	1.26
840.924	0.97
841.093	-0.34
841.263	0.73
841.432	0.36
841.602	0.13
841.771	-0.4
841.94	-0.07
842.11	2.46
842.279	1.6
842.448	-0.46
842.617	-0.63
842.787	1.12
842.956	-1.44
843.125	-0.76
843.294	0.04
843.464	1.74
843.633	0.51
843.802	-0.46
843.971	0.1
844.14	0.03
844.309	0.81
844.479	-0.56
844.648	-0.76
844.817	0.6
844.986	0.67
845.155	-0.72
845.324	-0.55
845.493	-0.29
845.662	-0.59
845.831	0.14
846	-0.17
846.169	-0.45
846.338	0.51
846.507	-0.08
846.676	0.8
846.844	-0.8
847.013	0.9
847.182	0.27
847.351	-1
847.52	0.39
847.689	1.04
847.858	0.22
848.026	-0.32
848.195	-0.12
848.364	-0.37
848.533	-0.65
848.701	-1.02
848.87	0.53
849.039	1.22
849.207	0.38
849.376	2.29
849.545	0.44
849.713	-0.67
849.882	-0.35
850.051	-0.44
850.219	0.25
850.388	0.76
850.556	-0.3
850.725	-0.51
850.893	0.05
851.062	-1.09
851.23	0.76
851.399	-1.48
851.567	-0.46
851.736	-0.02
851.904	-1.66
852.073	0.91
852.241	0.41
852.41	-0.31
852.578	0.2
852.746	-0.86
852.915	0.28
853.083	-0.15
853.251	-1.78
853.42	-0
853.588	-0.34
853.756	1.05
853.924	-0.37
854.093	-0.93
854.261	-0.01
854.429	-0.43
854.597	0.13
854.765	-0.92
854.934	1.25
855.102	0.44
855.27	0.2
855.438	0.74
855.606	1.25
855.774	0.92
855.942	-1.05
856.11	-1.2
856.278	-1.23
856.446	0.07
856.614	-0.42
856.782	-1.39
856.95	0.57
857.118	1.02
857.286	0.6
857.454	-1.03
857.622	1.42
857.79	0.05
857.958	0.38
858.126	-0.57
858.294	-1.87
858.462	-0.27
858.629	-1.01
858.797	-0.92
858.965	0.86
859.133	0.31
859.301	-0.31
859.468	0.14
859.636	0.1
859.804	3.06
859.971	0.99
860.139	-0.28
860.307	1.87
860.474	-0.59
860.642	-0.99
860.81	-0.06
860.977	-1.24
861.145	-0.14
861.313	-0.57
861.48	0.25
861.648	1.6
861.815	-0.97
861.983	-0.89
862.15	-1.25
862.318	0.38
862.485	1.14
862.653	-0.89
862.82	-0.25
862.988	1.88
863.155	2.04
863.322	-1.01
863.49	-1.49
863.657	-1.19
863.824	2.29
863.992	1.06
864.159	-0.49
864.326	1.46
864.494	0.65
864.661	1.89
864.828	-1
864.996	0.67
865.163	2.41
865.33	-1.82
865.497	-3.01
865.664	-0.25
865.832	-1.67
865.999	-2.02
866.166	-0.7
866.333	-0.91
866.5	-0.51
866.667	-0.05
866.834	-0.03
867.001	2.82
867.168	-2.96
867.335	0.6
867.502	-1.83
867.669	0.68
867.836	1.23
868.003	0.71
868.17	2.36
868.337	-0.68
868.504	4.16
868.671	-2
868.838	0.07
869.005	0.75
869.172	1.29
869.339	0.33
869.505	0.15
869.672	-0.56
869.839	1.27
870.006	0.23
870.173	-0.43
870.339	1.15
870.506	1.7
870.673	-1.49
870.84	0.8
871.006	0.82
871.173	-1.49
871.34	-0.32
871.506	-1.56
871.673	1.39
871.839	-2.91
872.006	-0.41
872.173	-0.33
872.339	-0.76
872.506	2.36
872.672	-2.02
872.839	-2.97
873.005	0.94
873.172	3.73
873.338	0.55
873.505	0.85
873.671	1.68
873.838	2.55
874.004	-3.22
874.171	-0.21
874.337	-0.48
874.503	-0.02
874.67	-1.26
874.836	-0
875.002	2.52
875.169	1.35
875.335	-0.28
875.501	-0.72
875.668	1.18
875.834	-0.7
876	-1.41
876.166	-0.81
876.332	1.29
876.499	2.5
876.665	-2.34
876.831	-1.61
876.997	3
877.163	0.16
877.329	-1.34
877.495	0.38
877.662	1.33
877.828	-0.1
877.994	-0.52
878.16	-2.72
878.326	-0.08
878.492	0.31
878.658	-0.19
878.824	0.85
878.99	1.46
879.156	-1.35
879.322	2.68
879.487	-1.13
879.653	0.61
879.819	0.13
879.985	-0.9
880.151	1.17
880.317	0.01
880.483	-0.06
880.648	1.79
880.814	-2.67
880.98	0.75
881.146	-3.16
881.312	-2.27
881.477	-0.81
881.643	-1.13
881.809	1.37
881.974	0.52
882.14	-1.58
882.306	0.97
882.471	4.35
882.637	-1.08
882.803	1.55
882.968	4.09
883.134	3.55
883.299	-0.42
883.465	-0.79
883.63	0.8
883.796	2.14
883.961	-0.44
884.127	0.11
884.292	-4.64
884.458	-2.35
884.623	-2.35
