Data from Apollo_Calib_20240827__AbsoluteIrradiance__403__05-52-02-245.txt Node

Date: Wed Aug 28 05:52:02 BST 2024
User: biology
Spectrometer: FLMT08252
Trigger mode: 0
Integration Time (sec): 5.000000E-1
Scans to average: 5
Electric dark correction enabled: true
Nonlinearity correction enabled: false
Boxcar width: 0
XAxis mode: Wavelengths
Number of Pixels in Spectrum: 3648
>>>>>Begin Spectral Data<<<<<
179.588	-0
179.809	-0
180.03	-0
180.251	-0
180.473	-0
180.694	0
180.915	0
181.136	-0
181.357	-0
181.578	-0
181.799	0
182.02	-0
182.241	0
182.462	-0
182.683	0
182.904	-0
183.125	-0
183.346	0
183.567	0
183.788	0
184.009	-0
184.23	0
184.451	0
184.672	-0
184.892	-0
185.113	0
185.334	0
185.555	0
185.776	0
185.996	0
186.217	0
186.438	0
186.659	-0
186.879	0
187.1	-0
187.321	0
187.541	-0
187.762	0
187.983	-0
188.203	0
188.424	0
188.644	-0
188.865	-0
189.086	-0
189.306	0
189.527	0
189.747	0
189.968	-0
190.188	0
190.409	-0
190.629	0
190.849	-0
191.07	0
191.29	0
191.511	0
191.731	-0
191.951	-0
192.172	0
192.392	0
192.612	0
192.833	-0
193.053	0
193.273	0
193.493	0
193.714	0
193.934	0
194.154	0
194.374	0
194.594	0
194.815	0
195.035	0
195.255	-0
195.475	-0
195.695	0
195.915	0
196.135	0
196.355	0
196.575	0
196.795	0
197.015	-0
197.235	-0
197.455	-0
197.675	0
197.895	0
198.115	-0
198.335	0
198.555	-0
198.775	0
198.995	0
199.214	0
199.434	0
199.654	0
199.874	-0
200.094	1.18
200.313	0.31
200.533	-0.32
200.753	-1.01
200.973	1.14
201.192	0.42
201.412	-0.47
201.632	-0.07
201.851	1.29
202.071	0.09
202.291	-0.23
202.51	-0.57
202.73	0.73
202.95	-0.25
203.169	-0.36
203.389	-0.09
203.608	0.27
203.828	0.04
204.047	-0.28
204.267	0.36
204.486	0.36
204.706	0.37
204.925	-0.13
205.145	-0.23
205.364	0.64
205.583	0.58
205.803	-0.36
206.022	-0.19
206.242	0.01
206.461	0.45
206.68	-0.28
206.9	0.29
207.119	0.79
207.338	0.82
207.557	-0.15
207.777	0.05
207.996	0.09
208.215	0.41
208.434	-0.07
208.654	-0.15
208.873	0.21
209.092	0.71
209.311	-0.2
209.53	0.05
209.749	-0.07
209.968	0.08
210.187	0
210.407	-0.25
210.626	0.21
210.845	0.2
211.064	0.23
211.283	-0.12
211.502	0.32
211.721	0.23
211.94	0.09
212.159	0.34
212.377	0.47
212.596	0.32
212.815	0.12
213.034	0.23
213.253	0.52
213.472	0.43
213.691	0.08
213.91	-0.25
214.128	-0.13
214.347	0.46
214.566	-0.2
214.785	-0.25
215.003	0.26
215.222	0.28
215.441	0.09
215.66	-0.05
215.878	0.2
216.097	0.31
216.316	-0.18
216.534	0.08
216.753	0.01
216.972	0
217.19	0.01
217.409	-0.16
217.627	-0.24
217.846	0.03
218.064	0.02
218.283	-0.1
218.501	0.55
218.72	0.29
218.938	-0.11
219.157	-0.17
219.375	0.15
219.594	0.32
219.812	-0.15
220.031	0.03
220.249	0.35
220.467	0.49
220.686	-0.04
220.904	-0.1
221.122	-0.11
221.341	0.45
221.559	0.11
221.777	-0.07
221.995	0.28
222.214	0.21
222.432	-0
222.65	0.19
222.868	0.04
223.086	0.18
223.305	0.21
223.523	-0.02
223.741	0.32
223.959	-0.04
224.177	-0.09
224.395	0.03
224.613	0.02
224.831	0.25
225.049	-0.01
225.267	-0.02
225.485	0.16
225.703	-0.14
225.921	0.05
226.139	-0
226.357	0.33
226.575	0.05
226.793	-0.1
227.011	0.71
227.229	0.09
227.447	0.33
227.665	0.01
227.883	-0.04
228.1	0.05
228.318	0.14
228.536	-0.11
228.754	-0.05
228.972	0.11
229.189	0.21
229.407	-0.01
229.625	0.03
229.843	0.22
230.06	0.14
230.278	-0.01
230.496	0.06
230.713	0.07
230.931	0.22
231.149	-0.04
231.366	-0.12
231.584	0.08
231.801	0.56
232.019	0.08
232.236	-0.08
232.454	-0.01
232.671	0.11
232.889	0.13
233.106	-0.13
233.324	0.02
233.541	0.08
233.759	-0.04
233.976	0.04
234.194	0.07
234.411	0.02
234.628	0.02
234.846	0.02
235.063	0.14
235.28	-0.11
235.498	0.04
235.715	-0.07
235.932	0.15
236.149	0.01
236.367	-0.1
236.584	0.05
236.801	0.02
237.018	0.15
237.236	0.06
237.453	-0.03
237.67	0.2
237.887	-0.01
238.104	-0.03
238.321	-0.11
238.538	-0.04
238.755	0.19
238.973	-0.12
239.19	0.09
239.407	0.14
239.624	-0.01
239.841	-0.07
240.058	-0.04
240.275	0.2
240.492	0.08
240.709	0.02
240.925	0.01
241.142	0.06
241.359	-0.08
241.576	-0.02
241.793	0.06
242.01	0.12
242.227	0.2
242.444	0.08
242.66	0.16
242.877	0.06
243.094	-0.02
243.311	0.06
243.527	0.02
243.744	0.04
243.961	0.09
244.178	-0.11
244.394	0.07
244.611	0.19
244.828	0.22
245.044	-0.01
245.261	-0
245.477	0.06
245.694	0.15
245.911	-0.03
246.127	-0.03
246.344	0.2
246.56	0.06
246.777	-0.02
246.993	0
247.21	0.12
247.426	0.17
247.643	0.01
247.859	-0.04
248.076	-0.02
248.292	0.25
248.508	-0.02
248.725	0.04
248.941	0.12
249.157	0.16
249.374	0.05
249.59	0.01
249.806	0.03
250.023	0.09
250.239	0.01
250.455	0
250.671	0.09
250.888	0.07
251.104	0.05
251.32	-0
251.536	0.01
251.752	0.05
251.969	0.11
252.185	0.06
252.401	0.26
252.617	0.01
252.833	0.01
253.049	0.06
253.265	0.15
253.481	0.1
253.697	-0.01
253.913	-0.06
254.129	0.06
254.345	0.04
254.561	0.05
254.777	0
254.993	0.1
255.209	0.05
255.425	0
255.641	0.05
255.857	0.11
256.073	0.09
256.288	-0.04
256.504	-0.03
256.72	0.18
256.936	0.11
257.152	0
257.367	-0.02
257.583	0.06
257.799	0.1
258.015	0.02
258.23	0.02
258.446	0.18
258.662	0.09
258.877	-0.01
259.093	-0.05
259.309	-0.01
259.524	0.08
259.74	-0.04
259.955	-0.08
260.171	0.15
260.387	0.05
260.602	0.1
260.818	0.06
261.033	-0.04
261.249	0.01
261.464	0.05
261.68	-0.03
261.895	0.02
262.11	0.08
262.326	0
262.541	0.02
262.757	0.18
262.972	0.05
263.187	0.07
263.403	0.07
263.618	0.15
263.833	0.02
264.049	0.02
264.264	0.03
264.479	0.12
264.694	0.1
264.91	0.01
265.125	0.03
265.34	0.1
265.555	0.15
265.77	0.09
265.986	-0
266.201	0.09
266.416	0.06
266.631	0.04
266.846	0.05
267.061	0.06
267.276	0.13
267.491	-0.13
267.706	0.06
267.921	0.13
268.136	0.03
268.351	-0.02
268.566	-0.06
268.781	0.15
268.996	0.12
269.211	-0
269.426	-0.09
269.641	0.09
269.856	0.13
270.071	0.01
270.285	-0.03
270.5	0.06
270.715	0.11
270.93	0.09
271.145	0.05
271.359	0.12
271.574	-0.05
271.789	0.02
272.004	-0.02
272.218	0.02
272.433	0.08
272.648	-0.04
272.862	0.09
273.077	0.04
273.292	0.08
273.506	-0.03
273.721	0.05
273.936	0.08
274.15	0.13
274.365	0.06
274.579	0.03
274.794	0.08
275.008	0.07
275.223	-0.01
275.437	-0
275.652	0.13
275.866	0.05
276.081	0.02
276.295	0.1
276.509	0.09
276.724	0.03
276.938	0.02
277.153	0.05
277.367	0.1
277.581	0.02
277.796	-0.03
278.01	-0.01
278.224	0.04
278.438	0.16
278.653	-0.01
278.867	-0.02
279.081	0.04
279.295	0.07
279.51	0.06
279.724	-0.07
279.938	0.09
280.152	0.11
280.366	-0.03
280.58	0.05
280.794	0.14
281.008	0.06
281.222	0.13
281.437	0.2
281.651	0.08
281.865	0.12
282.079	0.03
282.293	-0.09
282.507	-0
282.721	0.1
282.935	0.05
283.148	-0.08
283.362	-0.04
283.576	0.02
283.79	0.03
284.004	-0.02
284.218	0.07
284.432	0.01
284.646	0.04
284.859	0.05
285.073	0.05
285.287	0.06
285.501	0.05
285.714	0.02
285.928	0.02
286.142	0.04
286.356	0.01
286.569	-0.01
286.783	0.1
286.997	0.11
287.21	0.03
287.424	0.05
287.637	0.06
287.851	0.02
288.065	0.08
288.278	0.02
288.492	0.05
288.705	0.06
288.919	0.08
289.132	-0.02
289.346	0.07
289.559	-0.09
289.773	-0.05
289.986	0
290.2	0.05
290.413	0.08
290.626	0
290.84	0.02
291.053	0.01
291.267	0.12
291.48	0.05
291.693	0.01
291.906	0.05
292.12	0.04
292.333	0.01
292.546	0.03
292.76	0.13
292.973	0.09
293.186	0.1
293.399	0.04
293.612	0.11
293.826	0.01
294.039	0.05
294.252	0.08
294.465	0.11
294.678	0.05
294.891	0.05
295.104	0.01
295.317	0.03
295.53	0.04
295.743	0.02
295.956	0.01
296.169	0.16
296.382	0.09
296.595	0.06
296.808	0.01
297.021	0.07
297.234	0.09
297.447	0.09
297.66	0.09
297.873	0.11
298.086	0.09
298.299	0.03
298.511	-0.04
298.724	0.02
298.937	-0
299.15	0.05
299.363	0.03
299.575	0.06
299.788	0.1
300.001	0
300.213	-0.04
300.426	0.01
300.639	0.01
300.852	-0.01
301.064	0.06
301.277	0.05
301.489	0.09
301.702	0.07
301.915	0.04
302.127	0.04
302.34	0.05
302.552	0.08
302.765	0.02
302.977	0.09
303.19	0.01
303.402	0.04
303.615	0.02
303.827	0.01
304.04	0.05
304.252	0.06
304.464	0.05
304.677	0.13
304.889	0.05
305.102	0.02
305.314	-0.03
305.526	0.08
305.739	0.05
305.951	-0
306.163	-0.01
306.375	0.14
306.588	0.04
306.8	-0
307.012	-0.06
307.224	0.05
307.436	0.11
307.649	-0.06
307.861	0.05
308.073	0.09
308.285	0.02
308.497	-0.01
308.709	-0
308.921	0.02
309.133	0.06
309.346	0.04
309.558	0.03
309.77	0.06
309.982	0.06
310.194	0.05
310.406	0.03
310.617	0.07
310.829	0.06
311.041	0.01
311.253	-0.04
311.465	-0.02
311.677	0.03
311.889	0.07
312.101	0
312.313	0.06
312.524	0.06
312.736	-0.01
312.948	0.01
313.16	0.16
313.372	0.08
313.583	0.04
313.795	0.04
314.007	0.01
314.218	0.05
314.43	0.03
314.642	0.03
314.853	-0.05
315.065	0.08
315.277	0.04
315.488	0.04
315.7	0.11
315.912	0.02
316.123	0.03
316.335	0.05
316.546	0.13
316.758	0.02
316.969	0.01
317.181	0.03
317.392	0.1
317.604	0.06
317.815	-0.01
318.026	0.02
318.238	-0.02
318.449	0.09
318.661	-0.05
318.872	-0.02
319.083	0.01
319.295	0.05
319.506	0
319.717	0.07
319.929	0.06
320.14	0.07
320.351	0.07
320.562	-0.01
320.774	0.07
320.985	0.02
321.196	-0.04
321.407	-0.02
321.618	0.07
321.829	0.04
322.041	0.06
322.252	0.05
322.463	0.03
322.674	0.04
322.885	-0.01
323.096	-0
323.307	0.01
323.518	0.09
323.729	0.04
323.94	0
324.151	0
324.362	0.02
324.573	0.04
324.784	0
324.995	0.09
325.206	0
325.417	0.02
325.628	0.03
325.838	0.05
326.049	0
326.26	0.07
326.471	0.05
326.682	0.08
326.892	0.06
327.103	-0
327.314	0.01
327.525	0.13
327.735	0.07
327.946	0.02
328.157	-0.01
328.368	0.07
328.578	-0.01
328.789	0.04
328.999	0.01
329.21	0.04
329.421	0.07
329.631	-0.01
329.842	0.02
330.052	0.06
330.263	0.08
330.473	0.05
330.684	-0
330.894	0.02
331.105	0.02
331.315	0.05
331.526	-0.02
331.736	0.14
331.947	0.08
332.157	0.03
332.367	-0.01
332.578	0.03
332.788	0.08
332.999	0.09
333.209	0.06
333.419	-0.03
333.629	0.05
333.84	0.03
334.05	0.04
334.26	0.08
334.47	0.06
334.681	0.12
334.891	-0.01
335.101	0.08
335.311	0.09
335.521	0.09
335.732	-0
335.942	0.08
336.152	0.08
336.362	0.06
336.572	0.03
336.782	0.08
336.992	0.02
337.202	-0.01
337.412	0.02
337.622	0.08
337.832	0.02
338.042	0.04
338.252	0.01
338.462	-0.02
338.672	0.05
338.882	-0.02
339.092	0.07
339.302	0.09
339.511	0.07
339.721	-0.02
339.931	0.01
340.141	0.09
340.351	0.07
340.561	0.04
340.77	0.03
340.98	0.08
341.19	0.05
341.4	0.01
341.609	-0.02
341.819	0.03
342.029	0.05
342.238	0.01
342.448	0.01
342.658	0.07
342.867	0.06
343.077	0.01
343.286	0.05
343.496	0.09
343.706	0.1
343.915	-0.01
344.125	0.05
344.334	0.05
344.544	0.01
344.753	0.02
344.963	0
345.172	0.01
345.381	0
345.591	0.03
345.8	0.05
346.01	0.13
346.219	0.06
346.428	-0.08
346.638	0.02
346.847	0.06
347.056	0.07
347.266	-0
347.475	0.03
347.684	0.03
347.893	0.06
348.103	0.03
348.312	0.01
348.521	-0.01
348.73	0.05
348.94	0.07
349.149	-0.02
349.358	0.05
349.567	-0
349.776	-0.03
349.985	0.01
350.194	0.05
350.403	0.06
350.612	-0.04
350.821	0.02
351.03	0.04
351.239	-0.03
351.448	0.01
351.657	-0.04
351.866	0.09
352.075	0.01
352.284	0.08
352.493	-0.01
352.702	0.09
352.911	0.03
353.12	0.04
353.329	-0
353.538	0.05
353.746	0.05
353.955	0.02
354.164	0.03
354.373	0.04
354.582	0.06
354.79	0.02
354.999	0.06
355.208	0.05
355.416	0.1
355.625	0.04
355.834	0.04
356.042	0.08
356.251	0
356.46	0.01
356.668	0.06
356.877	0.11
357.085	0.1
357.294	-0.03
357.503	0.08
357.711	0
357.92	0.16
358.128	0.05
358.337	0.01
358.545	0.06
358.754	0
358.962	0.05
359.17	0.02
359.379	0.05
359.587	0.05
359.796	0.01
360.004	0.08
360.212	0.03
360.421	0.04
360.629	0.06
360.837	0.04
361.046	0.05
361.254	0.13
361.462	0.02
361.67	-0.04
361.879	0.04
362.087	0.13
362.295	0.06
362.503	0.04
362.711	-0.03
362.92	0.02
363.128	0.02
363.336	0.02
363.544	-0.01
363.752	0.03
363.96	0
364.168	0.01
364.376	0.03
364.584	0.07
364.792	0.08
365	0.06
365.208	0.02
365.416	0.09
365.624	0.06
365.832	0.03
366.04	0.07
366.248	0.08
366.456	0.03
366.664	0.02
366.872	0.07
367.079	0.02
367.287	0.04
367.495	0.03
367.703	0.02
367.911	-0.01
368.118	0
368.326	0.03
368.534	-0.01
368.742	0.12
368.949	-0.01
369.157	-0.01
369.365	0.05
369.572	-0.02
369.78	-0.01
369.988	0.1
370.195	0.02
370.403	0.07
370.61	-0.02
370.818	0.03
371.026	0.09
371.233	0
371.441	0.05
371.648	0.01
371.856	0.05
372.063	0.03
372.271	0.03
372.478	0.01
372.685	0.05
372.893	0.1
373.1	0.02
373.308	0.02
373.515	0.07
373.722	0.08
373.93	0.03
374.137	0.06
374.344	0.1
374.552	0.07
374.759	0.05
374.966	0.02
375.173	-0.01
375.381	0.07
375.588	0.04
375.795	-0.05
376.002	0.01
376.209	0.03
376.417	0
376.624	0.06
376.831	0.04
377.038	0.03
377.245	-0.05
377.452	-0
377.659	0.02
377.866	0.01
378.073	0.04
378.28	0.03
378.487	0.09
378.694	0.12
378.901	0.01
379.108	0.03
379.315	0.06
379.522	0.14
379.729	0.05
379.936	0.04
380.143	0.07
380.35	0.04
380.557	0.02
380.763	0.03
380.97	0.02
381.177	0.04
381.384	0.05
381.591	-0.01
381.797	0.01
382.004	0.02
382.211	0.04
382.418	0.06
382.624	0.05
382.831	0.07
383.038	0.02
383.244	0.03
383.451	0.08
383.658	0.05
383.864	0.04
384.071	0.01
384.277	0.13
384.484	0.01
384.69	0.1
384.897	-0.01
385.103	0.05
385.31	0.03
385.516	-0
385.723	0.02
385.929	0.05
386.136	0.01
386.342	0.05
386.549	0.03
386.755	0.12
386.961	0.08
387.168	0.01
387.374	0.04
387.58	0.03
387.787	0.03
387.993	0.06
388.199	0.03
388.406	0.02
388.612	0.03
388.818	0.01
389.024	0.02
389.231	0.06
389.437	0.1
389.643	0.11
389.849	0.06
390.055	0.03
390.261	0.06
390.467	0.04
390.674	-0.02
390.88	0.05
391.086	0.07
391.292	-0.01
391.498	0.09
391.704	0.02
391.91	-0.01
392.116	0.01
392.322	-0.03
392.528	0.05
392.734	0.03
392.94	0.04
393.146	-0
393.352	0.01
393.557	0.04
393.763	0.04
393.969	0.04
394.175	-0.02
394.381	0.06
394.587	-0
394.792	0.05
394.998	0.06
395.204	0.1
395.41	0.07
395.615	0.03
395.821	0.06
396.027	0.07
396.233	-0
396.438	0.05
396.644	0.14
396.85	0.06
397.055	0.05
397.261	0.03
397.466	0.13
397.672	0.06
397.878	0.12
398.083	0.06
398.289	0.04
398.494	0.13
398.7	0.05
398.905	-0.01
399.111	0.11
399.316	-0.01
399.522	0.03
399.727	0.04
399.932	0.02
400.138	0.06
400.343	0.1
400.549	0.01
400.754	0.06
400.959	0.09
401.165	0.03
401.37	0.02
401.575	0.13
401.78	0.07
401.986	0.02
402.191	0.01
402.396	0.03
402.601	0.04
402.807	0.01
403.012	0.03
403.217	0.07
403.422	0.03
403.627	0.02
403.832	-0.01
404.037	0.08
404.243	0.06
404.448	0.02
404.653	0
404.858	0.04
405.063	0.09
405.268	0.02
405.473	0.01
405.678	0.03
405.883	0.16
406.088	0.1
406.293	-0
406.498	-0.01
406.703	0.09
406.907	0.04
407.112	-0.03
407.317	0.02
407.522	0.05
407.727	-0.01
407.932	0.09
408.136	0.11
408.341	0.04
408.546	0.02
408.751	0.04
408.956	0.03
409.16	0.05
409.365	0.05
409.57	0.01
409.774	0.04
409.979	0.07
410.184	0.06
410.388	-0.01
410.593	0.14
410.798	0.05
411.002	-0.01
411.207	0.05
411.411	0.03
411.616	-0.03
411.82	0.02
412.025	0.07
412.229	0.02
412.434	0.13
412.638	0.07
412.843	0.06
413.047	0.07
413.252	0.01
413.456	0.04
413.66	0.07
413.865	-0.01
414.069	0.09
414.273	0.04
414.478	0.01
414.682	0.07
414.886	0.06
415.091	0.01
415.295	-0.04
415.499	0.06
415.703	0.04
415.908	0.07
416.112	-0.02
416.316	0.08
416.52	0.01
416.724	-0.01
416.929	0.02
417.133	0.18
417.337	0.02
417.541	0.01
417.745	0.04
417.949	0.07
418.153	0.1
418.357	-0
418.561	0.09
418.765	0.05
418.969	0.19
419.173	0.09
419.377	0.06
419.581	0.12
419.785	0.01
419.989	0
420.193	0.02
420.397	0.09
420.601	0.09
420.804	0.13
421.008	0.03
421.212	0.03
421.416	0.1
421.62	0.02
421.823	0.04
422.027	0.15
422.231	0.08
422.435	0.03
422.638	0.04
422.842	0.08
423.046	0.02
423.249	0.07
423.453	0.11
423.657	0.09
423.86	0.05
424.064	0.04
424.268	0.13
424.471	0.03
424.675	0.11
424.878	0.11
425.082	0.08
425.285	0.09
425.489	0.1
425.692	0.09
425.896	-0.01
426.099	0.15
426.303	0.03
426.506	-0.01
426.71	0.11
426.913	0.13
427.116	0.14
427.32	0.03
427.523	0.08
427.726	0.17
427.93	0.01
428.133	0.06
428.336	0.03
428.54	0.03
428.743	0.1
428.946	0.09
429.149	0.02
429.353	0.1
429.556	0.02
429.759	0.01
429.962	0.02
430.165	0.11
430.368	0.05
430.571	0.06
430.775	0.03
430.978	0.04
431.181	0.07
431.384	0.07
431.587	0.02
431.79	0.03
431.993	-0
432.196	0.04
432.399	0.01
432.602	0.14
432.805	0
433.008	0.07
433.211	-0.02
433.414	0.06
433.616	0.07
433.819	0.05
434.022	-0.05
434.225	0.13
434.428	0.07
434.631	0.19
434.833	0.09
435.036	0.05
435.239	0.13
435.442	0.08
435.645	0.05
435.847	0.02
436.05	0.11
436.253	0.06
436.455	0.06
436.658	0.04
436.861	0.13
437.063	0.05
437.266	0.05
437.468	0.08
437.671	0.22
437.874	0.04
438.076	0.04
438.279	-0.04
438.481	0.1
438.684	0.01
438.886	0.06
439.089	-0.04
439.291	0.11
439.494	0.08
439.696	-0.01
439.899	0.07
440.101	0.11
440.303	-0.04
440.506	0.08
440.708	0.06
440.91	0.08
441.113	0.03
441.315	0.07
441.517	0.04
441.72	0.11
441.922	0.04
442.124	0.04
442.326	0.04
442.529	0.15
442.731	0.05
442.933	0.18
443.135	0.09
443.337	0.06
443.539	0.07
443.742	0.09
443.944	0.11
444.146	0.03
444.348	0.03
444.55	0.06
444.752	0.01
444.954	0.02
445.156	0.06
445.358	0.06
445.56	0.11
445.762	0.08
445.964	0.07
446.166	0.05
446.368	0.01
446.57	0.17
446.772	0.09
446.974	0.05
447.175	0.1
447.377	0.07
447.579	0.04
447.781	-0.02
447.983	0.17
448.184	0.09
448.386	0.08
448.588	0.02
448.79	0.14
448.991	0.06
449.193	0.08
449.395	0.07
449.597	0.11
449.798	0.14
450	0.1
450.202	0.08
450.403	0.07
450.605	0.09
450.806	0.07
451.008	-0.03
451.21	0.03
451.411	0.09
451.613	0.07
451.814	0.09
452.016	0.12
452.217	0.1
452.419	0.14
452.62	0.08
452.821	0.13
453.023	0.16
453.224	0.14
453.426	0.05
453.627	0.13
453.828	0.12
454.03	0.09
454.231	0.11
454.432	0.03
454.634	0.21
454.835	0.05
455.036	0.02
455.238	0.15
455.439	0.16
455.64	0.01
455.841	0.04
456.042	0.18
456.244	0.16
456.445	0.03
456.646	0.03
456.847	0.07
457.048	0.18
457.249	0.06
457.45	0.27
457.651	0.04
457.852	0.11
458.054	0.05
458.255	0.04
458.456	0.11
458.657	0.09
458.858	0.04
459.058	0.06
459.259	0.12
459.46	0.07
459.661	0.05
459.862	0.17
460.063	0.05
460.264	0.11
460.465	0.04
460.666	0.19
460.866	0.07
461.067	0.05
461.268	0.08
461.469	0.04
461.67	0.05
461.87	0.05
462.071	0.03
462.272	0.05
462.473	0.09
462.673	0.13
462.874	0.09
463.075	0.12
463.275	0.04
463.476	0.1
463.676	0.13
463.877	0.1
464.078	0.11
464.278	0.14
464.479	0.1
464.679	0.11
464.88	0.11
465.08	0.2
465.281	0.08
465.481	0.05
465.682	0.05
465.882	0.11
466.083	0.08
466.283	0.04
466.483	0.06
466.684	0.03
466.884	0.06
467.085	0.09
467.285	0.18
467.485	0.05
467.686	0.09
467.886	0.04
468.086	0.08
468.286	0.1
468.487	0.12
468.687	0.06
468.887	0.07
469.087	0.14
469.287	0.09
469.488	0.06
469.688	0.14
469.888	0.14
470.088	0.15
470.288	0.12
470.488	0.16
470.688	0.07
470.888	0.08
471.088	0.08
471.288	0.1
471.488	0.15
471.688	0.16
471.888	0.11
472.088	0.16
472.288	0.13
472.488	0.11
472.688	0.06
472.888	0.16
473.088	0.12
473.288	0.12
473.488	0.15
473.688	0.19
473.887	0.17
474.087	0.1
474.287	0.14
474.487	0.07
474.687	0.17
474.886	0.1
475.086	0.14
475.286	0.14
475.486	0.15
475.685	0.13
475.885	0.09
476.085	0.1
476.284	0.19
476.484	0.12
476.684	0.17
476.883	0.21
477.083	0.15
477.282	0.12
477.482	0.18
477.681	0.18
477.881	0.17
478.08	0.09
478.28	0.09
478.479	0.17
478.679	0.24
478.878	0.15
479.078	0.12
479.277	0.14
479.477	0.17
479.676	0.21
479.875	0.19
480.075	0.14
480.274	0.18
480.473	0.19
480.673	0.19
480.872	0.2
481.071	0.2
481.271	0.19
481.47	0.17
481.669	0.19
481.868	0.14
482.067	0.2
482.267	0.21
482.466	0.18
482.665	0.21
482.864	0.17
483.063	0.15
483.262	0.23
483.461	0.29
483.661	0.26
483.86	0.24
484.059	0.26
484.258	0.22
484.457	0.24
484.656	0.27
484.855	0.3
485.054	0.22
485.253	0.24
485.452	0.23
485.651	0.27
485.849	0.3
486.048	0.25
486.247	0.29
486.446	0.29
486.645	0.24
486.844	0.29
487.043	0.3
487.241	0.34
487.44	0.28
487.639	0.32
487.838	0.37
488.037	0.34
488.235	0.41
488.434	0.4
488.633	0.35
488.831	0.42
489.03	0.41
489.229	0.41
489.427	0.38
489.626	0.46
489.825	0.47
490.023	0.4
490.222	0.42
490.42	0.45
490.619	0.49
490.817	0.45
491.016	0.46
491.214	0.5
491.413	0.51
491.611	0.5
491.81	0.51
492.008	0.51
492.207	0.57
492.405	0.53
492.604	0.52
492.802	0.57
493	0.61
493.199	0.59
493.397	0.6
493.595	0.64
493.794	0.62
493.992	0.71
494.19	0.66
494.388	0.69
494.587	0.67
494.785	0.71
494.983	0.69
495.181	0.74
495.379	0.76
495.578	0.8
495.776	0.8
495.974	0.79
496.172	0.82
496.37	0.85
496.568	0.86
496.766	0.84
496.964	0.93
497.162	0.95
497.36	0.91
497.558	1
497.756	1.03
497.954	0.98
498.152	1.04
498.35	1.09
498.548	1.03
498.746	1.1
498.944	1.11
499.142	1.12
499.34	1.11
499.538	1.23
499.736	1.19
499.933	1.26
500.131	1.29
500.329	1.33
500.527	1.37
500.725	1.41
500.922	1.46
501.12	1.47
501.318	1.52
501.516	1.49
501.713	1.57
501.911	1.6
502.109	1.55
502.306	1.67
502.504	1.62
502.701	1.69
502.899	1.75
503.097	1.89
503.294	1.83
503.492	1.9
503.689	1.97
503.887	1.96
504.084	2.02
504.282	2.04
504.479	2.02
504.677	2.18
504.874	2.17
505.072	2.16
505.269	2.28
505.466	2.35
505.664	2.35
505.861	2.32
506.059	2.39
506.256	2.52
506.453	2.57
506.651	2.68
506.848	2.72
507.045	2.76
507.242	2.76
507.44	2.79
507.637	2.89
507.834	2.89
508.031	3.02
508.229	3.02
508.426	3.07
508.623	3.21
508.82	3.23
509.017	3.28
509.214	3.31
509.411	3.44
509.608	3.42
509.805	3.59
510.003	3.61
510.2	3.64
510.397	3.8
510.594	3.79
510.791	3.86
510.988	3.92
511.184	3.96
511.381	3.94
511.578	4.1
511.775	4.25
511.972	4.2
512.169	4.32
512.366	4.34
512.563	4.44
512.76	4.53
512.956	4.61
513.153	4.61
513.35	4.67
513.547	4.69
513.744	4.79
513.94	4.86
514.137	5.02
514.334	5
514.53	5.12
514.727	5.29
514.924	5.28
515.12	5.31
515.317	5.38
515.514	5.39
515.71	5.37
515.907	5.64
516.103	5.68
516.3	5.65
516.497	5.75
516.693	5.82
516.89	5.83
517.086	5.91
517.283	5.95
517.479	5.85
517.676	6.11
517.872	6.15
518.068	6.22
518.265	6.28
518.461	6.22
518.658	6.36
518.854	6.37
519.05	6.46
519.247	6.54
519.443	6.44
519.639	6.65
519.836	6.52
520.032	6.5
520.228	6.71
520.424	6.66
520.621	6.78
520.817	6.76
521.013	6.7
521.209	6.9
521.405	6.88
521.601	6.89
521.798	6.82
521.994	6.82
522.19	6.76
522.386	6.88
522.582	6.92
522.778	7
522.974	6.9
523.17	6.93
523.366	6.82
523.562	6.94
523.758	6.9
523.954	6.69
524.15	6.92
524.346	6.92
524.542	6.85
524.738	6.83
524.934	6.91
525.129	6.85
525.325	6.76
525.521	6.7
525.717	6.93
525.913	6.75
526.109	6.7
526.304	6.75
526.5	6.67
526.696	6.71
526.892	6.6
527.087	6.75
527.283	6.63
527.479	6.55
527.674	6.33
527.87	6.48
528.066	6.4
528.261	6.37
528.457	6.31
528.653	6.35
528.848	6.27
529.044	6.26
529.239	6.11
529.435	6.06
529.63	5.96
529.826	5.96
530.021	5.94
530.217	5.94
530.412	5.82
530.608	5.81
530.803	5.72
530.999	5.62
531.194	5.62
531.389	5.67
531.585	5.49
531.78	5.62
531.975	5.46
532.171	5.46
532.366	5.41
532.561	5.27
532.757	5.25
532.952	5.29
533.147	5.1
533.342	5.1
533.538	5.05
533.733	5.1
533.928	4.81
534.123	4.88
534.318	4.86
534.513	4.79
534.709	4.82
534.904	4.69
535.099	4.68
535.294	4.62
535.489	4.6
535.684	4.51
535.879	4.43
536.074	4.44
536.269	4.36
536.464	4.34
536.659	4.25
536.854	4.18
537.049	4.2
537.244	4.1
537.439	4.05
537.634	4.06
537.828	4.02
538.023	3.96
538.218	3.87
538.413	3.78
538.608	3.78
538.803	3.83
538.997	3.68
539.192	3.73
539.387	3.61
539.582	3.63
539.776	3.51
539.971	3.51
540.166	3.51
540.36	3.43
540.555	3.46
540.75	3.4
540.944	3.33
541.139	3.28
541.334	3.24
541.528	3.23
541.723	3.25
541.917	3.17
542.112	3.05
542.306	3.03
542.501	3.04
542.695	3.02
542.89	2.95
543.084	2.97
543.279	2.91
543.473	2.97
543.668	2.9
543.862	2.81
544.056	2.8
544.251	2.83
544.445	2.81
544.64	2.74
544.834	2.59
545.028	2.55
545.222	2.61
545.417	2.69
545.611	2.59
545.805	2.51
546	2.44
546.194	2.47
546.388	2.47
546.582	2.43
546.776	2.35
546.97	2.36
547.165	2.37
547.359	2.32
547.553	2.28
547.747	2.27
547.941	2.27
548.135	2.23
548.329	2.25
548.523	2.17
548.717	2.07
548.911	2.13
549.105	2.05
549.299	2.08
549.493	2.05
549.687	2.02
549.881	2
550.075	1.95
550.269	1.88
550.463	1.94
550.657	1.88
550.85	1.83
551.044	1.81
551.238	1.84
551.432	1.78
551.626	1.75
551.82	1.74
552.013	1.66
552.207	1.7
552.401	1.74
552.594	1.63
552.788	1.6
552.982	1.61
553.176	1.54
553.369	1.62
553.563	1.54
553.756	1.52
553.95	1.49
554.144	1.5
554.337	1.51
554.531	1.44
554.724	1.44
554.918	1.4
555.111	1.41
555.305	1.35
555.498	1.38
555.692	1.37
555.885	1.32
556.079	1.27
556.272	1.26
556.466	1.25
556.659	1.26
556.852	1.24
557.046	1.19
557.239	1.21
557.432	1.15
557.626	1.15
557.819	1.16
558.012	1.15
558.206	1.12
558.399	1.07
558.592	1.1
558.785	1.06
558.979	1.06
559.172	1.03
559.365	1.04
559.558	1.04
559.751	0.98
559.944	1
560.138	0.93
560.331	0.97
560.524	0.93
560.717	0.92
560.91	0.93
561.103	0.91
561.296	0.9
561.489	0.9
561.682	0.86
561.875	0.89
562.068	0.88
562.261	0.84
562.454	0.87
562.647	0.79
562.84	0.81
563.032	0.79
563.225	0.77
563.418	0.74
563.611	0.76
563.804	0.76
563.997	0.7
564.19	0.68
564.382	0.75
564.575	0.72
564.768	0.7
564.961	0.67
565.153	0.68
565.346	0.67
565.539	0.67
565.731	0.68
565.924	0.66
566.117	0.67
566.309	0.63
566.502	0.6
566.695	0.61
566.887	0.61
567.08	0.59
567.272	0.57
567.465	0.54
567.657	0.6
567.85	0.58
568.042	0.58
568.235	0.59
568.427	0.55
568.62	0.54
568.812	0.54
569.005	0.52
569.197	0.49
569.389	0.53
569.582	0.49
569.774	0.49
569.966	0.46
570.159	0.48
570.351	0.49
570.543	0.46
570.736	0.47
570.928	0.43
571.12	0.46
571.312	0.43
571.505	0.39
571.697	0.45
571.889	0.4
572.081	0.43
572.273	0.39
572.465	0.45
572.658	0.4
572.85	0.44
573.042	0.41
573.234	0.38
573.426	0.43
573.618	0.34
573.81	0.38
574.002	0.39
574.194	0.4
574.386	0.34
574.578	0.3
574.77	0.33
574.962	0.33
575.154	0.32
575.346	0.36
575.538	0.33
575.729	0.32
575.921	0.33
576.113	0.34
576.305	0.35
576.497	0.29
576.689	0.33
576.88	0.28
577.072	0.32
577.264	0.29
577.456	0.31
577.647	0.24
577.839	0.3
578.031	0.34
578.223	0.25
578.414	0.23
578.606	0.29
578.798	0.28
578.989	0.23
579.181	0.27
579.372	0.28
579.564	0.24
579.755	0.25
579.947	0.25
580.139	0.3
580.33	0.19
580.522	0.24
580.713	0.16
580.905	0.24
581.096	0.24
581.287	0.23
581.479	0.24
581.67	0.25
581.862	0.21
582.053	0.18
582.244	0.18
582.436	0.19
582.627	0.22
582.818	0.17
583.01	0.18
583.201	0.2
583.392	0.23
583.583	0.19
583.775	0.17
583.966	0.18
584.157	0.19
584.348	0.2
584.54	0.17
584.731	0.2
584.922	0.19
585.113	0.14
585.304	0.18
585.495	0.19
585.686	0.18
585.877	0.21
586.068	0.18
586.259	0.17
586.45	0.14
586.641	0.14
586.832	0.11
587.023	0.18
587.214	0.17
587.405	0.17
587.596	0.12
587.787	0.25
587.978	0.15
588.169	0.12
588.36	0.12
588.551	0.16
588.742	0.13
588.932	0.19
589.123	0.14
589.314	0.12
589.505	0.17
589.696	0.16
589.886	0.11
590.077	0.12
590.268	0.13
590.458	0.11
590.649	0.07
590.84	0.19
591.03	0.11
591.221	0.07
591.412	0.1
591.602	0.12
591.793	0.16
591.984	0.11
592.174	0.14
592.365	0.21
592.555	0.09
592.746	0.12
592.936	0.12
593.127	0.12
593.317	0.13
593.508	0.1
593.698	0.09
593.889	0.11
594.079	0.11
594.269	0.08
594.46	0.1
594.65	0.13
594.84	0.12
595.031	0.08
595.221	0.1
595.411	0.08
595.602	0.15
595.792	0.09
595.982	0.09
596.172	0.17
596.363	0.13
596.553	0.1
596.743	0.09
596.933	0.1
597.123	0.13
597.314	0.09
597.504	0.07
597.694	0.14
597.884	0.12
598.074	0.08
598.264	0.07
598.454	0.11
598.644	0.09
598.834	0.09
599.024	0.03
599.214	0.09
599.404	0.1
599.594	0.05
599.784	0.08
599.974	0.13
600.164	0.12
600.354	0.06
600.544	0.06
600.734	0.1
600.924	0.11
601.114	0.05
601.303	0.07
601.493	0.1
601.683	0.07
601.873	0.07
602.063	0.03
602.252	0.08
602.442	0.03
602.632	0.06
602.821	0.03
603.011	0.11
603.201	0.05
603.39	0.04
603.58	0.04
603.77	0.08
603.959	0.12
604.149	0.05
604.339	0.06
604.528	0.11
604.718	0.08
604.907	0.04
605.097	0.04
605.286	0.04
605.476	0.11
605.665	0.08
605.855	0.07
606.044	0.09
606.234	0.09
606.423	0.04
606.612	0.02
606.802	0.06
606.991	0.09
607.181	0.09
607.37	0.01
607.559	0.05
607.749	0.04
607.938	0.06
608.127	0.04
608.316	0.04
608.506	0.07
608.695	0.05
608.884	0.03
609.073	0.06
609.263	0.07
609.452	0.08
609.641	0.07
609.83	0.05
610.019	0.04
610.208	0.04
610.397	0.06
610.586	0.08
610.775	0.03
610.965	0.04
611.154	0.02
611.343	0.06
611.532	0.05
611.721	0.03
611.91	0.01
612.099	0.06
612.287	0.03
612.476	0.03
612.665	0.04
612.854	0.02
613.043	0.08
613.232	0.03
613.421	0.01
613.61	0.06
613.798	0.02
613.987	0.05
614.176	0.07
614.365	0.06
614.554	0.03
614.742	0.06
614.931	0.02
615.12	0.1
615.309	0.02
615.497	0.04
615.686	0.04
615.875	0.04
616.063	0.06
616.252	0.04
616.44	0.02
616.629	0.05
616.818	0.08
617.006	0.04
617.195	0.03
617.383	0.07
617.572	0.05
617.76	0.04
617.949	0.03
618.137	0.06
618.326	0.09
618.514	0.03
618.703	0.01
618.891	0.07
619.079	-0
619.268	0.06
619.456	0.02
619.644	0.09
619.833	0.07
620.021	0.02
620.209	-0.01
620.398	0.02
620.586	0.06
620.774	0.05
620.962	0.03
621.151	0.09
621.339	0.07
621.527	0.02
621.715	0.02
621.903	0.04
622.092	0.01
622.28	0.07
622.468	0.04
622.656	0.03
622.844	0.05
623.032	0.01
623.22	0
623.408	0.07
623.596	0.06
623.784	0.06
623.972	0.01
624.16	0.01
624.348	0.1
624.536	0.02
624.724	0.01
624.912	0.07
625.1	0.04
625.288	-0
625.476	-0.01
625.664	0.07
625.851	0.01
626.039	0.03
626.227	0.04
626.415	0.04
626.603	-0.04
626.79	0.04
626.978	0.02
627.166	0.04
627.354	0.04
627.541	0.02
627.729	-0
627.917	0.08
628.104	0.09
628.292	0.04
628.48	-0
628.667	0.07
628.855	0.06
629.042	0.04
629.23	0.03
629.418	0.05
629.605	0.05
629.793	0.05
629.98	0.01
630.168	0.03
630.355	0.02
630.543	0.03
630.73	-0.01
630.917	0.05
631.105	0.05
631.292	0.02
631.48	0.02
631.667	0.1
631.854	0.04
632.042	0.04
632.229	0.01
632.416	0.03
632.604	0.04
632.791	-0
632.978	0.05
633.165	0.04
633.353	0.09
633.54	0.05
633.727	-0.03
633.914	0
634.101	-0.06
634.289	0.08
634.476	0.03
634.663	-0
634.85	0.06
635.037	-0
635.224	-0.01
635.411	0.06
635.598	0.04
635.785	0.03
635.972	0.02
636.159	0.07
636.346	0.03
636.533	0.01
636.72	0.01
636.907	0.02
637.094	0.07
637.281	0.02
637.468	0.03
637.655	0.02
637.842	0.06
638.029	0.01
638.215	0.06
638.402	0.03
638.589	0.01
638.776	0.02
638.963	0.01
639.149	0.07
639.336	0.1
639.523	0.02
639.709	0.04
639.896	0.01
640.083	0.1
640.27	0.04
640.456	-0
640.643	0.05
640.829	-0.01
641.016	0.02
641.203	-0.02
641.389	0.05
641.576	0.05
641.762	0.02
641.949	0.01
642.135	0.07
642.322	0.06
642.508	-0.05
642.695	0.04
642.881	0.03
643.068	0.01
643.254	0.02
643.441	0.07
643.627	0.04
643.813	-0.01
644	0.07
644.186	-0.01
644.372	0.05
644.559	0.05
644.745	0.02
644.931	-0
645.118	0
645.304	0.04
645.49	0.04
645.676	0.01
645.862	0.04
646.049	0.1
646.235	0.03
646.421	0.09
646.607	0.08
646.793	0.02
646.979	-0.03
647.165	0.05
647.352	0.04
647.538	0.07
647.724	0.02
647.91	0.04
648.096	0.07
648.282	0.06
648.468	0.01
648.654	0.02
648.84	0.06
649.026	0.03
649.212	0.02
649.397	-0
649.583	-0.01
649.769	0.05
649.955	0.02
650.141	0.04
650.327	0.09
650.513	0.01
650.698	0.04
650.884	-0.02
651.07	0.05
651.256	0.06
651.442	0.03
651.627	0
651.813	0.07
651.999	0.02
652.184	0.04
652.37	0.02
652.556	-0.02
652.741	0.07
652.927	-0.06
653.113	0
653.298	0.04
653.484	0.03
653.669	-0
653.855	-0.01
654.04	0.03
654.226	0.03
654.412	-0.02
654.597	-0.02
654.782	0.05
654.968	0.06
655.153	0.06
655.339	0
655.524	-0.02
655.71	0.06
655.895	-0.04
656.08	0.01
656.266	0.1
656.451	0.04
656.636	-0
656.822	0.05
657.007	-0
657.192	-0
657.378	-0.04
657.563	0.01
657.748	0.05
657.933	0.09
658.118	0.01
658.304	0.02
658.489	0.11
658.674	0.02
658.859	0
659.044	0.05
659.229	0.05
659.414	0.01
659.599	0.06
659.785	-0.01
659.97	0.02
660.155	0.06
660.34	0
660.525	0.02
660.71	0
660.895	0.06
661.08	-0.01
661.264	-0.01
661.449	0.06
661.634	0.07
661.819	0.04
662.004	0.06
662.189	0.01
662.374	-0
662.559	-0.02
662.743	-0.02
662.928	0.02
663.113	0.01
663.298	-0.03
663.483	-0.02
663.667	0.02
663.852	-0.02
664.037	0.09
664.221	0.01
664.406	0.07
664.591	0.03
664.775	0.05
664.96	-0.02
665.145	0.02
665.329	0.06
665.514	0.03
665.698	0.02
665.883	-0.04
666.068	0.11
666.252	0.03
666.437	-0.05
666.621	0.02
666.806	0.1
666.99	0.01
667.174	0.03
667.359	0.12
667.543	0.01
667.728	0.03
667.912	-0.04
668.096	0.08
668.281	0.01
668.465	-0
668.649	0.05
668.834	0
669.018	0.03
669.202	0.03
669.387	0.07
669.571	0.1
669.755	0.01
669.939	0.03
670.124	0.05
670.308	0.08
670.492	0.06
670.676	0.05
670.86	0
671.044	0.02
671.228	0.07
671.413	-0.01
671.597	-0.02
671.781	0
671.965	0.03
672.149	-0.01
672.333	0.02
672.517	0.01
672.701	0.05
672.885	0.05
673.069	0
673.253	0.1
673.437	0.01
673.621	0.04
673.804	0.02
673.988	0.03
674.172	0.02
674.356	-0.04
674.54	-0
674.724	0.11
674.908	0.04
675.091	0.06
675.275	0.05
675.459	0.04
675.643	0.14
675.826	0.08
676.01	0.05
676.194	0
676.377	0.08
676.561	0.06
676.745	0.01
676.928	0.05
677.112	0.09
677.296	-0
677.479	0.04
677.663	0.06
677.846	0.04
678.03	0.04
678.213	0.01
678.397	-0
678.58	0.05
678.764	0.05
678.947	0.01
679.131	-0.02
679.314	0.1
679.498	0.03
679.681	0.05
679.865	0.14
680.048	0.01
680.231	0.06
680.415	0.07
680.598	0.03
680.781	0.05
680.965	0.01
681.148	0.07
681.331	0
681.514	0.04
681.698	0.03
681.881	0.03
682.064	0.09
682.247	0.06
682.43	-0.03
682.614	0.03
682.797	0.06
682.98	0.08
683.163	0
683.346	0.04
683.529	0.01
683.712	0.01
683.895	0.09
684.078	0.01
684.261	0.03
684.444	0.04
684.627	0.05
684.81	0.05
684.993	0.04
685.176	0.1
685.359	-0.02
685.542	-0.05
685.725	0.13
685.908	0.05
686.091	0.01
686.274	0.12
686.457	0.07
686.639	0.02
686.822	0.07
687.005	0.06
687.188	0.09
687.371	0.1
687.553	0.05
687.736	0.05
687.919	0.15
688.102	0.11
688.284	-0.02
688.467	-0
688.65	0
688.832	-0.02
689.015	0.01
689.197	-0.04
689.38	0.11
689.563	0.16
689.745	0.02
689.928	-0.01
690.11	0.01
690.293	0.07
690.475	-0.03
690.658	0.12
690.84	0
691.023	0.03
691.205	-0.04
691.388	0.02
691.57	0.07
691.752	0.09
691.935	-0.03
692.117	0.01
692.3	0.05
692.482	0.04
692.664	0.01
692.847	0.07
693.029	0.05
693.211	0.06
693.393	0.05
693.576	0.05
693.758	0.06
693.94	0.02
694.122	-0.03
694.304	0.01
694.487	0.03
694.669	0.15
694.851	-0.01
695.033	0.05
695.215	0.02
695.397	0
695.579	0.04
695.761	-0.03
695.943	-0.05
696.125	0.1
696.308	0.06
696.49	-0.05
696.671	0.14
696.853	0.02
697.035	0.2
697.217	0.06
697.399	0.05
697.581	-0.01
697.763	0.08
697.945	-0.03
698.127	0.03
698.309	0.11
698.491	0.05
698.672	0.08
698.854	0.06
699.036	0.11
699.218	0.06
699.399	0.12
699.581	0.05
699.763	0.05
699.945	0.02
700.126	-0.03
700.308	0.07
700.49	0.05
700.671	-0.05
700.853	-0.02
701.035	-0.03
701.216	0.06
701.398	0.01
701.579	0
701.761	0.04
701.943	0.04
702.124	0.02
702.306	0.01
702.487	0.16
702.669	0.03
702.85	0.01
703.031	-0.03
703.213	0.15
703.394	0.17
703.576	0.03
703.757	0.1
703.938	0.05
704.12	0.21
704.301	0.05
704.483	0.03
704.664	0.12
704.845	0.14
705.026	0.1
705.208	0.04
705.389	0.01
705.57	0.1
705.751	0.02
705.933	-0.01
706.114	0.13
706.295	0.04
706.476	0
706.657	0.13
706.838	0.1
707.02	0.1
707.201	-0.01
707.382	0.04
707.563	0.07
707.744	0.11
707.925	-0.02
708.106	0.03
708.287	0.09
708.468	0.13
708.649	0.02
708.83	0.13
709.011	0
709.192	0.1
709.373	-0.02
709.554	0.02
709.734	0.05
709.915	0.08
710.096	0.02
710.277	-0.07
710.458	0.04
710.639	0.11
710.819	-0.03
711	-0.01
711.181	0.11
711.362	0.09
711.542	0.08
711.723	0.13
711.904	0.1
712.085	0.03
712.265	0.01
712.446	-0.02
712.627	-0.04
712.807	0.01
712.988	0.05
713.168	-0.05
713.349	0.07
713.53	-0.12
713.71	-0.02
713.891	0.05
714.071	-0.01
714.252	0.03
714.432	0.04
714.613	-0.04
714.793	0.08
714.974	0.09
715.154	0.08
715.334	0.11
715.515	0.09
715.695	-0.11
715.876	0.03
716.056	-0.02
716.236	0.03
716.417	0.06
716.597	0.04
716.777	0.15
716.957	0.02
717.138	0.03
717.318	0.02
717.498	-0.11
717.678	0.1
717.859	0.1
718.039	-0.07
718.219	0.11
718.399	0.05
718.579	-0.04
718.759	-0.02
718.939	0.04
719.12	0.05
719.3	0.07
719.48	-0.09
719.66	-0.08
719.84	0.14
720.02	0.02
720.2	-0.05
720.38	0.06
720.56	0.15
720.74	-0.05
720.92	0.05
721.1	0.13
721.279	0.07
721.459	0.02
721.639	-0.07
721.819	0.06
721.999	0.02
722.179	0.11
722.359	-0.02
722.538	0
722.718	0.05
722.898	-0.06
723.078	0.02
723.257	-0.01
723.437	0.05
723.617	0.06
723.797	-0.03
723.976	0.01
724.156	0.03
724.336	0.17
724.515	0.18
724.695	-0.17
724.874	0
725.054	0.08
725.234	0.04
725.413	0.02
725.593	0.01
725.772	0.11
725.952	0.03
726.131	-0.06
726.311	0.05
726.49	0.01
726.67	-0.12
726.849	0.03
727.028	0.11
727.208	-0.06
727.387	0.11
727.567	-0.1
727.746	0.07
727.925	0.06
728.105	-0.06
728.284	-0.01
728.463	-0.07
728.643	0.04
728.822	-0.04
729.001	-0.02
729.18	0.05
729.359	0.06
729.539	0.04
729.718	0.02
729.897	0.04
730.076	0.02
730.255	-0.03
730.434	0.05
730.614	0.17
730.793	0.11
730.972	0.02
731.151	0
731.33	0.09
731.509	0.04
731.688	0.06
731.867	0.16
732.046	-0.12
732.225	0.24
732.404	-0.02
732.583	-0.04
732.762	0.05
732.941	0.15
733.12	0.03
733.298	0.03
733.477	0.13
733.656	-0.01
733.835	-0.03
734.014	0.2
734.193	0.08
734.371	0.13
734.55	0.07
734.729	-0.03
734.908	0.09
735.086	0.01
735.265	0.08
735.444	-0.1
735.623	-0.16
735.801	-0.02
735.98	0.04
736.159	-0.04
736.337	0.11
736.516	-0.02
736.694	0.02
736.873	-0
737.052	0.19
737.23	0.16
737.409	-0.07
737.587	0.24
737.766	-0.06
737.944	0.05
738.123	0.09
738.301	0.14
738.479	-0.03
738.658	0.09
738.836	-0.23
739.015	0.05
739.193	0.24
739.371	-0.04
739.55	-0.06
739.728	-0
739.906	0.09
740.085	0.1
740.263	0.04
740.441	-0.06
740.62	0.24
740.798	0.07
740.976	-0.03
741.154	-0.09
741.332	0.19
741.511	-0.01
741.689	0.1
741.867	0.17
742.045	0.02
742.223	-0.02
742.401	-0
742.579	-0.01
742.757	0.09
742.935	-0.07
743.114	-0
743.292	-0.02
743.47	0.03
743.648	0.02
743.826	-0.12
744.004	0.11
744.181	0.1
744.359	-0.02
744.537	0.13
744.715	0.06
744.893	0.02
745.071	0.06
745.249	0
745.427	0.08
745.605	0.14
745.782	0.04
745.96	0.14
746.138	0.09
746.316	0.07
746.493	0
746.671	0.06
746.849	0.05
747.027	0.14
747.204	-0.03
747.382	0.04
747.56	-0.13
747.737	-0.08
747.915	-0.06
748.093	0.07
748.27	-0.11
748.448	-0.08
748.625	-0.02
748.803	-0
748.98	-0.08
749.158	0.03
749.335	0.17
749.513	0.01
749.69	0.11
749.868	-0.14
750.045	0.14
750.223	-0.01
750.4	-0.11
750.578	0.16
750.755	-0.01
750.932	-0.07
751.11	0.13
751.287	-0.11
751.464	0.19
751.642	-0.13
751.819	0.15
751.996	0.01
752.173	0.06
752.351	-0.06
752.528	0.02
752.705	0.12
752.882	-0.06
753.06	0.08
753.237	0.1
753.414	0.25
753.591	0.19
753.768	0.03
753.945	-0.04
754.122	-0.08
754.299	-0.01
754.476	0.04
754.654	-0.04
754.831	0.1
755.008	0.06
755.185	-0
755.362	-0.08
755.539	0.09
755.716	-0.14
755.892	-0.03
756.069	-0.03
756.246	-0.05
756.423	-0.01
756.6	0.18
756.777	0.01
756.954	0.09
757.131	0.04
757.307	-0.04
757.484	-0.02
757.661	0.16
757.838	0.01
758.015	0
758.191	0.11
758.368	0.05
758.545	0.17
758.721	0.09
758.898	0.02
759.075	-0.02
759.251	0.13
759.428	0.07
759.605	-0.1
759.781	-0.04
759.958	0.03
760.134	0.12
760.311	-0.11
760.488	0.21
760.664	0.16
760.841	-0.03
761.017	-0.13
761.194	0.03
761.37	0.16
761.547	0.16
761.723	0.17
761.899	0.22
762.076	-0.02
762.252	-0.08
762.429	0.05
762.605	0.08
762.781	-0.02
762.958	0.1
763.134	0.07
763.31	-0.07
763.486	0.25
763.663	-0.14
763.839	0.05
764.015	-0.25
764.191	-0.14
764.368	-0.02
764.544	0
764.72	0.16
764.896	0.08
765.072	0.12
765.248	-0.15
765.425	0.05
765.601	-0.07
765.777	0.12
765.953	-0.14
766.129	-0.11
766.305	-0.05
766.481	0.07
766.657	0.1
766.833	0.12
767.009	-0.16
767.185	0.01
767.361	0.05
767.537	-0.13
767.713	0.25
767.889	-0.03
768.065	0.04
768.24	0
768.416	0.07
768.592	0.13
768.768	0.13
768.944	0.14
769.12	-0.04
769.295	-0.05
769.471	-0.04
769.647	-0.03
769.823	0.18
769.998	-0.14
770.174	0.05
770.35	0.24
770.525	0.36
770.701	0.1
770.877	0.01
771.052	-0.02
771.228	0.08
771.403	0.13
771.579	0.14
771.755	0.34
771.93	0.04
772.106	-0.07
772.281	-0.1
772.457	0.04
772.632	0.08
772.808	-0.03
772.983	-0.07
773.159	-0.18
773.334	0.15
773.509	0.05
773.685	-0.07
773.86	0.45
774.036	0.29
774.211	0.17
774.386	-0.01
774.562	0.1
774.737	0.05
774.912	-0.05
775.087	0.11
775.263	-0.02
775.438	0.16
775.613	-0.16
775.788	-0.07
775.964	0.19
776.139	0.54
776.314	-0.22
776.489	0.07
776.664	0.02
776.839	0.05
777.014	0.17
777.19	0.2
777.365	0.36
777.54	0.34
777.715	0.01
777.89	0.16
778.065	0.03
778.24	0.14
778.415	0.18
778.59	-0.13
778.765	0.03
778.94	0.11
779.115	-0.04
779.289	-0.07
779.464	0.08
779.639	-0.08
779.814	-0.2
779.989	0.02
780.164	0.16
780.339	0.15
780.513	-0.1
780.688	-0.03
780.863	0.06
781.038	0.16
781.212	-0.18
781.387	-0.07
781.562	0.31
781.737	-0.19
781.911	0.34
782.086	-0.06
782.261	-0.07
782.435	0.39
782.61	0.1
782.784	0.16
782.959	0.26
783.134	-0.03
783.308	-0.17
783.483	0.03
783.657	0.43
783.832	0.26
784.006	-0.24
784.181	0.11
784.355	0.25
784.53	-0.1
784.704	-0.12
784.878	0.33
785.053	0.24
785.227	0.2
785.402	0.53
785.576	-0.27
785.75	0.07
785.925	-0.1
786.099	-0.04
786.273	-0.03
786.448	0.16
786.622	0
786.796	0.02
786.97	-0.03
787.145	0.48
787.319	-0.21
787.493	-0.12
787.667	-0.25
787.841	0.07
788.015	0.11
788.19	-0.07
788.364	0.01
788.538	0.24
788.712	0.09
788.886	-0.04
789.06	0.24
789.234	0.18
789.408	0.01
789.582	-0.19
789.756	0.09
789.93	-0.01
790.104	-0.05
790.278	-0.27
790.452	-0
790.626	0.17
790.8	-0.15
790.973	0.29
791.147	0.21
791.321	0.23
791.495	0.21
791.669	-0.06
791.843	0.14
792.016	0.16
792.19	0.53
792.364	-0.35
792.538	0.48
792.711	0.39
792.885	-0.04
793.059	-0.2
793.233	-0.35
793.406	0.29
793.58	-0.03
793.754	-0.05
793.927	-0.01
794.101	0.21
794.274	-0.09
794.448	0.03
794.622	-0.21
794.795	0.41
794.969	-0.09
795.142	0.28
795.316	-0.08
795.489	0.14
795.663	0.27
795.836	0.03
796.009	-0.05
796.183	0.27
796.356	0.06
796.53	0.03
796.703	0.03
796.876	0.52
797.05	-0.21
797.223	0.05
797.396	0.12
797.57	0.08
797.743	0.19
797.916	0.14
798.09	0.05
798.263	0.27
798.436	0.04
798.609	-0.05
798.782	0.07
798.956	0.16
799.129	-0.14
799.302	0.17
799.475	-0.02
799.648	-0.24
799.821	0.03
799.994	0.14
800.167	-0.46
800.34	0.11
800.514	0.18
800.687	-0.27
800.86	-0.06
801.033	-0.13
801.206	0
801.379	-0.4
801.551	0.02
801.724	0.36
801.897	0.28
802.07	-0.08
802.243	-0.43
802.416	0.35
802.589	0.2
802.762	0.11
802.935	0.09
803.107	0.19
803.28	0.47
803.453	0.43
803.626	-0.18
803.798	-0
803.971	-0.05
804.144	0.3
804.317	-0.21
804.489	0.41
804.662	0.27
804.835	0.08
805.007	-0.28
805.18	0.06
805.353	0.21
805.525	-0.48
805.698	-0.06
805.87	0.13
806.043	0.14
806.215	-0.33
806.388	-0.26
806.56	0.35
806.733	0.32
806.905	0.16
807.078	-0.04
807.25	-0.31
807.423	0.2
807.595	0.09
807.768	0.16
807.94	0.42
808.112	0.34
808.285	0.02
808.457	-0.27
808.629	-0.03
808.802	0.44
808.974	0.26
809.146	0.02
809.318	-0.25
809.491	0.07
809.663	0.1
809.835	-0.12
810.007	-0.06
810.18	0.05
810.352	-0.42
810.524	-0.35
810.696	0.52
810.868	0.6
811.04	0.09
811.212	-0.3
811.384	0.37
811.556	0.03
811.728	0.1
811.901	0.9
812.073	-0.25
812.245	0.34
812.417	-0.04
812.589	-0.37
812.76	0.09
812.932	0.07
813.104	0.46
813.276	0.01
813.448	0.7
813.62	0.27
813.792	0.22
813.964	0.11
814.136	0.61
814.307	0.07
814.479	-0.44
814.651	-0.22
814.823	0.97
814.995	0.2
815.166	0.32
815.338	0.3
815.51	-0.84
815.681	1.02
815.853	-0.26
816.025	-0.34
816.196	0.8
816.368	0.56
816.54	-0.49
816.711	0.04
816.883	0.3
817.054	0.89
817.226	-0.93
817.398	0.25
817.569	-0.16
817.741	0.38
817.912	-0.02
818.084	-0.03
818.255	0.05
818.426	-0.46
818.598	-0.12
818.769	-0.39
818.941	0.27
819.112	0.55
819.283	0.57
819.455	0.29
819.626	0.35
819.798	0.44
819.969	0.13
820.14	-0.07
820.311	-0.05
820.483	0.17
820.654	-0
820.825	0.28
820.996	-0.24
821.168	-0.26
821.339	-0.31
821.51	-0.3
821.681	-0.17
821.852	0.12
822.023	-0.28
822.195	-0.18
822.366	0.66
822.537	-0.03
822.708	0.04
822.879	-0.23
823.05	0.81
823.221	-0.55
823.392	0.09
823.563	0.27
823.734	0.28
823.905	-0
824.076	-0.29
824.247	-0.21
824.418	-0.56
824.589	0.47
824.759	0.19
824.93	-0.02
825.101	-0.23
825.272	0.05
825.443	0.67
825.614	0.32
825.784	-1.13
825.955	1.5
826.126	1.11
826.297	0.14
826.467	0.6
826.638	0.92
826.809	-0.48
826.98	0.26
827.15	0.59
827.321	-0.24
827.492	0.62
827.662	0.29
827.833	1
828.003	0.63
828.174	-0.32
828.345	-0.79
828.515	1.18
828.686	0.61
828.856	-0.23
829.027	-0.11
829.197	0.05
829.368	0.49
829.538	-0.19
829.709	0.28
829.879	0.05
830.049	0.06
830.22	-0.09
830.39	-0.34
830.56	0.59
830.731	0.08
830.901	-0.24
831.072	0.31
831.242	-0.01
831.412	-0.06
831.582	-0.44
831.753	-0.3
831.923	0.39
832.093	-0.33
832.263	-0.05
832.434	-0.28
832.604	-0.04
832.774	1.03
832.944	-0.09
833.114	-0.27
833.284	0.64
833.454	-1.19
833.624	-0.2
833.795	0.75
833.965	0.82
834.135	0.67
834.305	-0.74
834.475	-0.66
834.645	-0.32
834.815	-0.75
834.985	-0.21
835.155	0.02
835.325	0.52
835.494	0.43
835.664	-0.33
835.834	-0.37
836.004	0.61
836.174	0.3
836.344	0.36
836.514	-0.95
836.684	0.07
836.853	0.13
837.023	-0.18
837.193	-0.34
837.363	0.37
837.532	1.07
837.702	0.17
837.872	0.19
838.041	0.56
838.211	0.95
838.381	-0.35
838.55	0.41
838.72	2.19
838.89	1.37
839.059	0.28
839.229	-0.6
839.398	0.94
839.568	1.01
839.738	0.58
839.907	1.36
840.077	0.95
840.246	-0.8
840.416	0.06
840.585	-1.03
840.755	1.03
840.924	1.21
841.093	-0.79
841.263	0.27
841.432	0.3
841.602	-1
841.771	-1.06
841.94	-0.03
842.11	1.93
842.279	1.32
842.448	-0.36
842.617	0.34
842.787	0.75
842.956	-1.12
843.125	0.06
843.294	-0.07
843.464	1.28
843.633	-0.07
843.802	-1.21
843.971	0.03
844.14	0.17
844.309	1.26
844.479	-0.5
844.648	-0.78
844.817	-0.19
844.986	0.49
845.155	-0.04
845.324	0.34
845.493	-0.08
845.662	-0.79
845.831	0.2
846	0.9
846.169	-0.23
846.338	1.04
846.507	0.76
846.676	0.88
846.844	-0.15
847.013	1.71
847.182	-0.22
847.351	-0.63
847.52	-0.3
847.689	0.22
847.858	-0.78
848.026	0.01
848.195	-0.61
848.364	-0.26
848.533	-0.88
848.701	-1.35
848.87	1.2
849.039	1.61
849.207	1.4
849.376	1.8
849.545	0.66
849.713	-0.11
849.882	0.1
850.051	0.14
850.219	0.16
850.388	0.69
850.556	-0.47
850.725	-0.4
850.893	-0.58
851.062	-0.38
851.23	0.67
851.399	-0.74
851.567	-0.26
851.736	-0.88
851.904	-0.79
852.073	-0.04
852.241	1.05
852.41	0.64
852.578	-0.51
852.746	-0.23
852.915	1.42
853.083	0.16
853.251	-1.15
853.42	0.8
853.588	0.52
853.756	1.82
853.924	0.36
854.093	0.07
854.261	0.14
854.429	-1.05
854.597	0.18
854.765	-1.38
854.934	0.43
855.102	2.12
855.27	0.36
855.438	1.3
855.606	1
855.774	2.05
855.942	-0.86
856.11	-1.81
856.278	0.32
856.446	1.32
856.614	-0.03
856.782	-0.55
856.95	1.23
857.118	1.23
857.286	0.34
857.454	-1.14
857.622	0.39
857.79	0.42
857.958	-0.43
858.126	-0.11
858.294	-2.15
858.462	0
858.629	-1.09
858.797	-0.41
858.965	-0.22
859.133	0.7
859.301	-0.14
859.468	0.61
859.636	-0.88
859.804	2.36
859.971	0.24
860.139	-0.91
860.307	0.93
860.474	0.32
860.642	-0.71
860.81	-0.45
860.977	0.08
861.145	0.65
861.313	0.13
861.48	0.43
861.648	0.97
861.815	-1.22
861.983	-0.72
862.15	-0.72
862.318	1.16
862.485	1.72
862.653	-0.99
862.82	-1.33
862.988	2.01
863.155	1.38
863.322	-1.07
863.49	-1.13
863.657	-0.66
863.824	2.65
863.992	0.14
864.159	-0.22
864.326	2.38
864.494	0.61
864.661	3.28
864.828	-1.29
864.996	1.15
865.163	3.66
865.33	0.23
865.497	-3
865.664	-1.57
865.832	-2.15
865.999	-1.02
866.166	-0.7
866.333	-0.83
866.5	-0.5
866.667	-0.92
866.834	0.49
867.001	0.45
867.168	-2.52
867.335	-0.39
867.502	-1.64
867.669	-0.33
867.836	2.02
868.003	-0.84
868.17	1.12
868.337	-0.8
868.504	2.77
868.671	-0.4
868.838	-0.38
869.005	1.46
869.172	0.65
869.339	-0.21
869.505	0.32
869.672	0.28
869.839	1.34
870.006	0.67
870.173	-2.44
870.339	2.07
870.506	2.23
870.673	-1.65
870.84	0.81
871.006	1.66
871.173	0.61
871.34	0.81
871.506	-0.89
871.673	0.41
871.839	-1.68
872.006	0.94
872.173	-2.07
872.339	2.3
872.506	1.86
872.672	0.22
872.839	-2.14
873.005	-0.96
873.172	4.32
873.338	0.62
873.505	0.38
873.671	0.87
873.838	0.23
874.004	-0.62
874.171	-1.29
874.337	1.02
874.503	1.64
874.67	-0.58
874.836	-1.61
875.002	1.67
875.169	1.55
875.335	-0.9
875.501	-0.59
875.668	0.47
875.834	-0.17
876	0.67
876.166	1.58
876.332	0.55
876.499	3.27
876.665	-1.9
876.831	-0.34
876.997	3.32
877.163	0.39
877.329	-2.61
877.495	1.34
877.662	0.59
877.828	0.78
877.994	-0.08
878.16	-2.34
878.326	0.21
878.492	1.23
878.658	0.27
878.824	0.3
878.99	0.03
879.156	1.78
879.322	4
879.487	0.25
879.653	-0.78
879.819	0.88
879.985	-1.83
880.151	0.59
880.317	1.13
880.483	0.83
880.648	1.11
880.814	-2.14
880.98	2.31
881.146	-1.66
881.312	0.2
881.477	-0.41
881.643	0.48
881.809	2.12
881.974	1.96
882.14	-1.65
882.306	-0.71
882.471	3.62
882.637	0.16
882.803	-0.07
882.968	4.85
883.134	3.65
883.299	0.76
883.465	0.49
883.63	1.41
883.796	1.72
883.961	1.06
884.127	-0.14
884.292	-3.91
884.458	-1.43
884.623	-1.43
