Data from Apollo_Calib_20240827__AbsoluteIrradiance__414__06-03-01-419.txt Node

Date: Wed Aug 28 06:03:01 BST 2024
User: biology
Spectrometer: FLMT08252
Trigger mode: 0
Integration Time (sec): 5.000000E-1
Scans to average: 5
Electric dark correction enabled: true
Nonlinearity correction enabled: false
Boxcar width: 0
XAxis mode: Wavelengths
Number of Pixels in Spectrum: 3648
>>>>>Begin Spectral Data<<<<<
179.588	-0
179.809	-0
180.03	-0
180.251	-0
180.473	-0
180.694	0
180.915	0
181.136	-0
181.357	0
181.578	-0
181.799	-0
182.02	-0
182.241	-0
182.462	-0
182.683	0
182.904	-0
183.125	-0
183.346	0
183.567	0
183.788	0
184.009	-0
184.23	0
184.451	0
184.672	-0
184.892	0
185.113	0
185.334	0
185.555	0
185.776	0
185.996	0
186.217	0
186.438	0
186.659	-0
186.879	0
187.1	0
187.321	0
187.541	-0
187.762	0
187.983	0
188.203	0
188.424	0
188.644	0
188.865	0
189.086	0
189.306	0
189.527	0
189.747	0
189.968	0
190.188	0
190.409	0
190.629	0
190.849	0
191.07	0
191.29	0
191.511	0
191.731	0
191.951	0
192.172	0
192.392	0
192.612	0
192.833	0
193.053	0
193.273	0
193.493	0
193.714	0
193.934	0
194.154	0
194.374	0
194.594	0
194.815	0
195.035	0
195.255	0
195.475	-0
195.695	0
195.915	0
196.135	0
196.355	0
196.575	0
196.795	0
197.015	-0
197.235	0
197.455	0
197.675	0
197.895	0
198.115	0
198.335	0
198.555	0
198.775	0
198.995	0
199.214	0
199.434	0
199.654	0
199.874	-0
200.094	1.68
200.313	0.28
200.533	0.08
200.753	0.13
200.973	0.92
201.192	1.03
201.412	-0.1
201.632	0.69
201.851	1.38
202.071	-0.38
202.291	0.05
202.51	-0.2
202.73	1.04
202.95	0.47
203.169	0.06
203.389	0.66
203.608	0.73
203.828	0.06
204.047	0.02
204.267	0.99
204.486	0.51
204.706	0.4
204.925	0.83
205.145	0.52
205.364	0.88
205.583	0.8
205.803	0.18
206.022	0.19
206.242	0.38
206.461	0.51
206.68	0.57
206.9	0.64
207.119	0.79
207.338	0.76
207.557	0.09
207.777	0.36
207.996	0.55
208.215	1.03
208.434	0.09
208.654	0.16
208.873	0.61
209.092	1.13
209.311	0.23
209.53	0.2
209.749	0.28
209.968	0.11
210.187	0.22
210.407	-0.19
210.626	0.25
210.845	0.63
211.064	0.31
211.283	-0.05
211.502	0.47
211.721	0.32
211.94	0.44
212.159	0.37
212.377	0.75
212.596	0.58
212.815	0.52
213.034	0.31
213.253	0.62
213.472	0.36
213.691	0.12
213.91	-0.13
214.128	0.08
214.347	0.55
214.566	-0.09
214.785	-0.18
215.003	0.5
215.222	0.24
215.441	0.22
215.66	-0.06
215.878	0.33
216.097	0.56
216.316	0.07
216.534	0.02
216.753	0.46
216.972	0.24
217.19	0.25
217.409	0.01
217.627	0.08
217.846	0.17
218.064	0.31
218.283	0.07
218.501	0.78
218.72	0.66
218.938	0.05
219.157	0.23
219.375	0.41
219.594	0.39
219.812	0.12
220.031	0.11
220.249	0.43
220.467	0.46
220.686	0.16
220.904	0.22
221.122	0.16
221.341	0.5
221.559	0.3
221.777	0.07
221.995	0.38
222.214	0.35
222.432	0.12
222.65	0.38
222.868	0.16
223.086	0.27
223.305	0.38
223.523	0.07
223.741	0.45
223.959	-0.17
224.177	0.02
224.395	0.1
224.613	0.01
224.831	0.33
225.049	-0.01
225.267	0.12
225.485	0.3
225.703	0.07
225.921	0.06
226.139	0.1
226.357	0.32
226.575	0.27
226.793	0.02
227.011	0.55
227.229	0.25
227.447	0.3
227.665	0.1
227.883	0.02
228.1	0.27
228.318	0.21
228.536	-0
228.754	0.18
228.972	0.2
229.189	0.21
229.407	0.09
229.625	0.06
229.843	0.33
230.06	0.18
230.278	0.11
230.496	0.16
230.713	0.24
230.931	0.24
231.149	0.11
231.366	-0.04
231.584	0.13
231.801	0.46
232.019	0.19
232.236	-0.02
232.454	0.05
232.671	0.13
232.889	0.14
233.106	0.01
233.324	0.1
233.541	0.19
233.759	0.04
233.976	0.01
234.194	0.17
234.411	0.17
234.628	-0.02
234.846	0.1
235.063	0.11
235.28	0.09
235.498	0.13
235.715	0.12
235.932	0.26
236.149	0.1
236.367	-0.01
236.584	0.14
236.801	0.02
237.018	0.24
237.236	0.06
237.453	-0.01
237.67	0.17
237.887	0.12
238.104	0.14
238.321	0.02
238.538	0.17
238.755	0.33
238.973	-0.07
239.19	0.15
239.407	0.17
239.624	0.23
239.841	-0.14
240.058	0.04
240.275	0.04
240.492	0.07
240.709	0.1
240.925	0.09
241.142	0.14
241.359	0.05
241.576	-0.05
241.793	0.05
242.01	0.13
242.227	0.18
242.444	0.14
242.66	0.23
242.877	0.18
243.094	-0.03
243.311	0.04
243.527	0.12
243.744	0.14
243.961	0.16
244.178	0.08
244.394	0.09
244.611	0.2
244.828	0.23
245.044	-0.07
245.261	0.03
245.477	0.12
245.694	0.1
245.911	0.06
246.127	0.19
246.344	0.22
246.56	0.18
246.777	0.12
246.993	0.07
247.21	0.14
247.426	0.22
247.643	0.02
247.859	0.05
248.076	0.07
248.292	0.22
248.508	0.17
248.725	0.12
248.941	0.13
249.157	0.18
249.374	0.05
249.59	0.17
249.806	0.08
250.023	0.23
250.239	0.03
250.455	0.09
250.671	0.09
250.888	0.19
251.104	0.21
251.32	0.03
251.536	0.15
251.752	0.07
251.969	0.1
252.185	0.07
252.401	0.23
252.617	0.17
252.833	0.04
253.049	0.04
253.265	0.13
253.481	0.12
253.697	0.07
253.913	0.02
254.129	0.16
254.345	0.16
254.561	0.03
254.777	0.03
254.993	0.24
255.209	0.17
255.425	-0.04
255.641	0.04
255.857	0.2
256.073	0.11
256.288	0.05
256.504	0.05
256.72	0.05
256.936	0.29
257.152	0.08
257.367	0.05
257.583	0.1
257.799	0.09
258.015	0
258.23	0.02
258.446	0.15
258.662	0.08
258.877	0.06
259.093	-0
259.309	0.1
259.524	0.16
259.74	0.04
259.955	-0.01
260.171	0.13
260.387	0.1
260.602	0.17
260.818	0.15
261.033	0.07
261.249	0.05
261.464	0.02
261.68	-0
261.895	0.12
262.11	0.14
262.326	0.07
262.541	-0.03
262.757	0.14
262.972	0.18
263.187	0.16
263.403	0.1
263.618	0.11
263.833	0.12
264.049	0.03
264.264	0.14
264.479	0.13
264.694	0.22
264.91	0.01
265.125	0.07
265.34	0.08
265.555	0.22
265.77	0.1
265.986	0.07
266.201	0.13
266.416	0.19
266.631	0.02
266.846	0.1
267.061	0.12
267.276	0.18
267.491	-0.01
267.706	0.11
267.921	0.13
268.136	0.09
268.351	0.13
268.566	0.04
268.781	0.13
268.996	0.13
269.211	0.1
269.426	-0.01
269.641	0.09
269.856	0.15
270.071	0.02
270.285	0.01
270.5	0.17
270.715	0.16
270.93	0.06
271.145	0.1
271.359	0.17
271.574	0.02
271.789	0.06
272.004	0.01
272.218	0.09
272.433	0.16
272.648	0.04
272.862	0.14
273.077	0.06
273.292	0.05
273.506	0.06
273.721	0.07
273.936	0.11
274.15	0.19
274.365	0.12
274.579	0.12
274.794	0.12
275.008	0.14
275.223	0
275.437	0.05
275.652	0.13
275.866	0.15
276.081	0.02
276.295	0.13
276.509	0.07
276.724	0.12
276.938	0.11
277.153	0.07
277.367	0.14
277.581	0.01
277.796	0.04
278.01	0.05
278.224	0.12
278.438	0.25
278.653	0.01
278.867	0.04
279.081	-0.15
279.295	0.04
279.51	0.08
279.724	-0.03
279.938	0.15
280.152	0.1
280.366	0.03
280.58	0.06
280.794	0.16
281.008	0.18
281.222	0.12
281.437	0.16
281.651	0.11
281.865	0.19
282.079	0.04
282.293	-0.02
282.507	0.04
282.721	0.06
282.935	0.08
283.148	-0.03
283.362	0.02
283.576	0.01
283.79	0.08
284.004	0.06
284.218	0.13
284.432	0.06
284.646	0.09
284.859	0.02
285.073	0.06
285.287	0.07
285.501	0.1
285.714	0.05
285.928	0.1
286.142	0.07
286.356	-0.02
286.569	0.05
286.783	0.18
286.997	0.07
287.21	0.06
287.424	0.01
287.637	0.01
287.851	0.08
288.065	0.09
288.278	0.04
288.492	0.07
288.705	0.09
288.919	0.12
289.132	0
289.346	0.17
289.559	0.02
289.773	0.02
289.986	0.1
290.2	0.04
290.413	0.11
290.626	-0
290.84	0.06
291.053	0.09
291.267	0.18
291.48	0.11
291.693	0.09
291.906	0.05
292.12	0.1
292.333	0.01
292.546	0.03
292.76	0.16
292.973	0.08
293.186	0.1
293.399	0.07
293.612	0.11
293.826	0.09
294.039	0.08
294.252	0.08
294.465	0.11
294.678	0.09
294.891	0.1
295.104	0.04
295.317	0.06
295.53	0.04
295.743	0.06
295.956	0.08
296.169	0.09
296.382	0.13
296.595	0.07
296.808	0.07
297.021	0.13
297.234	0.12
297.447	0.05
297.66	0.08
297.873	0.14
298.086	0.1
298.299	0
298.511	0.01
298.724	0.05
298.937	0.01
299.15	0.08
299.363	0.06
299.575	0.13
299.788	0.1
300.001	0.07
300.213	-0
300.426	0.05
300.639	0.05
300.852	0.07
301.064	0.11
301.277	0.15
301.489	0.11
301.702	0.1
301.915	0.11
302.127	0.04
302.34	0.06
302.552	0.1
302.765	0.06
302.977	0.1
303.19	0.04
303.402	0.06
303.615	0.05
303.827	0.05
304.04	0.05
304.252	0.1
304.464	0.05
304.677	0.18
304.889	0.1
305.102	0.09
305.314	0.04
305.526	0.11
305.739	0.11
305.951	0.04
306.163	0.06
306.375	0.16
306.588	0.05
306.8	0.03
307.012	0
307.224	0.08
307.436	0.1
307.649	0
307.861	0.07
308.073	0.09
308.285	0.05
308.497	0.02
308.709	0.08
308.921	0.07
309.133	0.1
309.346	0.07
309.558	0.04
309.77	0.09
309.982	0.08
310.194	0.15
310.406	0.06
310.617	0.16
310.829	0.06
311.041	0.12
311.253	0.04
311.465	0.07
311.677	0.07
311.889	0.06
312.101	0.06
312.313	0.12
312.524	0.1
312.736	0.02
312.948	0.03
313.16	0.19
313.372	0.09
313.583	0.1
313.795	0.07
314.007	0.05
314.218	0.11
314.43	0.05
314.642	0.04
314.853	0.01
315.065	0.11
315.277	0.09
315.488	0.08
315.7	0.08
315.912	0.13
316.123	0.02
316.335	0.07
316.546	0.14
316.758	0.05
316.969	0.04
317.181	0.05
317.392	0.05
317.604	0.09
317.815	0.02
318.026	0.04
318.238	0.03
318.449	0.09
318.661	-0.01
318.872	0.03
319.083	-0.02
319.295	0.11
319.506	0.02
319.717	0.05
319.929	0.11
320.14	0.05
320.351	0.1
320.562	0.01
320.774	0.07
320.985	0.06
321.196	0.01
321.407	-0.02
321.618	0.1
321.829	0.03
322.041	0.08
322.252	0.06
322.463	0.1
322.674	0.09
322.885	0.03
323.096	0.06
323.307	0.07
323.518	0.1
323.729	0.05
323.94	0.09
324.151	0.04
324.362	0.07
324.573	0.07
324.784	0
324.995	0.11
325.206	0.08
325.417	0.04
325.628	0.07
325.838	0.04
326.049	0.12
326.26	0.07
326.471	0.05
326.682	0.09
326.892	0.02
327.103	-0.01
327.314	0
327.525	0.14
327.735	0.07
327.946	0.06
328.157	0
328.368	0.1
328.578	0.05
328.789	0.11
328.999	0.08
329.21	0.07
329.421	0.11
329.631	0.02
329.842	0.01
330.052	0.06
330.263	0.13
330.473	0.08
330.684	0.07
330.894	0.03
331.105	0.04
331.315	0.02
331.526	0
331.736	0.13
331.947	0.12
332.157	0.1
332.367	0.01
332.578	0.1
332.788	0.08
332.999	0.1
333.209	0.08
333.419	0.01
333.629	0.1
333.84	0.1
334.05	0.03
334.26	0.1
334.47	0.07
334.681	0.15
334.891	0.04
335.101	0.11
335.311	0.14
335.521	0.09
335.732	0.04
335.942	0.12
336.152	0.07
336.362	0.11
336.572	0.04
336.782	0.08
336.992	0.04
337.202	0.06
337.412	0.09
337.622	0.03
337.832	0.07
338.042	0.05
338.252	0.04
338.462	0.01
338.672	0.11
338.882	0.01
339.092	0.12
339.302	0.13
339.511	0.13
339.721	0.06
339.931	-0.01
340.141	0.12
340.351	0.1
340.561	0.07
340.77	0.06
340.98	0.07
341.19	0.09
341.4	0.04
341.609	0.04
341.819	0.07
342.029	0.02
342.238	0.07
342.448	0.02
342.658	0.06
342.867	0.09
343.077	0.08
343.286	0.09
343.496	0.05
343.706	0.11
343.915	0.02
344.125	0.1
344.334	0.09
344.544	-0.02
344.753	0.07
344.963	0.05
345.172	0.01
345.381	0.06
345.591	0.05
345.8	0.05
346.01	0.14
346.219	0.1
346.428	-0.09
346.638	0.04
346.847	0.05
347.056	0.12
347.266	0.02
347.475	0.06
347.684	0.09
347.893	0.07
348.103	0.06
348.312	0.06
348.521	0.05
348.73	0.09
348.94	0.06
349.149	0.02
349.358	0.05
349.567	0.07
349.776	-0
349.985	0.02
350.194	0.1
350.403	0.11
350.612	0.02
350.821	0.06
351.03	0.07
351.239	0.02
351.448	0.05
351.657	0.03
351.866	0.11
352.075	0.09
352.284	0.09
352.493	0.02
352.702	0.11
352.911	0.06
353.12	0.04
353.329	0.04
353.538	0.08
353.746	0.04
353.955	0.05
354.164	0.12
354.373	0.04
354.582	0.11
354.79	0.08
354.999	0.08
355.208	0.05
355.416	0.12
355.625	0.01
355.834	0.05
356.042	0.07
356.251	0.05
356.46	0.05
356.668	0.07
356.877	0.13
357.085	0.11
357.294	-0.02
357.503	0.1
357.711	0.06
357.92	0.18
358.128	0.03
358.337	0.04
358.545	0.09
358.754	0.03
358.962	0.1
359.17	0.03
359.379	0.06
359.587	0.1
359.796	0.01
360.004	0.16
360.212	0.05
360.421	0.09
360.629	0.03
360.837	0.1
361.046	0.08
361.254	0.17
361.462	0.06
361.67	0.05
361.879	0.06
362.087	0.12
362.295	0.11
362.503	0.04
362.711	-0.01
362.92	0.06
363.128	0.04
363.336	0.02
363.544	0.02
363.752	0.06
363.96	0.06
364.168	0.01
364.376	0.05
364.584	0.04
364.792	0.15
365	0.15
365.208	0.05
365.416	0.05
365.624	0.07
365.832	0.06
366.04	0.11
366.248	0.08
366.456	0.08
366.664	0.07
366.872	0.08
367.079	0.06
367.287	0.08
367.495	0.06
367.703	0.07
367.911	0.06
368.118	0.07
368.326	0.07
368.534	-0.01
368.742	0.13
368.949	0.02
369.157	0.04
369.365	0.11
369.572	0.06
369.78	0.02
369.988	0.09
370.195	0.06
370.403	0.11
370.61	0.07
370.818	0.08
371.026	0.12
371.233	-0
371.441	0.09
371.648	0.03
371.856	0.06
372.063	0.06
372.271	0.06
372.478	0.06
372.685	-0.02
372.893	0.09
373.1	0.05
373.308	0.06
373.515	0.15
373.722	0.08
373.93	0.05
374.137	0.09
374.344	0.11
374.552	0.06
374.759	0.07
374.966	0.06
375.173	0.07
375.381	0.12
375.588	0.07
375.795	0.02
376.002	0.09
376.209	0.03
376.417	0.05
376.624	0.06
376.831	0.05
377.038	0.04
377.245	-0.01
377.452	0.07
377.659	0.06
377.866	0.06
378.073	0.01
378.28	0.09
378.487	0.1
378.694	0.08
378.901	0.06
379.108	0.06
379.315	0.07
379.522	0.12
379.729	0.12
379.936	0.04
380.143	0.09
380.35	0.09
380.557	0.04
380.763	0.07
380.97	0.05
381.177	0.11
381.384	0.1
381.591	0.06
381.797	0.11
382.004	0.09
382.211	0.09
382.418	0.08
382.624	0.14
382.831	0.11
383.038	0.07
383.244	0.06
383.451	0.07
383.658	0.08
383.864	0.05
384.071	0.03
384.277	0.15
384.484	0.03
384.69	0.15
384.897	0.05
385.103	0.05
385.31	0.06
385.516	0.09
385.723	0.04
385.929	0.07
386.136	0.03
386.342	0.05
386.549	0.04
386.755	0.12
386.961	0.13
387.168	0.06
387.374	0.08
387.58	0.08
387.787	0.06
387.993	0.07
388.199	0.07
388.406	0.06
388.612	0.05
388.818	0.03
389.024	0.05
389.231	0.08
389.437	0.12
389.643	0.14
389.849	0.07
390.055	0.05
390.261	0.07
390.467	0.07
390.674	0.03
390.88	0.05
391.086	0.11
391.292	0.03
391.498	0.1
391.704	0.11
391.91	0.04
392.116	0.06
392.322	-0.02
392.528	0.1
392.734	0.09
392.94	0.09
393.146	0.06
393.352	0.09
393.557	0.02
393.763	0.07
393.969	0.11
394.175	0.07
394.381	0.05
394.587	0.04
394.792	0.04
394.998	0.11
395.204	0.13
395.41	0.04
395.615	0.11
395.821	0.09
396.027	0.05
396.233	0.06
396.438	0.09
396.644	0.16
396.85	0.09
397.055	0.09
397.261	0.09
397.466	0.08
397.672	0.08
397.878	0.05
398.083	0.11
398.289	0.04
398.494	0.12
398.7	0.08
398.905	0.02
399.111	0.14
399.316	0.03
399.522	0.05
399.727	0.05
399.932	0.05
400.138	0.06
400.343	0.09
400.549	0.09
400.754	0.06
400.959	0.11
401.165	0.07
401.37	0.11
401.575	0.15
401.78	0.04
401.986	0.06
402.191	0.09
402.396	0.05
402.601	0.1
402.807	0.02
403.012	0.1
403.217	0.14
403.422	0.11
403.627	0.05
403.832	0.09
404.037	0.11
404.243	0.09
404.448	0.05
404.653	0.13
404.858	0.08
405.063	0.12
405.268	0.02
405.473	0.02
405.678	0.03
405.883	0.2
406.088	0.11
406.293	0.04
406.498	0.08
406.703	0.12
406.907	0.07
407.112	0.03
407.317	0.09
407.522	0.1
407.727	0.04
407.932	0.14
408.136	0.17
408.341	0.08
408.546	0.07
408.751	0.1
408.956	0.03
409.16	0.12
409.365	0.08
409.57	0.1
409.774	0.08
409.979	0.16
410.184	0.08
410.388	0.03
410.593	0.08
410.798	0.12
411.002	0.05
411.207	0.1
411.411	0.11
411.616	0.05
411.82	0.06
412.025	0.09
412.229	0.12
412.434	0.15
412.638	0.09
412.843	0.06
413.047	0.11
413.252	0.06
413.456	0.07
413.66	0.09
413.865	0.06
414.069	0.18
414.273	0.05
414.478	0.09
414.682	0.07
414.886	0.08
415.091	0.01
415.295	0
415.499	0.11
415.703	0.05
415.908	0.14
416.112	0.02
416.316	0.1
416.52	0.05
416.724	0.05
416.929	0.07
417.133	0.22
417.337	0.05
417.541	0.06
417.745	0.13
417.949	0.14
418.153	0.11
418.357	0.03
418.561	0.18
418.765	0.09
418.969	0.18
419.173	0.13
419.377	0.08
419.581	0.17
419.785	0.07
419.989	0.1
420.193	0.1
420.397	0.07
420.601	0.18
420.804	0.17
421.008	0.1
421.212	0.09
421.416	0.14
421.62	0.08
421.823	0.08
422.027	0.18
422.231	0.08
422.435	0.07
422.638	0.17
422.842	0.08
423.046	0.06
423.249	0.12
423.453	0.11
423.657	0.13
423.86	0.07
424.064	0.12
424.268	0.18
424.471	0.05
424.675	0.14
424.878	0.16
425.082	0.1
425.285	0.17
425.489	0.09
425.692	0.1
425.896	0.09
426.099	0.15
426.303	0.09
426.506	0.05
426.71	0.09
426.913	0.17
427.116	0.18
427.32	0.12
427.523	0.09
427.726	0.19
427.93	0.04
428.133	0.11
428.336	0.01
428.54	0.1
428.743	0.15
428.946	0.14
429.149	0.1
429.353	0.12
429.556	0.1
429.759	0.12
429.962	0.02
430.165	0.16
430.368	0.05
430.571	0.08
430.775	0.12
430.978	0.13
431.181	0.14
431.384	0.15
431.587	0.05
431.79	0.09
431.993	0.1
432.196	0.09
432.399	0.13
432.602	0.13
432.805	0.14
433.008	0.07
433.211	0.01
433.414	0.14
433.616	0.17
433.819	0.13
434.022	0.03
434.225	0.22
434.428	0.16
434.631	0.25
434.833	0.13
435.036	0.1
435.239	0.15
435.442	0.11
435.645	0.15
435.847	0.13
436.05	0.18
436.253	0.11
436.455	0.1
436.658	0.11
436.861	0.21
437.063	0.08
437.266	0.08
437.468	0.07
437.671	0.25
437.874	0.16
438.076	0.05
438.279	0.04
438.481	0.12
438.684	0.1
438.886	0.11
439.089	-0.03
439.291	0.11
439.494	0.16
439.696	0.07
439.899	0.13
440.101	0.11
440.303	0.08
440.506	0.19
440.708	0.08
440.91	0.19
441.113	0.05
441.315	0.19
441.517	0.09
441.72	0.18
441.922	0.13
442.124	0.08
442.326	0.11
442.529	0.19
442.731	0.11
442.933	0.24
443.135	0.15
443.337	0.16
443.539	0.08
443.742	0.08
443.944	0.14
444.146	0.12
444.348	0.1
444.55	0.09
444.752	0.08
444.954	0.1
445.156	0.06
445.358	0.08
445.56	0.19
445.762	0.12
445.964	0.1
446.166	0.12
446.368	0.1
446.57	0.16
446.772	0.13
446.974	0.14
447.175	0.14
447.377	0.09
447.579	0.09
447.781	0.07
447.983	0.21
448.184	0.12
448.386	0.14
448.588	0.04
448.79	0.19
448.991	0.11
449.193	0.12
449.395	0.12
449.597	0.17
449.798	0.15
450	0.16
450.202	0.09
450.403	0.15
450.605	0.19
450.806	0.14
451.008	0.08
451.21	0.15
451.411	0.18
451.613	0.12
451.814	0.16
452.016	0.16
452.217	0.12
452.419	0.2
452.62	0.17
452.821	0.18
453.023	0.23
453.224	0.16
453.426	0.12
453.627	0.16
453.828	0.21
454.03	0.14
454.231	0.13
454.432	0.09
454.634	0.22
454.835	0.08
455.036	0.09
455.238	0.19
455.439	0.23
455.64	0.11
455.841	0.13
456.042	0.26
456.244	0.14
456.445	0.09
456.646	0.06
456.847	0.08
457.048	0.18
457.249	0.23
457.45	0.37
457.651	0.06
457.852	0.22
458.054	0.16
458.255	0.17
458.456	0.16
458.657	0.21
458.858	0.13
459.058	0.18
459.259	0.18
459.46	0.12
459.661	0.15
459.862	0.27
460.063	0.15
460.264	0.23
460.465	0.04
460.666	0.23
460.866	0.13
461.067	0.15
461.268	0.15
461.469	0.13
461.67	0.13
461.87	0.15
462.071	0.15
462.272	0.12
462.473	0.16
462.673	0.18
462.874	0.15
463.075	0.18
463.275	0.11
463.476	0.18
463.676	0.18
463.877	0.18
464.078	0.12
464.278	0.24
464.479	0.17
464.679	0.17
464.88	0.16
465.08	0.27
465.281	0.15
465.481	0.16
465.682	0.15
465.882	0.22
466.083	0.13
466.283	0.21
466.483	0.2
466.684	0.1
466.884	0.17
467.085	0.16
467.285	0.24
467.485	0.13
467.686	0.17
467.886	0.14
468.086	0.19
468.286	0.19
468.487	0.17
468.687	0.1
468.887	0.18
469.087	0.26
469.287	0.21
469.488	0.14
469.688	0.23
469.888	0.24
470.088	0.27
470.288	0.24
470.488	0.26
470.688	0.19
470.888	0.18
471.088	0.15
471.288	0.24
471.488	0.22
471.688	0.22
471.888	0.19
472.088	0.3
472.288	0.22
472.488	0.21
472.688	0.21
472.888	0.22
473.088	0.2
473.288	0.24
473.488	0.23
473.688	0.34
473.887	0.22
474.087	0.21
474.287	0.28
474.487	0.22
474.687	0.3
474.886	0.25
475.086	0.26
475.286	0.28
475.486	0.25
475.685	0.27
475.885	0.22
476.085	0.25
476.284	0.33
476.484	0.29
476.684	0.27
476.883	0.37
477.083	0.32
477.282	0.29
477.482	0.33
477.681	0.34
477.881	0.31
478.08	0.29
478.28	0.29
478.479	0.33
478.679	0.37
478.878	0.33
479.078	0.3
479.277	0.35
479.477	0.34
479.676	0.41
479.875	0.32
480.075	0.33
480.274	0.37
480.473	0.41
480.673	0.37
480.872	0.42
481.071	0.4
481.271	0.44
481.47	0.4
481.669	0.43
481.868	0.4
482.067	0.38
482.267	0.4
482.466	0.43
482.665	0.42
482.864	0.42
483.063	0.43
483.262	0.5
483.461	0.53
483.661	0.53
483.86	0.52
484.059	0.53
484.258	0.55
484.457	0.53
484.656	0.53
484.855	0.61
485.054	0.53
485.253	0.59
485.452	0.55
485.651	0.62
485.849	0.62
486.048	0.58
486.247	0.63
486.446	0.65
486.645	0.65
486.844	0.64
487.043	0.66
487.241	0.74
487.44	0.7
487.639	0.73
487.838	0.77
488.037	0.76
488.235	0.81
488.434	0.8
488.633	0.73
488.831	0.87
489.03	0.92
489.229	0.85
489.427	0.86
489.626	0.93
489.825	0.95
490.023	0.93
490.222	0.96
490.42	0.97
490.619	1.05
490.817	1.02
491.016	1.03
491.214	1.07
491.413	1.08
491.611	1.06
491.81	1.07
492.008	1.14
492.207	1.17
492.405	1.23
492.604	1.12
492.802	1.25
493	1.28
493.199	1.27
493.397	1.34
493.595	1.36
493.794	1.33
493.992	1.48
494.19	1.41
494.388	1.48
494.587	1.46
494.785	1.52
494.983	1.46
495.181	1.56
495.379	1.6
495.578	1.66
495.776	1.68
495.974	1.67
496.172	1.7
496.37	1.8
496.568	1.79
496.766	1.84
496.964	1.9
497.162	1.94
497.36	1.97
497.558	2.01
497.756	2.08
497.954	2.08
498.152	2.16
498.35	2.24
498.548	2.2
498.746	2.25
498.944	2.24
499.142	2.31
499.34	2.4
499.538	2.51
499.736	2.46
499.933	2.59
500.131	2.57
500.329	2.73
500.527	2.71
500.725	2.81
500.922	2.9
501.12	2.92
501.318	2.99
501.516	3.01
501.713	3.11
501.911	3.15
502.109	3.11
502.306	3.26
502.504	3.24
502.701	3.39
502.899	3.46
503.097	3.65
503.294	3.56
503.492	3.66
503.689	3.78
503.887	3.78
504.084	3.88
504.282	3.92
504.479	3.94
504.677	4.17
504.874	4.16
505.072	4.11
505.269	4.36
505.466	4.46
505.664	4.51
505.861	4.48
506.059	4.62
506.256	4.76
506.453	4.79
506.651	4.97
506.848	5.06
507.045	5.1
507.242	5.13
507.44	5.25
507.637	5.38
507.834	5.42
508.031	5.59
508.229	5.6
508.426	5.57
508.623	5.84
508.82	5.93
509.017	5.93
509.214	5.99
509.411	6.23
509.608	6.18
509.805	6.43
510.003	6.44
510.2	6.55
510.397	6.77
510.594	6.74
510.791	6.94
510.988	6.96
511.184	7.04
511.381	6.91
511.578	7.18
511.775	7.41
511.972	7.33
512.169	7.45
512.366	7.6
512.563	7.78
512.76	7.91
512.956	7.99
513.153	7.96
513.35	7.96
513.547	8.04
513.744	8.28
513.94	8.31
514.137	8.56
514.334	8.5
514.53	8.58
514.727	8.9
514.924	8.83
515.12	8.89
515.317	8.99
515.514	8.88
515.71	8.91
515.907	9.23
516.103	9.25
516.3	9.21
516.497	9.41
516.693	9.49
516.89	9.51
517.086	9.58
517.283	9.62
517.479	9.49
517.676	9.77
517.872	9.88
518.068	9.86
518.265	9.91
518.461	9.84
518.658	10.07
518.854	10.05
519.05	10.21
519.247	10.29
519.443	10.12
519.639	10.33
519.836	10.18
520.032	10.11
520.228	10.3
520.424	10.18
520.621	10.33
520.817	10.51
521.013	10.33
521.209	10.55
521.405	10.47
521.601	10.38
521.798	10.34
521.994	10.3
522.19	10.27
522.386	10.27
522.582	10.37
522.778	10.51
522.974	10.29
523.17	10.31
523.366	10.22
523.562	10.32
523.758	10.23
523.954	10.04
524.15	10.26
524.346	10.23
524.542	10.16
524.738	10.03
524.934	10.19
525.129	10.11
525.325	9.9
525.521	9.79
525.717	10.09
525.913	9.77
526.109	9.78
526.304	9.85
526.5	9.72
526.696	9.68
526.892	9.54
527.087	9.72
527.283	9.56
527.479	9.46
527.674	9.14
527.87	9.29
528.066	9.16
528.261	9.15
528.457	8.94
528.653	9.08
528.848	8.97
529.044	8.97
529.239	8.75
529.435	8.65
529.63	8.5
529.826	8.48
530.021	8.42
530.217	8.42
530.412	8.23
530.608	8.19
530.803	8.16
530.999	7.98
531.194	8.01
531.389	7.96
531.585	7.85
531.78	7.93
531.975	7.75
532.171	7.65
532.366	7.59
532.561	7.55
532.757	7.41
532.952	7.48
533.147	7.14
533.342	7.25
533.538	7
533.733	7.15
533.928	6.81
534.123	6.84
534.318	6.86
534.513	6.68
534.709	6.82
534.904	6.67
535.099	6.58
535.294	6.57
535.489	6.48
535.684	6.37
535.879	6.26
536.074	6.3
536.269	6.12
536.464	6.21
536.659	6.02
536.854	5.95
537.049	5.94
537.244	5.83
537.439	5.73
537.634	5.74
537.828	5.67
538.023	5.56
538.218	5.51
538.413	5.42
538.608	5.38
538.803	5.34
538.997	5.26
539.192	5.27
539.387	5.13
539.582	5.09
539.776	5.04
539.971	4.98
540.166	5.02
540.36	4.85
540.555	4.92
540.75	4.82
540.944	4.76
541.139	4.67
541.334	4.65
541.528	4.6
541.723	4.61
541.917	4.5
542.112	4.41
542.306	4.34
542.501	4.28
542.695	4.28
542.89	4.21
543.084	4.23
543.279	4.16
543.473	4.16
543.668	4.14
543.862	3.99
544.056	3.99
544.251	4
544.445	3.93
544.64	3.91
544.834	3.67
545.028	3.64
545.222	3.73
545.417	3.81
545.611	3.7
545.805	3.64
546	3.43
546.194	3.53
546.388	3.46
546.582	3.42
546.776	3.39
546.97	3.36
547.165	3.33
547.359	3.29
547.553	3.2
547.747	3.2
547.941	3.22
548.135	3.14
548.329	3.09
548.523	3.04
548.717	2.95
548.911	2.96
549.105	2.89
549.299	2.92
549.493	2.89
549.687	2.78
549.881	2.79
550.075	2.79
550.269	2.67
550.463	2.74
550.657	2.68
550.85	2.64
551.044	2.55
551.238	2.6
551.432	2.52
551.626	2.48
551.82	2.47
552.013	2.41
552.207	2.47
552.401	2.39
552.594	2.33
552.788	2.27
552.982	2.28
553.176	2.2
553.369	2.26
553.563	2.2
553.756	2.12
553.95	2.12
554.144	2.1
554.337	2.12
554.531	2.02
554.724	2
554.918	1.97
555.111	1.98
555.305	1.93
555.498	1.93
555.692	1.92
555.885	1.85
556.079	1.82
556.272	1.8
556.466	1.79
556.659	1.78
556.852	1.73
557.046	1.7
557.239	1.7
557.432	1.63
557.626	1.64
557.819	1.63
558.012	1.65
558.206	1.63
558.399	1.55
558.592	1.58
558.785	1.49
558.979	1.52
559.172	1.47
559.365	1.48
559.558	1.43
559.751	1.41
559.944	1.43
560.138	1.38
560.331	1.37
560.524	1.31
560.717	1.33
560.91	1.29
561.103	1.29
561.296	1.24
561.489	1.27
561.682	1.28
561.875	1.27
562.068	1.23
562.261	1.19
562.454	1.24
562.647	1.16
562.84	1.16
563.032	1.16
563.225	1.12
563.418	1.11
563.611	1.1
563.804	1.07
563.997	1.05
564.19	0.99
564.382	1.06
564.575	1.01
564.768	1
564.961	0.99
565.153	0.97
565.346	0.94
565.539	1
565.731	0.97
565.924	1
566.117	0.94
566.309	0.93
566.502	0.89
566.695	0.89
566.887	0.91
567.08	0.86
567.272	0.83
567.465	0.81
567.657	0.86
567.85	0.83
568.042	0.84
568.235	0.82
568.427	0.79
568.62	0.81
568.812	0.79
569.005	0.78
569.197	0.72
569.389	0.75
569.582	0.75
569.774	0.74
569.966	0.68
570.159	0.68
570.351	0.7
570.543	0.68
570.736	0.68
570.928	0.62
571.12	0.67
571.312	0.65
571.505	0.6
571.697	0.69
571.889	0.61
572.081	0.63
572.273	0.59
572.465	0.67
572.658	0.57
572.85	0.63
573.042	0.58
573.234	0.57
573.426	0.59
573.618	0.55
573.81	0.59
574.002	0.61
574.194	0.58
574.386	0.52
574.578	0.46
574.77	0.51
574.962	0.51
575.154	0.48
575.346	0.5
575.538	0.48
575.729	0.48
575.921	0.47
576.113	0.48
576.305	0.51
576.497	0.45
576.689	0.46
576.88	0.44
577.072	0.48
577.264	0.45
577.456	0.44
577.647	0.36
577.839	0.44
578.031	0.43
578.223	0.38
578.414	0.37
578.606	0.43
578.798	0.4
578.989	0.37
579.181	0.41
579.372	0.39
579.564	0.36
579.755	0.38
579.947	0.39
580.139	0.39
580.33	0.32
580.522	0.34
580.713	0.28
580.905	0.35
581.096	0.38
581.287	0.34
581.479	0.33
581.67	0.35
581.862	0.32
582.053	0.3
582.244	0.29
582.436	0.3
582.627	0.3
582.818	0.3
583.01	0.27
583.201	0.32
583.392	0.32
583.583	0.29
583.775	0.28
583.966	0.26
584.157	0.28
584.348	0.27
584.54	0.21
584.731	0.28
584.922	0.3
585.113	0.25
585.304	0.31
585.495	0.29
585.686	0.28
585.877	0.26
586.068	0.28
586.259	0.26
586.45	0.29
586.641	0.24
586.832	0.23
587.023	0.23
587.214	0.21
587.405	0.27
587.596	0.22
587.787	0.28
587.978	0.23
588.169	0.19
588.36	0.22
588.551	0.23
588.742	0.22
588.932	0.23
589.123	0.2
589.314	0.25
589.505	0.25
589.696	0.23
589.886	0.18
590.077	0.17
590.268	0.2
590.458	0.17
590.649	0.17
590.84	0.22
591.03	0.18
591.221	0.15
591.412	0.16
591.602	0.2
591.793	0.21
591.984	0.13
592.174	0.18
592.365	0.26
592.555	0.18
592.746	0.2
592.936	0.19
593.127	0.22
593.317	0.22
593.508	0.12
593.698	0.17
593.889	0.22
594.079	0.15
594.269	0.16
594.46	0.15
594.65	0.15
594.84	0.17
595.031	0.12
595.221	0.14
595.411	0.13
595.602	0.17
595.792	0.16
595.982	0.14
596.172	0.22
596.363	0.19
596.553	0.16
596.743	0.14
596.933	0.14
597.123	0.18
597.314	0.12
597.504	0.1
597.694	0.19
597.884	0.15
598.074	0.14
598.264	0.13
598.454	0.16
598.644	0.14
598.834	0.15
599.024	0.07
599.214	0.09
599.404	0.17
599.594	0.13
599.784	0.09
599.974	0.17
600.164	0.15
600.354	0.11
600.544	0.09
600.734	0.13
600.924	0.15
601.114	0.09
601.303	0.12
601.493	0.12
601.683	0.09
601.873	0.16
602.063	0.07
602.252	0.14
602.442	0.11
602.632	0.1
602.821	0.08
603.011	0.14
603.201	0.13
603.39	0.09
603.58	0.09
603.77	0.1
603.959	0.14
604.149	0.11
604.339	0.11
604.528	0.14
604.718	0.13
604.907	0.09
605.097	0.11
605.286	0.08
605.476	0.13
605.665	0.14
605.855	0.09
606.044	0.12
606.234	0.12
606.423	0.09
606.612	0.05
606.802	0.12
606.991	0.12
607.181	0.13
607.37	0.06
607.559	0.09
607.749	0.08
607.938	0.09
608.127	0.1
608.316	0.08
608.506	0.11
608.695	0.08
608.884	0.08
609.073	0.07
609.263	0.11
609.452	0.12
609.641	0.13
609.83	0.08
610.019	0.08
610.208	0.07
610.397	0.08
610.586	0.11
610.775	0.1
610.965	0.1
611.154	0.08
611.343	0.11
611.532	0.1
611.721	0.07
611.91	0.06
612.099	0.1
612.287	0.07
612.476	0.05
612.665	0.08
612.854	0.05
613.043	0.13
613.232	0.1
613.421	0.03
613.61	0.11
613.798	0.08
613.987	0.11
614.176	0.09
614.365	0.11
614.554	0.07
614.742	0.1
614.931	0.07
615.12	0.13
615.309	0.05
615.497	0.09
615.686	0.07
615.875	0.07
616.063	0.08
616.252	0.07
616.44	0.07
616.629	0.1
616.818	0.12
617.006	0.06
617.195	0.08
617.383	0.09
617.572	0.08
617.76	0.05
617.949	0.05
618.137	0.1
618.326	0.12
618.514	0.07
618.703	0.05
618.891	0.13
619.079	0.03
619.268	0.09
619.456	0.07
619.644	0.11
619.833	0.06
620.021	0.07
620.209	0
620.398	0.08
620.586	0.07
620.774	0.12
620.962	0.09
621.151	0.15
621.339	0.06
621.527	0.02
621.715	0.04
621.903	0.03
622.092	0.06
622.28	0.09
622.468	0.07
622.656	0.08
622.844	0.07
623.032	0.05
623.22	0.01
623.408	0.1
623.596	0.11
623.784	0.07
623.972	0.03
624.16	0.06
624.348	0.13
624.536	0.06
624.724	0.06
624.912	0.13
625.1	0.14
625.288	0.05
625.476	0.05
625.664	0.07
625.851	0.04
626.039	0.06
626.227	0.09
626.415	0.06
626.603	0.02
626.79	0.06
626.978	0.07
627.166	0.08
627.354	0.05
627.541	0.02
627.729	-0.04
627.917	0.07
628.104	0.11
628.292	0.09
628.48	0.07
628.667	0.07
628.855	0.06
629.042	0.05
629.23	0.09
629.418	0.12
629.605	0.05
629.793	0.02
629.98	0.05
630.168	0.05
630.355	0.03
630.543	0.08
630.73	0.02
630.917	0.11
631.105	0.13
631.292	0.05
631.48	0.08
631.667	0.14
631.854	0.08
632.042	0.05
632.229	0
632.416	0.06
632.604	0.06
632.791	0.05
632.978	0.09
633.165	0.06
633.353	0.12
633.54	0.12
633.727	-0
633.914	0.04
634.101	-0.02
634.289	0.12
634.476	0.01
634.663	0.03
634.85	0.07
635.037	0.03
635.224	-0
635.411	0.1
635.598	0.09
635.785	0.05
635.972	0.04
636.159	0.12
636.346	0.01
636.533	0.06
636.72	0.03
636.907	0.04
637.094	0.08
637.281	0.05
637.468	0.08
637.655	0.05
637.842	0.08
638.029	0.01
638.215	0.08
638.402	0.05
638.589	0.07
638.776	0.03
638.963	0.07
639.149	0.06
639.336	0.1
639.523	0.04
639.709	0.06
639.896	0.04
640.083	0.13
640.27	0.06
640.456	0.02
640.643	0.07
640.829	0
641.016	0.01
641.203	0.02
641.389	0.08
641.576	0.06
641.762	0.07
641.949	0.04
642.135	0.07
642.322	0.06
642.508	0.03
642.695	0.07
642.881	0.07
643.068	0.05
643.254	0.06
643.441	0.08
643.627	0.07
643.813	0.03
644	0.08
644.186	0.01
644.372	0.02
644.559	0.11
644.745	0.07
644.931	0.03
645.118	0.03
645.304	0.06
645.49	0.05
645.676	0.06
645.862	0.06
646.049	0.11
646.235	0.04
646.421	0.14
646.607	0.1
646.793	0.02
646.979	0.01
647.165	0.07
647.352	0.06
647.538	0.08
647.724	0.05
647.91	0.07
648.096	0.1
648.282	0.11
648.468	0.05
648.654	0.05
648.84	0.03
649.026	-0
649.212	0.06
649.397	0.01
649.583	0
649.769	0.07
649.955	0.07
650.141	0.07
650.327	0.12
650.513	0.03
650.698	0.09
650.884	0.02
651.07	0.09
651.256	0.05
651.442	0.06
651.627	0.04
651.813	0.09
651.999	0.05
652.184	0.09
652.37	0.04
652.556	0.03
652.741	0.08
652.927	0.02
653.113	0.04
653.298	0.07
653.484	0.02
653.669	-0.01
653.855	0.06
654.04	0.08
654.226	0.04
654.412	0.04
654.597	0.04
654.782	0.06
654.968	0.07
655.153	0.07
655.339	0.01
655.524	-0.01
655.71	0.11
655.895	0.02
656.08	0.03
656.266	0.11
656.451	0.08
656.636	-0.01
656.822	0.04
657.007	0.04
657.192	0.02
657.378	0.01
657.563	0.05
657.748	0.06
657.933	0.05
658.118	0.05
658.304	0.04
658.489	0.05
658.674	0.09
658.859	0.03
659.044	0.04
659.229	0.05
659.414	0.01
659.599	0.04
659.785	0.02
659.97	0.05
660.155	0.09
660.34	0.1
660.525	0.08
660.71	0.06
660.895	0.08
661.08	0.02
661.264	0.04
661.449	0.12
661.634	0.11
661.819	0.06
662.004	0.1
662.189	-0.01
662.374	0.02
662.559	0.02
662.743	-0.02
662.928	0.06
663.113	0.03
663.298	-0.02
663.483	0.05
663.667	0.06
663.852	0.02
664.037	0.09
664.221	0.08
664.406	0.06
664.591	0.09
664.775	0.07
664.96	0.07
665.145	0.11
665.329	0.12
665.514	0.03
665.698	0.05
665.883	0
666.068	0.11
666.252	0.06
666.437	0.03
666.621	0.08
666.806	0.1
666.99	0.06
667.174	-0
667.359	0.11
667.543	0.07
667.728	0.01
667.912	-0
668.096	0.11
668.281	0.05
668.465	0.05
668.649	0.08
668.834	0.04
669.018	0.07
669.202	0.04
669.387	0.05
669.571	0.09
669.755	0.04
669.939	0.05
670.124	0.04
670.308	0.08
670.492	0.12
670.676	0.09
670.86	0.04
671.044	0.05
671.228	0.11
671.413	0.09
671.597	0.03
671.781	0.05
671.965	0.1
672.149	0.09
672.333	0.01
672.517	0.04
672.701	0.08
672.885	0.04
673.069	-0.01
673.253	0.13
673.437	0.08
673.621	0.04
673.804	0.07
673.988	0.07
674.172	0.01
674.356	0.03
674.54	0.07
674.724	0.15
674.908	0.06
675.091	0.06
675.275	0.07
675.459	0.12
675.643	0.15
675.826	0.08
676.01	0.09
676.194	0.04
676.377	0.1
676.561	0.09
676.745	0.12
676.928	0.06
677.112	0.16
677.296	0.03
677.479	0.08
677.663	0.03
677.846	0.16
678.03	0.02
678.213	0.05
678.397	0.07
678.58	0.04
678.764	0.08
678.947	0.04
679.131	0.05
679.314	0.13
679.498	0.04
679.681	0.08
679.865	0.1
680.048	0.11
680.231	0.08
680.415	0.08
680.598	0.07
680.781	0.05
680.965	0.1
681.148	0.08
681.331	0.03
681.514	0.1
681.698	0.03
681.881	0.1
682.064	0.09
682.247	0.07
682.43	0.03
682.614	0.08
682.797	0.11
682.98	0.13
683.163	0.06
683.346	0.11
683.529	0.03
683.712	0.04
683.895	0.12
684.078	0.03
684.261	0.05
684.444	0.03
684.627	0.08
684.81	0.06
684.993	0.02
685.176	0.09
685.359	0.02
685.542	0.05
685.725	0.14
685.908	0.04
686.091	0.06
686.274	0.11
686.457	0.13
686.639	0.06
686.822	0.13
687.005	0.12
687.188	0.08
687.371	0.18
687.553	0.05
687.736	0.07
687.919	0.13
688.102	0.15
688.284	0.09
688.467	0.06
688.65	0.08
688.832	0.09
689.015	0.08
689.197	0.03
689.38	0.16
689.563	0.13
689.745	0.11
689.928	0.05
690.11	0.08
690.293	0.09
690.475	-0.02
690.658	0.12
690.84	0.06
691.023	0.05
691.205	0.03
691.388	0.06
691.57	0.13
691.752	0.08
691.935	0.01
692.117	0.07
692.3	0.06
692.482	0.07
692.664	0.06
692.847	0.1
693.029	0.15
693.211	0.06
693.393	0.07
693.576	0.02
693.758	0.11
693.94	0.03
694.122	0.09
694.304	0.03
694.487	0.08
694.669	0.11
694.851	0.03
695.033	0.07
695.215	0.13
695.397	0.05
695.579	0.11
695.761	0.04
695.943	0.02
696.125	0.14
696.308	0.11
696.49	-0.01
696.671	0.18
696.853	0.07
697.035	0.21
697.217	0.09
697.399	0.14
697.581	0.04
697.763	0.05
697.945	0.06
698.127	0.07
698.309	0.17
698.491	0.05
698.672	0.12
698.854	0.15
699.036	0.13
699.218	0.05
699.399	0.15
699.581	0.07
699.763	0.1
699.945	0.02
700.126	0.05
700.308	0.1
700.49	0.05
700.671	-0.01
700.853	0.04
701.035	0.05
701.216	0.06
701.398	0.03
701.579	0.04
701.761	0.15
701.943	0.09
702.124	0.03
702.306	0.08
702.487	0.19
702.669	0.08
702.85	0.05
703.031	0.03
703.213	0.18
703.394	0.06
703.576	0
703.757	0.12
703.938	0.13
704.12	0.26
704.301	0.05
704.483	-0.01
704.664	0.11
704.845	0.16
705.026	0.08
705.208	0.03
705.389	0.12
705.57	0.14
705.751	0.1
705.933	0.05
706.114	0.2
706.295	0.05
706.476	0.04
706.657	0.2
706.838	0.1
707.02	0.2
707.201	0.06
707.382	-0.01
707.563	0.11
707.744	0.02
707.925	0.01
708.106	0.01
708.287	0.14
708.468	0.21
708.649	0.09
708.83	0.09
709.011	0.06
709.192	0.12
709.373	0.01
709.554	0.02
709.734	0.13
709.915	0.18
710.096	0.09
710.277	-0
710.458	0.1
710.639	0.07
710.819	-0.02
711	0.05
711.181	0.15
711.362	0.18
711.542	0.08
711.723	0.04
711.904	0.14
712.085	0.13
712.265	0.05
712.446	-0.03
712.627	0.07
712.807	0.07
712.988	0.08
713.168	0
713.349	0.06
713.53	-0.03
713.71	0.02
713.891	0.02
714.071	0.09
714.252	-0.01
714.432	0.06
714.613	-0.04
714.793	0.01
714.974	0.15
715.154	0.12
715.334	0.14
715.515	0.09
715.695	0.05
715.876	0.07
716.056	0.08
716.236	-0
716.417	0.06
716.597	-0.01
716.777	0.29
716.957	0.07
717.138	0.09
717.318	0.11
717.498	0.01
717.678	0.03
717.859	0.06
718.039	-0.01
718.219	0.1
718.399	0.13
718.579	0.07
718.759	-0
718.939	0.13
719.12	0.1
719.3	0.05
719.48	-0.1
719.66	-0.04
719.84	0.2
720.02	0.06
720.2	0.02
720.38	0.07
720.56	0.15
720.74	0.07
720.92	0.11
721.1	0.22
721.279	0.07
721.459	0.1
721.639	0.06
721.819	0.1
721.999	0.02
722.179	0.19
722.359	-0.01
722.538	0.08
722.718	0.11
722.898	0.02
723.078	0.06
723.257	0.07
723.437	0.14
723.617	0.11
723.797	0.01
723.976	0.12
724.156	0.13
724.336	0.15
724.515	0.18
724.695	0.06
724.874	0.11
725.054	0.15
725.234	0.09
725.413	0.14
725.593	0.14
725.772	0.09
725.952	0.12
726.131	0.14
726.311	0.07
726.49	0.08
726.67	0.01
726.849	0.01
727.028	0.15
727.208	0.13
727.387	0.15
727.567	-0.01
727.746	0.01
727.925	0.11
728.105	0.03
728.284	0.02
728.463	0.03
728.643	0.15
728.822	-0.01
729.001	0.05
729.18	0.15
729.359	0.15
729.539	0.1
729.718	0.09
729.897	0.17
730.076	0.04
730.255	-0
730.434	0.07
730.614	0.13
730.793	0.19
730.972	0.09
731.151	0.06
731.33	0.15
731.509	0.15
731.688	0.14
731.867	0.09
732.046	-0.05
732.225	0.3
732.404	0.02
732.583	-0.05
732.762	0.12
732.941	0.1
733.12	0.13
733.298	0.09
733.477	0.16
733.656	0.07
733.835	0
734.014	0.2
734.193	0.1
734.371	0.15
734.55	0.13
734.729	-0.01
734.908	0.16
735.086	0.14
735.265	0.15
735.444	-0.06
735.623	0.03
735.801	0.1
735.98	0.07
736.159	0.2
736.337	0.07
736.516	0.07
736.694	0.07
736.873	-0.01
737.052	0.15
737.23	0.21
737.409	-0.02
737.587	0.19
737.766	-0.14
737.944	0.02
738.123	0.19
738.301	0.14
738.479	-0.06
738.658	0.08
738.836	-0.01
739.015	0.05
739.193	0.34
739.371	0.09
739.55	0.13
739.728	-0.02
739.906	0.29
740.085	0.36
740.263	0.17
740.441	-0.07
740.62	0.22
740.798	0.19
740.976	0.01
741.154	0.02
741.332	0.25
741.511	0.09
741.689	0.14
741.867	0.19
742.045	0.05
742.223	0.2
742.401	0.06
742.579	0.09
742.757	0.19
742.935	-0.08
743.114	0.05
743.292	0.03
743.47	0.04
743.648	0.05
743.826	0.16
744.004	0.16
744.181	0.29
744.359	-0
744.537	0.06
744.715	0.06
744.893	0.21
745.071	0.16
745.249	0.18
745.427	0.02
745.605	0.19
745.782	0.13
745.96	0.14
746.138	0.11
746.316	0.26
746.493	0.08
746.671	0.09
746.849	0.13
747.027	0.25
747.204	-0.08
747.382	0.09
747.56	-0.02
747.737	0.13
747.915	0.07
748.093	0.19
748.27	0.06
748.448	0.09
748.625	-0.06
748.803	-0
748.98	-0.04
749.158	0.12
749.335	0.19
749.513	0.08
749.69	0.1
749.868	0.09
750.045	0.07
750.223	-0.05
750.4	-0.14
750.578	0.27
750.755	-0.04
750.932	0.03
751.11	0.15
751.287	0.02
751.464	0.14
751.642	0.06
751.819	0.19
751.996	0.11
752.173	0.09
752.351	-0.06
752.528	0.1
752.705	0.06
752.882	-0.06
753.06	0.05
753.237	0.11
753.414	0.22
753.591	0.2
753.768	0.13
753.945	0.06
754.122	0.06
754.299	0.18
754.476	-0.01
754.654	0.16
754.831	0.12
755.008	0.21
755.185	0.06
755.362	0.03
755.539	0.17
755.716	0.03
755.892	0.08
756.069	0.11
756.246	0.15
756.423	0.12
756.6	0.23
756.777	0
756.954	0.08
757.131	0.06
757.307	-0.02
757.484	0.02
757.661	0.05
757.838	0.14
758.015	-0.05
758.191	0.26
758.368	0.08
758.545	0.18
758.721	0.17
758.898	0.06
759.075	0.11
759.251	0.18
759.428	0.13
759.605	-0.07
759.781	-0.01
759.958	0.11
760.134	0.02
760.311	0.1
760.488	0.18
760.664	0.24
760.841	0.07
761.017	-0.12
761.194	0.13
761.37	0.12
761.547	0.12
761.723	0.11
761.899	0.21
762.076	-0.04
762.252	-0.1
762.429	-0.03
762.605	0.08
762.781	0.1
762.958	0.12
763.134	-0.05
763.31	0.09
763.486	0.19
763.663	-0.02
763.839	0.09
764.015	-0.05
764.191	-0.08
764.368	0.06
764.544	0.01
764.72	0.16
764.896	0.13
765.072	0.14
765.248	0.16
765.425	-0.04
765.601	0.13
765.777	0.03
765.953	-0.21
766.129	-0.03
766.305	-0.02
766.481	0.17
766.657	-0.01
766.833	0.17
767.009	-0
767.185	0.01
767.361	0.05
767.537	-0.01
767.713	0.16
767.889	0.02
768.065	0.01
768.24	-0.02
768.416	0.13
768.592	0.03
768.768	0.01
768.944	0.17
769.12	0.02
769.295	0.08
769.471	0.06
769.647	-0.08
769.823	0.15
769.998	0
770.174	0.06
770.35	0.37
770.525	0.38
770.701	0.07
770.877	0.07
771.052	-0.06
771.228	0.25
771.403	0.19
771.579	0.14
771.755	0.27
771.93	-0.03
772.106	-0.04
772.281	-0.06
772.457	0.02
772.632	0.17
772.808	0.05
772.983	-0.13
773.159	-0.11
773.334	0.26
773.509	0.09
773.685	-0.04
773.86	0.35
774.036	0.25
774.211	0.13
774.386	-0.08
774.562	-0
774.737	0.11
774.912	-0
775.087	0.1
775.263	0.09
775.438	0.16
775.613	-0.03
775.788	0.07
775.964	0.1
776.139	0.52
776.314	-0.02
776.489	0.21
776.664	0.13
776.839	0.18
777.014	0.11
777.19	0.05
777.365	0.41
777.54	0.38
777.715	0.03
777.89	0.17
778.065	0
778.24	-0.03
778.415	0.14
778.59	-0.1
778.765	-0.02
778.94	0.11
779.115	-0.08
779.289	0.03
779.464	0.13
779.639	0.11
779.814	-0.15
779.989	-0.04
780.164	0.26
780.339	0.08
780.513	-0.08
780.688	-0.01
780.863	0.15
781.038	0.3
781.212	0.01
781.387	0.05
781.562	0.3
781.737	-0.09
781.911	0.33
782.086	-0.2
782.261	-0.04
782.435	0.46
782.61	-0.05
782.784	0.06
782.959	0.43
783.134	0.03
783.308	-0.01
783.483	0.07
783.657	0.4
783.832	0.35
784.006	-0.02
784.181	0.16
784.355	0.27
784.53	-0.18
784.704	0.1
784.878	0.3
785.053	0.23
785.227	0.27
785.402	0.57
785.576	-0.02
785.75	-0.06
785.925	0.23
786.099	0.11
786.273	0.13
786.448	0.28
786.622	0.37
786.796	0
786.97	-0.09
787.145	0.51
787.319	-0.12
787.493	0.09
787.667	-0.38
787.841	-0.01
788.015	0.25
788.19	0.01
788.364	0.23
788.538	0.17
788.712	0.24
788.886	0.04
789.06	0.19
789.234	0.34
789.408	-0.28
789.582	0.1
789.756	0.04
789.93	0.11
790.104	-0.04
790.278	0.17
790.452	-0.09
790.626	0.24
790.8	0.11
790.973	0.22
791.147	0.38
791.321	0.19
791.495	0.29
791.669	0.1
791.843	0.35
792.016	0.09
792.19	0.5
792.364	-0
792.538	0.49
792.711	0.44
792.885	0.07
793.059	-0.1
793.233	-0.37
793.406	0.26
793.58	0.1
793.754	0.22
793.927	-0.06
794.101	0.28
794.274	0.07
794.448	0.22
794.622	0.14
794.795	0.39
794.969	-0.12
795.142	0.52
795.316	0.23
795.489	-0.01
795.663	0.47
795.836	0.33
796.009	-0.04
796.183	0.26
796.356	0.41
796.53	0.14
796.703	0.18
796.876	0.69
797.05	0.14
797.223	0.11
797.396	0.17
797.57	0.21
797.743	0.13
797.916	0.24
798.09	0.07
798.263	0.68
798.436	0.27
798.609	-0.22
798.782	-0.09
798.956	0.01
799.129	0.26
799.302	0.22
799.475	-0.07
799.648	0.08
799.821	0.13
799.994	0.19
800.167	-0.08
800.34	0.22
800.514	0.2
800.687	0.04
800.86	0.14
801.033	0.12
801.206	0.07
801.379	-0.22
801.551	0.35
801.724	0.45
801.897	0.26
802.07	-0.03
802.243	-0.34
802.416	-0.03
802.589	0.17
802.762	-0
802.935	0.09
803.107	0.06
803.28	0.49
803.453	0.45
803.626	0.14
803.798	0.07
803.971	0.03
804.144	0.33
804.317	0.24
804.489	0.38
804.662	0.24
804.835	0.19
805.007	-0
805.18	0.49
805.353	0.16
805.525	0.05
805.698	0.1
805.87	0.53
806.043	0.16
806.215	-0.04
806.388	0.14
806.56	0.22
806.733	0.4
806.905	0.4
807.078	0.04
807.25	0.03
807.423	0.41
807.595	0.2
807.768	0.18
807.94	0.39
808.112	0.21
808.285	0.5
808.457	-0.23
808.629	0.25
808.802	0.51
808.974	0.22
809.146	0.32
809.318	0.01
809.491	0.07
809.663	0.38
809.835	-0.04
810.007	0.35
810.18	-0.04
810.352	-0.14
810.524	-0.18
810.696	0.52
810.868	0.61
811.04	-0.03
811.212	-0.08
811.384	0.81
811.556	0.16
811.728	-0.11
811.901	0.63
812.073	-0.15
812.245	0.53
812.417	0.28
812.589	-0.77
812.76	0.28
812.932	0.07
813.104	0.63
813.276	-0.03
813.448	0.54
813.62	0.18
813.792	0.51
813.964	0.19
814.136	0.12
814.307	-0.16
814.479	0.21
814.651	-0
814.823	1.17
814.995	0.08
815.166	0.28
815.338	-0.22
815.51	-0.09
815.681	0.74
815.853	0.96
816.025	-0.11
816.196	0.75
816.368	0.77
816.54	-0.28
816.711	0.19
816.883	0.11
817.054	1.02
817.226	-0.62
817.398	0.19
817.569	0.19
817.741	0.19
817.912	0.06
818.084	0.3
818.255	0.19
818.426	-0.21
818.598	-0.02
818.769	-0.07
818.941	0.21
819.112	0.69
819.283	0.62
819.455	-0.19
819.626	0.16
819.798	0.38
819.969	0.41
820.14	0.08
820.311	-0.01
820.483	0.24
820.654	0.4
820.825	0.32
820.996	0.08
821.168	-0.32
821.339	0.13
821.51	-0.12
821.681	0.04
821.852	0.35
822.023	-0.46
822.195	-0.36
822.366	0.38
822.537	0.32
822.708	0.41
822.879	-0.36
823.05	0.53
823.221	0.11
823.392	0.62
823.563	0.23
823.734	0.32
823.905	0.03
824.076	-0.1
824.247	-0.24
824.418	-0
824.589	0.75
824.759	-0.01
824.93	0.16
825.101	-0.13
825.272	0.98
825.443	0.44
825.614	1.23
825.784	-0.81
825.955	0.79
826.126	0.7
826.297	0.5
826.467	0.56
826.638	1.44
826.809	-0.2
826.98	0.33
827.15	0.59
827.321	0.06
827.492	0.96
827.662	0.07
827.833	0.69
828.003	0.68
828.174	-0.31
828.345	-0.31
828.515	0.92
828.686	0.2
828.856	-0.02
829.027	-0.22
829.197	0.27
829.368	0.58
829.538	-0.14
829.709	-0.08
829.879	0.89
830.049	-0.03
830.22	0.03
830.39	0.05
830.56	1.06
830.731	-0.33
830.901	-0.33
831.072	0.41
831.242	0.33
831.412	-0.04
831.582	0.47
831.753	-0.25
831.923	0.67
832.093	0.47
832.263	-0.12
832.434	-0.36
832.604	0.35
832.774	1.19
832.944	0.57
833.114	0.13
833.284	0.3
833.454	0.44
833.624	0.09
833.795	0.09
833.965	1.2
834.135	0.67
834.305	-0.78
834.475	0.19
834.645	0.24
834.815	-0.3
834.985	0.08
835.155	-0.57
835.325	0.9
835.494	0.88
835.664	0.09
835.834	-0.55
836.004	-0.28
836.174	0.64
836.344	0.07
836.514	-0.31
836.684	-0.21
836.853	-0.04
837.023	0.19
837.193	-0.1
837.363	1.19
837.532	1.04
837.702	-0.12
837.872	-0.25
838.041	0.78
838.211	1.91
838.381	-0.73
838.55	0.68
838.72	2.67
838.89	1.29
839.059	-0.24
839.229	-0.21
839.398	1.35
839.568	0.66
839.738	0.28
839.907	1.64
840.077	0.6
840.246	-0.22
840.416	-0.21
840.585	-0.09
840.755	1.79
840.924	1.33
841.093	-0.31
841.263	0.2
841.432	0.22
841.602	-0.23
841.771	-0.21
841.94	0.39
842.11	2.77
842.279	1.91
842.448	-0.99
842.617	-0.14
842.787	0.92
842.956	-0.42
843.125	0.1
843.294	0.65
843.464	1.58
843.633	0.55
843.802	-0.33
843.971	0.21
844.14	0.87
844.309	1.28
844.479	-0.59
844.648	-0.17
844.817	-0.22
844.986	0.33
845.155	-0.28
845.324	0.37
845.493	0.36
845.662	-0.55
845.831	-0.05
846	1.43
846.169	0.23
846.338	0.69
846.507	0.57
846.676	0.44
846.844	-0.33
847.013	1.84
847.182	-0.12
847.351	-0.04
847.52	0.88
847.689	0.91
847.858	0.55
848.026	-0.36
848.195	0.63
848.364	-0.01
848.533	0.31
848.701	0.16
848.87	0.72
849.039	0.72
849.207	1.28
849.376	1.68
849.545	1.36
849.713	-0.15
849.882	-0.16
850.051	-0.32
850.219	0.92
850.388	0.96
850.556	-0.65
850.725	-1.28
850.893	0.54
851.062	0.27
851.23	1.36
851.399	-1.34
851.567	0.24
851.736	0.43
851.904	-0.82
852.073	1.01
852.241	0.1
852.41	0.99
852.578	0.26
852.746	0.03
852.915	1.45
853.083	0.2
853.251	-0.24
853.42	0.53
853.588	1.13
853.756	1.97
853.924	0.38
854.093	-0.5
854.261	0.45
854.429	-0.92
854.597	0.06
854.765	-0.04
854.934	1.49
855.102	1.65
855.27	-0.01
855.438	0.44
855.606	2.03
855.774	2.77
855.942	-0.37
856.11	-1.89
856.278	0.96
856.446	0.48
856.614	0.92
856.782	-0.25
856.95	0.99
857.118	1.66
857.286	0.63
857.454	-0.75
857.622	1.27
857.79	0.81
857.958	-0.32
858.126	0.33
858.294	-2.08
858.462	0.07
858.629	-1.46
858.797	-0.62
858.965	1.87
859.133	0.57
859.301	0.36
859.468	0.56
859.636	-0.57
859.804	1.42
859.971	1.73
860.139	-0.7
860.307	1.1
860.474	1.36
860.642	-1.88
860.81	0.02
860.977	0.44
861.145	0.62
861.313	-0.66
861.48	0.7
861.648	1.07
861.815	0.48
861.983	-1.5
862.15	-0.79
862.318	1.52
862.485	2.19
862.653	-0.32
862.82	-0.23
862.988	1.25
863.155	-0.79
863.322	-0.89
863.49	-1.59
863.657	0.38
863.824	2.53
863.992	1.4
864.159	0.25
864.326	1.57
864.494	0.22
864.661	3.74
864.828	-0.66
864.996	1.49
865.163	2.56
865.33	-1.51
865.497	-1.19
865.664	0.6
865.832	-0.81
865.999	-1.42
866.166	0.4
866.333	-0.21
866.5	0.63
866.667	-0.98
866.834	0.04
867.001	2.7
867.168	0.43
867.335	0.1
867.502	-0.57
867.669	1.35
867.836	2.31
868.003	0.26
868.17	1.72
868.337	1.57
868.504	2.78
868.671	-0.9
868.838	-0.94
869.005	1
869.172	1.96
869.339	1.12
869.505	1.95
869.672	0.31
869.839	1.52
870.006	0.91
870.173	-3.24
870.339	1.42
870.506	2.7
870.673	-1.6
870.84	1.01
871.006	-0.29
871.173	0.71
871.34	0.41
871.506	-0.85
871.673	0.78
871.839	-0.54
872.006	1.88
872.173	-1.04
872.339	2.09
872.506	2.55
872.672	-0.67
872.839	-1.15
873.005	1.21
873.172	4.58
873.338	2.06
873.505	1.66
873.671	2.15
873.838	-0.63
874.004	-0.8
874.171	-0.43
874.337	-0.07
874.503	0.72
874.67	-0.33
874.836	-0.83
875.002	2.1
875.169	1.92
875.335	-0.06
875.501	0.05
875.668	0.81
875.834	-0.31
876	1.31
876.166	0.62
876.332	1.27
876.499	2.85
876.665	-0.71
876.831	0.93
876.997	4.22
877.163	2.57
877.329	-0.13
877.495	0.34
877.662	0.76
877.828	0.27
877.994	-1.02
878.16	-1.02
878.326	-1.26
878.492	2.29
878.658	0.77
878.824	1.33
878.99	1.98
879.156	-0.99
879.322	2.85
879.487	0.26
879.653	0.05
879.819	0.98
879.985	-2.46
880.151	1.26
880.317	1.83
880.483	2.24
880.648	2.78
880.814	-1.33
880.98	0.82
881.146	-1.02
881.312	-1.05
881.477	-0.12
881.643	2.1
881.809	0.77
881.974	3.85
882.14	-1.75
882.306	1.6
882.471	3.84
882.637	0.47
882.803	0.95
882.968	2.07
883.134	4.17
883.299	-1.28
883.465	1
883.63	3.05
883.796	3.33
883.961	1.78
884.127	0.93
884.292	-2.84
884.458	-1.2
884.623	-1.2
