Data from Apollo_Calib_20240827__AbsoluteIrradiance__598__09-07-00-998.txt Node

Date: Wed Aug 28 09:07:01 BST 2024
User: biology
Spectrometer: FLMT08252
Trigger mode: 0
Integration Time (sec): 5.000000E-1
Scans to average: 5
Electric dark correction enabled: true
Nonlinearity correction enabled: false
Boxcar width: 0
XAxis mode: Wavelengths
Number of Pixels in Spectrum: 3648
>>>>>Begin Spectral Data<<<<<
179.588	-0
179.809	-0
180.03	-0
180.251	-0
180.473	-0
180.694	0
180.915	0
181.136	-0
181.357	0
181.578	0
181.799	0
182.02	-0
182.241	-0
182.462	-0
182.683	0
182.904	-0
183.125	-0
183.346	0
183.567	0
183.788	0
184.009	-0
184.23	0
184.451	0
184.672	0
184.892	0
185.113	0
185.334	0
185.555	0
185.776	0
185.996	0
186.217	0
186.438	0
186.659	0
186.879	0
187.1	-0
187.321	-0
187.541	-0
187.762	0
187.983	0
188.203	0
188.424	0
188.644	0
188.865	0
189.086	-0
189.306	0
189.527	0
189.747	0
189.968	0
190.188	0
190.409	0
190.629	0
190.849	0
191.07	0
191.29	0
191.511	0
191.731	0
191.951	0
192.172	0
192.392	0
192.612	0
192.833	0
193.053	0
193.273	0
193.493	0
193.714	0
193.934	0
194.154	0
194.374	0
194.594	0
194.815	0
195.035	0
195.255	0
195.475	0
195.695	0
195.915	0
196.135	0
196.355	0
196.575	0
196.795	0
197.015	0
197.235	0
197.455	0
197.675	0
197.895	0
198.115	-0
198.335	0
198.555	0
198.775	0
198.995	0
199.214	0
199.434	0
199.654	0
199.874	0
200.094	1.88
200.313	0.69
200.533	0.37
200.753	-0.23
200.973	1.43
201.192	1.32
201.412	-0.11
201.632	0.76
201.851	1.3
202.071	0.18
202.291	-0.03
202.51	-0.02
202.73	0.7
202.95	0.75
203.169	0.28
203.389	0.44
203.608	0.37
203.828	0.24
204.047	0.2
204.267	0.94
204.486	0.57
204.706	0.89
204.925	0.72
205.145	0.41
205.364	0.57
205.583	1.01
205.803	0.04
206.022	0.59
206.242	0.46
206.461	0.74
206.68	-0.08
206.9	0.61
207.119	0.9
207.338	1.18
207.557	0.25
207.777	-0.09
207.996	0.42
208.215	0.98
208.434	0.35
208.654	0.15
208.873	0.6
209.092	0.96
209.311	0.22
209.53	0.28
209.749	0.16
209.968	0.32
210.187	0.19
210.407	0.07
210.626	0.26
210.845	0.62
211.064	0.42
211.283	0.19
211.502	0.4
211.721	0.43
211.94	0.05
212.159	0.54
212.377	0.5
212.596	0.71
212.815	0.32
213.034	0.54
213.253	0.43
213.472	0.59
213.691	0.25
213.91	0
214.128	0.13
214.347	0.69
214.566	0.12
214.785	0.03
215.003	0.41
215.222	0.55
215.441	0.39
215.66	0.15
215.878	0.41
216.097	0.53
216.316	0.06
216.534	0.04
216.753	0.33
216.972	0.31
217.19	0.1
217.409	0.11
217.627	0.21
217.846	0
218.064	0.42
218.283	0.14
218.501	0.72
218.72	0.55
218.938	0.13
219.157	0.09
219.375	0.45
219.594	0.54
219.812	0.13
220.031	0.08
220.249	0.48
220.467	0.29
220.686	0.29
220.904	-0
221.122	0.15
221.341	0.52
221.559	0.27
221.777	0.09
221.995	0.21
222.214	0.26
222.432	0.13
222.65	0.27
222.868	0.2
223.086	0.22
223.305	0.29
223.523	0.16
223.741	0.57
223.959	-0.05
224.177	0.03
224.395	0.18
224.613	0.18
224.831	0.28
225.049	0.03
225.267	0.2
225.485	0.23
225.703	0.13
225.921	0.2
226.139	0.19
226.357	0.31
226.575	0.24
226.793	0.13
227.011	0.7
227.229	0.19
227.447	0.37
227.665	0.11
227.883	-0.02
228.1	0.24
228.318	0.23
228.536	-0.06
228.754	0.06
228.972	0.24
229.189	0.32
229.407	-0.04
229.625	0.09
229.843	0.38
230.06	0.3
230.278	0.11
230.496	0.14
230.713	0.14
230.931	0.4
231.149	0.11
231.366	-0.04
231.584	0.13
231.801	0.56
232.019	0.15
232.236	-0.05
232.454	0.01
232.671	0.34
232.889	0.12
233.106	0.04
233.324	0.17
233.541	0.18
233.759	0.1
233.976	0.09
234.194	0.19
234.411	0.19
234.628	0.05
234.846	0.15
235.063	0.13
235.28	0.13
235.498	0.11
235.715	0.01
235.932	0.34
236.149	0.18
236.367	0.06
236.584	0.1
236.801	0.16
237.018	0.22
237.236	0.15
237.453	-0.04
237.67	0.18
237.887	0.15
238.104	0.08
238.321	0.11
238.538	0.07
238.755	0.15
238.973	0.01
239.19	0.15
239.407	0.1
239.624	0.18
239.841	0.09
240.058	0.08
240.275	0.21
240.492	0.02
240.709	0.16
240.925	0.08
241.142	0.12
241.359	0.09
241.576	0.1
241.793	-0.01
242.01	0.08
242.227	0.24
242.444	0.16
242.66	0.28
242.877	0.1
243.094	0.02
243.311	0.24
243.527	0.04
243.744	0.12
243.961	0.18
244.178	0.07
244.394	0.2
244.611	0.25
244.828	0.26
245.044	-0
245.261	0.11
245.477	0.19
245.694	0.15
245.911	0.11
246.127	0.09
246.344	0.28
246.56	0.24
246.777	0.08
246.993	0.1
247.21	0.18
247.426	0.19
247.643	0.04
247.859	0.11
248.076	0.08
248.292	0.25
248.508	0.05
248.725	0.13
248.941	0.12
249.157	0.19
249.374	0.1
249.59	0.1
249.806	0.12
250.023	0.15
250.239	0.04
250.455	0.02
250.671	0.12
250.888	0.2
251.104	0.09
251.32	0.06
251.536	0.15
251.752	0.09
251.969	0.15
252.185	0.19
252.401	0.24
252.617	0.16
252.833	0.08
253.049	0.12
253.265	0.17
253.481	0.17
253.697	0.08
253.913	0.03
254.129	0.09
254.345	0.11
254.561	0.07
254.777	0.09
254.993	0.16
255.209	0.14
255.425	0.06
255.641	0.19
255.857	0.18
256.073	0.13
256.288	0.12
256.504	0.06
256.72	0.13
256.936	0.29
257.152	0.02
257.367	0.06
257.583	0.17
257.799	0.2
258.015	0
258.23	0.08
258.446	0.2
258.662	0.11
258.877	0.06
259.093	0.06
259.309	0.03
259.524	0.1
259.74	0.02
259.955	-0.01
260.171	0.15
260.387	0.09
260.602	0.17
260.818	0.14
261.033	0.06
261.249	0.07
261.464	0.09
261.68	-0.03
261.895	0.08
262.11	0.14
262.326	0.06
262.541	0.05
262.757	0.12
262.972	0.12
263.187	0.12
263.403	0.11
263.618	0.17
263.833	0.08
264.049	-0.03
264.264	0.05
264.479	0.14
264.694	0.19
264.91	-0.03
265.125	0.09
265.34	0.15
265.555	0.26
265.77	0.17
265.986	0.06
266.201	0.14
266.416	0.25
266.631	0.04
266.846	0.08
267.061	0.14
267.276	0.08
267.491	-0.06
267.706	0.15
267.921	0.17
268.136	0.1
268.351	0.12
268.566	0.04
268.781	0.17
268.996	0.12
269.211	0.09
269.426	0.02
269.641	0.02
269.856	0.16
270.071	0.05
270.285	0.01
270.5	0.18
270.715	0.11
270.93	0.09
271.145	0.11
271.359	0.11
271.574	0.03
271.789	0.11
272.004	0.04
272.218	0.09
272.433	0.18
272.648	0.06
272.862	0.13
273.077	0.13
273.292	0.06
273.506	0.03
273.721	0.07
273.936	0.17
274.15	0.15
274.365	0.11
274.579	0.12
274.794	0.08
275.008	0.14
275.223	0
275.437	0.06
275.652	0.1
275.866	0.13
276.081	0.09
276.295	0.15
276.509	0.04
276.724	0.12
276.938	0.07
277.153	0.11
277.367	0.04
277.581	0.01
277.796	0.07
278.01	0.02
278.224	0.1
278.438	0.18
278.653	0.03
278.867	0.03
279.081	0.11
279.295	0.06
279.51	0.1
279.724	-0.02
279.938	0.12
280.152	0.08
280.366	0.02
280.58	0.1
280.794	0.24
281.008	0.1
281.222	0.15
281.437	0.19
281.651	0.15
281.865	0.14
282.079	0.06
282.293	-0.05
282.507	0.05
282.721	0.08
282.935	0.09
283.148	-0.01
283.362	0.04
283.576	0.02
283.79	0.04
284.004	0.01
284.218	0.18
284.432	0.03
284.646	0.12
284.859	0.06
285.073	0.01
285.287	0.11
285.501	0.07
285.714	0.07
285.928	0.13
286.142	0.1
286.356	0.07
286.569	0.06
286.783	0.19
286.997	0.13
287.21	0.11
287.424	0.1
287.637	0.07
287.851	0.09
288.065	0.11
288.278	0.06
288.492	0.06
288.705	0.09
288.919	0.09
289.132	0.04
289.346	0.12
289.559	0.02
289.773	-0
289.986	0.06
290.2	0.05
290.413	0.12
290.626	-0.03
290.84	0.08
291.053	0.08
291.267	0.14
291.48	0.08
291.693	0.08
291.906	0.09
292.12	0.03
292.333	0.02
292.546	0.07
292.76	0.18
292.973	0.09
293.186	0.05
293.399	0.07
293.612	0.18
293.826	0.05
294.039	0.09
294.252	0.07
294.465	0.08
294.678	0.1
294.891	0.06
295.104	0.04
295.317	0.04
295.53	0.07
295.743	0.1
295.956	0.04
296.169	0.13
296.382	0.15
296.595	0.06
296.808	0.03
297.021	0.12
297.234	0.06
297.447	0.06
297.66	0.1
297.873	0.12
298.086	0.1
298.299	0.04
298.511	-0
298.724	0.04
298.937	0.02
299.15	0.05
299.363	0.1
299.575	0.05
299.788	0.08
300.001	0.02
300.213	0.06
300.426	0.03
300.639	0.05
300.852	0.03
301.064	0.11
301.277	0.13
301.489	0.11
301.702	0.07
301.915	0.08
302.127	0.04
302.34	0.08
302.552	0.14
302.765	0.04
302.977	0.07
303.19	0.05
303.402	0.03
303.615	0.06
303.827	0.04
304.04	0.07
304.252	0.08
304.464	0.02
304.677	0.16
304.889	0.05
305.102	0.04
305.314	0.02
305.526	0.15
305.739	0.1
305.951	0.03
306.163	0.06
306.375	0.07
306.588	0.03
306.8	0.03
307.012	0.01
307.224	0.06
307.436	0.12
307.649	-0.03
307.861	0.07
308.073	0.08
308.285	0.03
308.497	0.05
308.709	0.06
308.921	0.04
309.133	0.16
309.346	0.08
309.558	0.02
309.77	0.09
309.982	0.13
310.194	0.1
310.406	0.05
310.617	0.1
310.829	0.07
311.041	0.1
311.253	0.05
311.465	0.06
311.677	0.08
311.889	0.05
312.101	0.02
312.313	0.1
312.524	0.13
312.736	-0.01
312.948	0.02
313.16	0.1
313.372	0.11
313.583	0.08
313.795	0.05
314.007	0.04
314.218	0.13
314.43	0.07
314.642	0.02
314.853	0.02
315.065	0.1
315.277	0.04
315.488	0.11
315.7	0.09
315.912	0.07
316.123	0.08
316.335	0.05
316.546	0.15
316.758	0.05
316.969	0.02
317.181	0.05
317.392	0.09
317.604	0.11
317.815	0.07
318.026	0.05
318.238	0.02
318.449	0.07
318.661	0.01
318.872	0.02
319.083	0.01
319.295	0.07
319.506	0.05
319.717	0.08
319.929	0.07
320.14	0.04
320.351	0.06
320.562	0.07
320.774	0.05
320.985	0.05
321.196	0.02
321.407	0.02
321.618	0.07
321.829	0.05
322.041	0.09
322.252	0.06
322.463	0.08
322.674	0.06
322.885	0.01
323.096	0.09
323.307	0.05
323.518	0.06
323.729	0.03
323.94	0.07
324.151	0.02
324.362	0.09
324.573	0.06
324.784	0.07
324.995	0.08
325.206	0.04
325.417	0.04
325.628	0.04
325.838	0.07
326.049	0.06
326.26	0.12
326.471	0.05
326.682	0.1
326.892	0.05
327.103	-0.02
327.314	0.05
327.525	0.16
327.735	0.11
327.946	0.04
328.157	0.05
328.368	0.1
328.578	0.03
328.789	0.09
328.999	0.05
329.21	0.06
329.421	0.12
329.631	0.01
329.842	-0
330.052	0.07
330.263	0.1
330.473	0.06
330.684	0.01
330.894	0.06
331.105	0.03
331.315	0.03
331.526	0.03
331.736	0.15
331.947	0.1
332.157	0.08
332.367	0.05
332.578	0.07
332.788	0.13
332.999	0.09
333.209	0.06
333.419	-0.01
333.629	0.07
333.84	0.09
334.05	0.05
334.26	0.1
334.47	0.08
334.681	0.09
334.891	0.04
335.101	0.13
335.311	0.13
335.521	0.03
335.732	0.02
335.942	0.15
336.152	0.06
336.362	0.1
336.572	0.08
336.782	0.11
336.992	0.05
337.202	0.05
337.412	0.03
337.622	0.06
337.832	0.04
338.042	0.05
338.252	0.07
338.462	0.03
338.672	0.07
338.882	0.02
339.092	0.09
339.302	0.12
339.511	0.06
339.721	0.07
339.931	0.06
340.141	0.1
340.351	0.11
340.561	0.07
340.77	0.08
340.98	0.04
341.19	0.11
341.4	0.02
341.609	0.04
341.819	0.05
342.029	-0.02
342.238	0.1
342.448	0.04
342.658	0.09
342.867	0.04
343.077	0.09
343.286	0.07
343.496	0.09
343.706	0.09
343.915	0.04
344.125	0.07
344.334	0.1
344.544	0.04
344.753	0.05
344.963	0.04
345.172	0.05
345.381	0.01
345.591	0.04
345.8	0.07
346.01	0.09
346.219	0.1
346.428	-0.11
346.638	0.05
346.847	0.06
347.056	0.12
347.266	0.03
347.475	0.05
347.684	0.04
347.893	0.09
348.103	0.05
348.312	0.04
348.521	0.1
348.73	0.06
348.94	0.05
349.149	0.04
349.358	0.05
349.567	0.02
349.776	0
349.985	0.03
350.194	0.06
350.403	0.11
350.612	-0.01
350.821	0.01
351.03	0.07
351.239	0.01
351.448	0.1
351.657	0.03
351.866	0.14
352.075	0.06
352.284	0.08
352.493	-0.02
352.702	0.07
352.911	0.08
353.12	0.04
353.329	0.06
353.538	0.09
353.746	0.08
353.955	0.03
354.164	0.08
354.373	0.06
354.582	0.09
354.79	0.07
354.999	0.09
355.208	0.04
355.416	0.1
355.625	0.02
355.834	0.01
356.042	0.05
356.251	0.04
356.46	0.03
356.668	0.03
356.877	0.13
357.085	0.08
357.294	-0.01
357.503	0.08
357.711	0.03
357.92	0.14
358.128	0.05
358.337	0.03
358.545	0.06
358.754	0.06
358.962	0.08
359.17	0.03
359.379	0.07
359.587	0.07
359.796	0.05
360.004	0.13
360.212	0.05
360.421	0.07
360.629	0.05
360.837	0.05
361.046	0.08
361.254	0.14
361.462	0.06
361.67	0.02
361.879	0.07
362.087	0.11
362.295	0.06
362.503	0.09
362.711	0.02
362.92	0.03
363.128	0.05
363.336	0.02
363.544	0
363.752	0.05
363.96	0.03
364.168	0.08
364.376	0.02
364.584	0.04
364.792	0.09
365	0.09
365.208	0.06
365.416	0.08
365.624	0.04
365.832	0.01
366.04	0.12
366.248	0.07
366.456	0.05
366.664	0.13
366.872	0.04
367.079	0.03
367.287	0.07
367.495	0.07
367.703	0.05
367.911	0.06
368.118	0
368.326	0.06
368.534	-0.02
368.742	0.13
368.949	-0.02
369.157	0.04
369.365	0.11
369.572	0.01
369.78	0.03
369.988	0.07
370.195	0.09
370.403	0.08
370.61	0.05
370.818	0.07
371.026	0.08
371.233	0.03
371.441	0.06
371.648	0.04
371.856	0.09
372.063	0.08
372.271	0.06
372.478	0.02
372.685	0.04
372.893	0.09
373.1	0.07
373.308	-0.01
373.515	0.08
373.722	0.05
373.93	0.02
374.137	0.06
374.344	0.13
374.552	0.12
374.759	0.1
374.966	0.11
375.173	0.06
375.381	0.07
375.588	0.06
375.795	-0.01
376.002	0.05
376.209	0.03
376.417	0.05
376.624	0.03
376.831	0.08
377.038	0.04
377.245	-0.02
377.452	0.02
377.659	0.06
377.866	0.05
378.073	0.04
378.28	0.06
378.487	0.09
378.694	0.09
378.901	0.04
379.108	0.04
379.315	0.1
379.522	0.14
379.729	0.03
379.936	0.04
380.143	0
380.35	0.08
380.557	0.07
380.763	0.06
380.97	0.01
381.177	0.1
381.384	0.07
381.591	0.01
381.797	0.03
382.004	0.04
382.211	0.08
382.418	0.04
382.624	0.1
382.831	0.06
383.038	0.06
383.244	0.05
383.451	0.07
383.658	0.05
383.864	0.02
384.071	0.02
384.277	0.13
384.484	0.02
384.69	0.09
384.897	-0
385.103	0.07
385.31	0.04
385.516	0.05
385.723	0.04
385.929	0.05
386.136	0.05
386.342	0.08
386.549	0.05
386.755	0.09
386.961	0.11
387.168	0.08
387.374	0.05
387.58	0.08
387.787	0.04
387.993	0.07
388.199	0.05
388.406	0.02
388.612	0.06
388.818	0.04
389.024	0.02
389.231	0.07
389.437	0.13
389.643	0.06
389.849	0.06
390.055	0.02
390.261	0.09
390.467	0.05
390.674	-0.02
390.88	0.08
391.086	0.07
391.292	0.03
391.498	0.08
391.704	0.06
391.91	0.03
392.116	0.04
392.322	-0.03
392.528	0.05
392.734	0
392.94	0.06
393.146	0.04
393.352	0.08
393.557	0.06
393.763	0.04
393.969	0.07
394.175	0.05
394.381	0.06
394.587	0.01
394.792	0.07
394.998	0.1
395.204	0.09
395.41	0.02
395.615	0.09
395.821	0.09
396.027	0.04
396.233	0.02
396.438	0.05
396.644	0.14
396.85	0.08
397.055	0.02
397.261	0.04
397.466	0.06
397.672	0.06
397.878	0.07
398.083	0.08
398.289	0.02
398.494	0.11
398.7	0.08
398.905	-0.02
399.111	0.11
399.316	-0.01
399.522	0.05
399.727	0.06
399.932	0.01
400.138	0.03
400.343	0.08
400.549	0.05
400.754	0.08
400.959	0.06
401.165	0.07
401.37	0.11
401.575	0.12
401.78	0.05
401.986	0.02
402.191	0.02
402.396	0.08
402.601	0.11
402.807	0.06
403.012	0.08
403.217	0.07
403.422	0.04
403.627	0.09
403.832	0
404.037	0.07
404.243	0.1
404.448	0.06
404.653	0.04
404.858	0.11
405.063	0.12
405.268	0
405.473	-0.01
405.678	0
405.883	0.21
406.088	0.09
406.293	0.02
406.498	0.01
406.703	0.06
406.907	0.05
407.112	0.01
407.317	0.07
407.522	0.05
407.727	-0
407.932	0.07
408.136	0.11
408.341	0.01
408.546	0.07
408.751	0.07
408.956	0.02
409.16	0.1
409.365	0.08
409.57	0.03
409.774	0.06
409.979	0.08
410.184	0.05
410.388	-0.01
410.593	0.13
410.798	0.07
411.002	0.01
411.207	0.1
411.411	0.08
411.616	0.08
411.82	0.05
412.025	0.03
412.229	0.05
412.434	0.15
412.638	0.07
412.843	0.01
413.047	0.03
413.252	0.04
413.456	0.07
413.66	0.07
413.865	0.02
414.069	0.13
414.273	0.04
414.478	0.03
414.682	0.04
414.886	0.06
415.091	-0.01
415.295	-0.01
415.499	0.09
415.703	0.04
415.908	0.03
416.112	-0.02
416.316	0.04
416.52	0.05
416.724	-0.02
416.929	0.02
417.133	0.13
417.337	0.02
417.541	0
417.745	0.07
417.949	0.03
418.153	0.09
418.357	-0.03
418.561	0.12
418.765	0.04
418.969	0.1
419.173	0.09
419.377	-0.01
419.581	0.12
419.785	0.06
419.989	0
420.193	0.02
420.397	0.06
420.601	0.1
420.804	0.1
421.008	0.04
421.212	0.01
421.416	0.11
421.62	0.05
421.823	0.04
422.027	0.14
422.231	0.07
422.435	0.02
422.638	0.05
422.842	0.08
423.046	-0
423.249	0.07
423.453	0.05
423.657	0.05
423.86	0
424.064	0.04
424.268	0.12
424.471	0.02
424.675	0.1
424.878	0.13
425.082	0.08
425.285	0.11
425.489	0.07
425.692	0.06
425.896	0.01
426.099	0.01
426.303	0.03
426.506	-0
426.71	0.05
426.913	0.07
427.116	0.09
427.32	0.1
427.523	0.07
427.726	0.16
427.93	-0.01
428.133	0.08
428.336	0
428.54	0
428.743	0.08
428.946	0.08
429.149	0.04
429.353	0.04
429.556	0.08
429.759	0.06
429.962	0.01
430.165	0.03
430.368	0.04
430.571	0.05
430.775	0.08
430.978	0.02
431.181	0.09
431.384	0
431.587	0.04
431.79	0.03
431.993	0.04
432.196	0.02
432.399	0.09
432.602	0.09
432.805	0.02
433.008	0.02
433.211	-0.04
433.414	0.07
433.616	0.03
433.819	0.08
434.022	-0.08
434.225	0.13
434.428	0.08
434.631	0.14
434.833	0.06
435.036	0.01
435.239	0.1
435.442	0.04
435.645	0.03
435.847	0.07
436.05	0.1
436.253	0.06
436.455	0
436.658	0.03
436.861	0.1
437.063	0.04
437.266	0.07
437.468	0.06
437.671	0.15
437.874	0.05
438.076	-0.01
438.279	-0.03
438.481	0.05
438.684	0.03
438.886	0.07
439.089	-0.02
439.291	0.04
439.494	0.11
439.696	-0.01
439.899	0.06
440.101	0.07
440.303	-0.02
440.506	0.05
440.708	0.04
440.91	0.08
441.113	0.03
441.315	0.09
441.517	-0.01
441.72	0.07
441.922	-0.02
442.124	0.02
442.326	0.05
442.529	0.15
442.731	0.03
442.933	0.13
443.135	0.01
443.337	0.08
443.539	0.05
443.742	0.05
443.944	0.07
444.146	0.03
444.348	0.06
444.55	0.01
444.752	0.03
444.954	-0.03
445.156	0.06
445.358	0.02
445.56	0.09
445.762	0.03
445.964	0.03
446.166	0.01
446.368	0
446.57	0.07
446.772	0.07
446.974	0.05
447.175	0.09
447.377	0.03
447.579	0.02
447.781	-0.07
447.983	0.08
448.184	0.03
448.386	0.09
448.588	-0.02
448.79	0.06
448.991	0.01
449.193	0.03
449.395	0.01
449.597	0.07
449.798	0.08
450	0.05
450.202	0.01
450.403	0.09
450.605	0.09
450.806	0.07
451.008	-0.03
451.21	0.08
451.411	0.09
451.613	0.03
451.814	0.06
452.016	0.11
452.217	0.1
452.419	0.11
452.62	0.06
452.821	0.07
453.023	0.13
453.224	0.08
453.426	0.01
453.627	0.11
453.828	0.12
454.03	0.08
454.231	0.02
454.432	0.03
454.634	0.11
454.835	0.01
455.036	-0.02
455.238	0.1
455.439	0.16
455.64	0.03
455.841	0.02
456.042	0.14
456.244	0.08
456.445	0.04
456.646	-0.04
456.847	-0
457.048	0.06
457.249	0.12
457.45	0.23
457.651	0.09
457.852	0.12
458.054	0.01
458.255	0.07
458.456	0.12
458.657	0.04
458.858	0.04
459.058	0.03
459.259	0.07
459.46	0.07
459.661	0.05
459.862	0.15
460.063	0.04
460.264	0.11
460.465	0.03
460.666	0.15
460.866	0.06
461.067	0.07
461.268	0.08
461.469	0.02
461.67	0.06
461.87	0.04
462.071	0.04
462.272	0.01
462.473	0.07
462.673	0.1
462.874	0.01
463.075	0.04
463.275	0.02
463.476	0.07
463.676	0.06
463.877	0.12
464.078	0.1
464.278	0.1
464.479	0.06
464.679	0.07
464.88	0.11
465.08	0.12
465.281	0.01
465.481	0.02
465.682	0.05
465.882	0.08
466.083	0.06
466.283	0.08
466.483	0.04
466.684	0.04
466.884	0.01
467.085	0.06
467.285	0.11
467.485	0
467.686	0.09
467.886	-0.01
468.086	0.02
468.286	0.08
468.487	0.11
468.687	0.02
468.887	0.04
469.087	0.07
469.287	0.05
469.488	0.01
469.688	0.06
469.888	0.13
470.088	0.11
470.288	0.1
470.488	0.1
470.688	0.01
470.888	0.05
471.088	0.01
471.288	0.09
471.488	0.13
471.688	0.06
471.888	0.03
472.088	0.09
472.288	0.08
472.488	0.01
472.688	0.03
472.888	0.07
473.088	0.07
473.288	0.06
473.488	0
473.688	0.12
473.887	0.02
474.087	0.02
474.287	0.06
474.487	0.02
474.687	0.07
474.886	0.02
475.086	0.05
475.286	0.05
475.486	0.06
475.685	0.01
475.885	0.03
476.085	0.04
476.284	0.06
476.484	0.02
476.684	0.05
476.883	0.08
477.083	0.06
477.282	0.01
477.482	0.09
477.681	0.09
477.881	0.06
478.08	0.01
478.28	0.01
478.479	0.07
478.679	0.12
478.878	-0.01
479.078	-0
479.277	0.05
479.477	0.03
479.676	0.06
479.875	0.03
480.075	-0.03
480.274	0.08
480.473	0.05
480.673	0.02
480.872	0.05
481.071	0.03
481.271	0.07
481.47	0.04
481.669	0.01
481.868	0.02
482.067	0.01
482.267	0.01
482.466	-0
482.665	0.01
482.864	-0.02
483.063	-0
483.262	0.04
483.461	0.1
483.661	0.05
483.86	0.02
484.059	0.05
484.258	0.03
484.457	0.02
484.656	0.02
484.855	0.06
485.054	-0
485.253	-0.02
485.452	-0.01
485.651	0.02
485.849	0.04
486.048	0.02
486.247	0.01
486.446	0.02
486.645	0.01
486.844	-0.01
487.043	0
487.241	0.07
487.44	0
487.639	0.01
487.838	0.05
488.037	0.02
488.235	0.05
488.434	0.04
488.633	-0
488.831	0.02
489.03	0.04
489.229	0.03
489.427	0.01
489.626	0.05
489.825	0.07
490.023	0.03
490.222	-0.01
490.42	0.05
490.619	0.08
490.817	0.04
491.016	0
491.214	0.05
491.413	0.03
491.611	0.04
491.81	0.02
492.008	0.05
492.207	0.04
492.405	0.03
492.604	0
492.802	-0.01
493	0.02
493.199	-0.01
493.397	0
493.595	0.02
493.794	0.01
493.992	0.08
494.19	0.01
494.388	0.07
494.587	0.03
494.785	0.01
494.983	-0.01
495.181	0.01
495.379	0.03
495.578	0.01
495.776	0.04
495.974	0.04
496.172	-0.01
496.37	0
496.568	0.01
496.766	0.04
496.964	0.03
497.162	0.02
497.36	0.01
497.558	0.03
497.756	0.06
497.954	0.03
498.152	-0
498.35	0.04
498.548	0.03
498.746	0.03
498.944	0.01
499.142	0
499.34	-0.01
499.538	0.01
499.736	0
499.933	0.05
500.131	0.05
500.329	0
500.527	0.04
500.725	0.05
500.922	0.04
501.12	0.04
501.318	0.03
501.516	0.01
501.713	0.04
501.911	0.02
502.109	-0.01
502.306	0.04
502.504	0.04
502.701	0
502.899	0.02
503.097	0.07
503.294	0.03
503.492	0
503.689	0.03
503.887	0.03
504.084	0.08
504.282	0.04
504.479	-0.01
504.677	0.03
504.874	0.01
505.072	0.02
505.269	0.01
505.466	0.04
505.664	0.03
505.861	0
506.059	-0.02
506.256	0.06
506.453	0.02
506.651	0.08
506.848	0.04
507.045	0.05
507.242	0.02
507.44	0.02
507.637	0.02
507.834	0
508.031	0.07
508.229	0.01
508.426	0.05
508.623	0.03
508.82	0.01
509.017	0.01
509.214	0.01
509.411	0.04
509.608	0.02
509.805	0.02
510.003	0.02
510.2	0.01
510.397	0.05
510.594	0
510.791	0.02
510.988	0.01
511.184	0.02
511.381	0.03
511.578	0
511.775	0.05
511.972	-0
512.169	0.03
512.366	0.01
512.563	0.05
512.76	0.02
512.956	0.07
513.153	0.03
513.35	0.04
513.547	0.01
513.744	0.01
513.94	-0
514.137	0.04
514.334	0.04
514.53	0.03
514.727	0.02
514.924	0.1
515.12	0.01
515.317	-0.02
515.514	0.03
515.71	0.01
515.907	0.02
516.103	0.02
516.3	0.03
516.497	0.05
516.693	0.07
516.89	-0.01
517.086	-0
517.283	0.07
517.479	0.05
517.676	0
517.872	0.04
518.068	-0
518.265	0.03
518.461	0.02
518.658	0.01
518.854	0.03
519.05	0.02
519.247	-0.01
519.443	0.03
519.639	0.03
519.836	0.02
520.032	0.01
520.228	0.05
520.424	0.08
520.621	0.04
520.817	0
521.013	0.02
521.209	0.04
521.405	0.04
521.601	0.03
521.798	0.02
521.994	0.04
522.19	-0
522.386	0
522.582	0.02
522.778	0.04
522.974	0.03
523.17	0.03
523.366	0.02
523.562	0.05
523.758	0.03
523.954	-0.01
524.15	0.01
524.346	0.03
524.542	0.01
524.738	-0
524.934	0.02
525.129	-0.04
525.325	0.04
525.521	0.02
525.717	0.06
525.913	0.05
526.109	0.01
526.304	0.02
526.5	0.04
526.696	0.03
526.892	0.01
527.087	0.03
527.283	0.02
527.479	0.03
527.674	0.01
527.87	0
528.066	0.02
528.261	0.03
528.457	0.05
528.653	0.03
528.848	0.01
529.044	0.05
529.239	0.02
529.435	0.03
529.63	0.02
529.826	0.05
530.021	0.02
530.217	0.05
530.412	-0
530.608	0.03
530.803	0.04
530.999	0.03
531.194	0
531.389	0.02
531.585	-0.03
531.78	0.01
531.975	0.02
532.171	0.05
532.366	0.02
532.561	0.01
532.757	0.02
532.952	0.03
533.147	0.04
533.342	0.05
533.538	0.01
533.733	0.04
533.928	0.01
534.123	0.02
534.318	-0
534.513	0.01
534.709	0.03
534.904	0.01
535.099	0.02
535.294	0.03
535.489	0.02
535.684	0.02
535.879	0
536.074	0.03
536.269	0.01
536.464	0.03
536.659	0.01
536.854	0
537.049	0.04
537.244	0.05
537.439	0.02
537.634	0.04
537.828	0.04
538.023	0.02
538.218	-0.01
538.413	0.03
538.608	0.01
538.803	0.07
538.997	-0
539.192	0.04
539.387	0.04
539.582	0.02
539.776	0.04
539.971	0.02
540.166	0.02
540.36	-0.02
540.555	0.02
540.75	0.02
540.944	0.02
541.139	0.01
541.334	0.03
541.528	0.03
541.723	0.03
541.917	0.03
542.112	-0.02
542.306	0.02
542.501	0.01
542.695	0.03
542.89	0.03
543.084	0.02
543.279	0.02
543.473	0.04
543.668	0.03
543.862	0.04
544.056	0.04
544.251	0.03
544.445	0.03
544.64	0.03
544.834	0.02
545.028	0.02
545.222	0.04
545.417	0.05
545.611	0.04
545.805	0.04
546	0.02
546.194	0.03
546.388	0.02
546.582	0.04
546.776	0.03
546.97	0.01
547.165	0.04
547.359	0.04
547.553	0.01
547.747	0.03
547.941	0.03
548.135	0.02
548.329	0.02
548.523	0.03
548.717	0.02
548.911	-0.01
549.105	0.01
549.299	0.03
549.493	0.06
549.687	0.06
549.881	0.04
550.075	0.02
550.269	0.01
550.463	0.04
550.657	0.01
550.85	0.03
551.044	0.01
551.238	0.04
551.432	0.01
551.626	0.01
551.82	0.05
552.013	0.02
552.207	0.04
552.401	0.03
552.594	0.03
552.788	0.01
552.982	0.04
553.176	0.02
553.369	0.05
553.563	0.04
553.756	0
553.95	0.01
554.144	0.05
554.337	0.06
554.531	0.03
554.724	0.03
554.918	0.01
555.111	0.06
555.305	0.02
555.498	0.1
555.692	0.06
555.885	0.02
556.079	0.05
556.272	0
556.466	0.06
556.659	0.03
556.852	0.03
557.046	0.02
557.239	0.06
557.432	0
557.626	0.02
557.819	0.04
558.012	0.06
558.206	0.03
558.399	0.04
558.592	0.05
558.785	0.03
558.979	0.05
559.172	0.03
559.365	0.07
559.558	0.05
559.751	0.04
559.944	0.04
560.138	0.03
560.331	0.02
560.524	0.04
560.717	0.03
560.91	0.04
561.103	0.04
561.296	0.05
561.489	0.04
561.682	0.02
561.875	0.05
562.068	0.05
562.261	0.05
562.454	0.09
562.647	0.06
562.84	0.05
563.032	0.04
563.225	0.02
563.418	0.04
563.611	0.02
563.804	0.03
563.997	0.02
564.19	0.01
564.382	-0
564.575	0.03
564.768	0.03
564.961	0.02
565.153	0.01
565.346	0.05
565.539	0.06
565.731	0.05
565.924	0.07
566.117	0.06
566.309	0.03
566.502	0.03
566.695	0.01
566.887	0.07
567.08	0.02
567.272	0.02
567.465	0.03
567.657	0.04
567.85	0.05
568.042	0.03
568.235	0.08
568.427	0.04
568.62	0.06
568.812	0.05
569.005	0.05
569.197	0.02
569.389	0.05
569.582	0.04
569.774	0.05
569.966	0.03
570.159	0.03
570.351	0.05
570.543	0.02
570.736	0.05
570.928	0.01
571.12	0.04
571.312	0.04
571.505	0.01
571.697	0.07
571.889	0.02
572.081	0.05
572.273	0.03
572.465	0.08
572.658	0.04
572.85	0.07
573.042	0.04
573.234	0.05
573.426	0.09
573.618	0.04
573.81	0.05
574.002	0.07
574.194	0.07
574.386	0.01
574.578	-0.01
574.77	0.02
574.962	0.07
575.154	0.03
575.346	0.05
575.538	0.07
575.729	0.02
575.921	0.03
576.113	0.02
576.305	0.07
576.497	0.04
576.689	0.04
576.88	0.01
577.072	0.05
577.264	0.04
577.456	0.04
577.647	-0.01
577.839	0.04
578.031	0.08
578.223	0.02
578.414	0.04
578.606	0.06
578.798	0.05
578.989	0.05
579.181	0.04
579.372	0.05
579.564	0.04
579.755	0.08
579.947	0.07
580.139	0.07
580.33	0
580.522	0.04
580.713	-0.01
580.905	0.04
581.096	0.07
581.287	0.06
581.479	0.06
581.67	0.08
581.862	0.07
582.053	0.03
582.244	0.02
582.436	0.06
582.627	0.06
582.818	0.03
583.01	0
583.201	0.08
583.392	0.09
583.583	0.07
583.775	0.06
583.966	0.05
584.157	0.06
584.348	0.07
584.54	0.03
584.731	0.08
584.922	0.07
585.113	0.06
585.304	0.08
585.495	0.1
585.686	0.06
585.877	0.09
586.068	0.08
586.259	0.08
586.45	0.09
586.641	0.03
586.832	0.02
587.023	0.07
587.214	0.09
587.405	0.07
587.596	0.08
587.787	0.12
587.978	0.07
588.169	0.05
588.36	0.07
588.551	0.07
588.742	0.05
588.932	0.08
589.123	0.05
589.314	0.09
589.505	0.09
589.696	0.08
589.886	0.08
590.077	0.05
590.268	0.11
590.458	0.04
590.649	0.03
590.84	0.12
591.03	0.07
591.221	0.03
591.412	0.02
591.602	0.13
591.793	0.12
591.984	0.07
592.174	0.08
592.365	0.17
592.555	0.08
592.746	0.11
592.936	0.1
593.127	0.11
593.317	0.14
593.508	0.1
593.698	0.08
593.889	0.1
594.079	0.08
594.269	0.05
594.46	0.11
594.65	0.09
594.84	0.08
595.031	0.07
595.221	0.11
595.411	0.08
595.602	0.15
595.792	0.12
595.982	0.09
596.172	0.16
596.363	0.1
596.553	0.13
596.743	0.12
596.933	0.1
597.123	0.16
597.314	0.11
597.504	0.09
597.694	0.15
597.884	0.14
598.074	0.11
598.264	0.12
598.454	0.15
598.644	0.13
598.834	0.12
599.024	0.11
599.214	0.14
599.404	0.18
599.594	0.11
599.784	0.11
599.974	0.17
600.164	0.15
600.354	0.11
600.544	0.11
600.734	0.17
600.924	0.19
601.114	0.14
601.303	0.19
601.493	0.16
601.683	0.14
601.873	0.17
602.063	0.1
602.252	0.21
602.442	0.11
602.632	0.16
602.821	0.15
603.011	0.19
603.201	0.21
603.39	0.15
603.58	0.14
603.77	0.21
603.959	0.22
604.149	0.21
604.339	0.2
604.528	0.27
604.718	0.23
604.907	0.2
605.097	0.2
605.286	0.19
605.476	0.24
605.665	0.24
605.855	0.22
606.044	0.25
606.234	0.27
606.423	0.21
606.612	0.22
606.802	0.25
606.991	0.3
607.181	0.29
607.37	0.21
607.559	0.25
607.749	0.25
607.938	0.29
608.127	0.27
608.316	0.27
608.506	0.3
608.695	0.31
608.884	0.27
609.073	0.33
609.263	0.32
609.452	0.35
609.641	0.34
609.83	0.31
610.019	0.32
610.208	0.28
610.397	0.34
610.586	0.39
610.775	0.35
610.965	0.35
611.154	0.38
611.343	0.36
611.532	0.36
611.721	0.37
611.91	0.38
612.099	0.45
612.287	0.4
612.476	0.37
612.665	0.44
612.854	0.4
613.043	0.46
613.232	0.43
613.421	0.4
613.61	0.47
613.798	0.46
613.987	0.52
614.176	0.5
614.365	0.53
614.554	0.55
614.742	0.55
614.931	0.49
615.12	0.6
615.309	0.52
615.497	0.57
615.686	0.53
615.875	0.58
616.063	0.61
616.252	0.6
616.44	0.61
616.629	0.65
616.818	0.69
617.006	0.66
617.195	0.66
617.383	0.7
617.572	0.7
617.76	0.69
617.949	0.71
618.137	0.77
618.326	0.81
618.514	0.71
618.703	0.73
618.891	0.86
619.079	0.75
619.268	0.87
619.456	0.78
619.644	0.94
619.833	0.85
620.021	0.87
620.209	0.87
620.398	0.95
620.586	0.95
620.774	0.99
620.962	0.94
621.151	1.04
621.339	1
621.527	1.03
621.715	1.01
621.903	1.04
622.092	1.1
622.28	1.14
622.468	1.08
622.656	1.15
622.844	1.15
623.032	1.21
623.22	1.14
623.408	1.3
623.596	1.26
623.784	1.34
623.972	1.3
624.16	1.36
624.348	1.42
624.536	1.41
624.724	1.4
624.912	1.44
625.1	1.53
625.288	1.47
625.476	1.47
625.664	1.61
625.851	1.55
626.039	1.67
626.227	1.63
626.415	1.66
626.603	1.62
626.79	1.8
626.978	1.81
627.166	1.85
627.354	1.84
627.541	1.82
627.729	1.81
627.917	2.02
628.104	1.93
628.292	2.01
628.48	2.11
628.667	2.07
628.855	2.19
629.042	2.22
629.23	2.23
629.418	2.25
629.605	2.33
629.793	2.31
629.98	2.34
630.168	2.39
630.355	2.46
630.543	2.51
630.73	2.49
630.917	2.58
631.105	2.69
631.292	2.68
631.48	2.7
631.667	2.87
631.854	2.79
632.042	2.91
632.229	2.87
632.416	2.95
632.604	3.01
632.791	3.01
632.978	3.13
633.165	3.19
633.353	3.28
633.54	3.31
633.727	3.24
633.914	3.37
634.101	3.37
634.289	3.51
634.476	3.51
634.663	3.61
634.85	3.59
635.037	3.69
635.224	3.72
635.411	3.87
635.598	3.91
635.785	3.93
635.972	3.96
636.159	4.06
636.346	4.11
636.533	4.16
636.72	4.27
636.907	4.31
637.094	4.37
637.281	4.29
637.468	4.44
637.655	4.57
637.842	4.59
638.029	4.68
638.215	4.7
638.402	4.84
638.589	4.85
638.776	4.96
638.963	5.03
639.149	5.17
639.336	5.27
639.523	5.29
639.709	5.41
639.896	5.45
640.083	5.47
640.27	5.7
640.456	5.77
640.643	5.76
640.829	5.78
641.016	5.98
641.203	6
641.389	6.2
641.576	6.31
641.762	6.29
641.949	6.42
642.135	6.49
642.322	6.63
642.508	6.65
642.695	6.87
642.881	6.84
643.068	6.99
643.254	7.19
643.441	7.31
643.627	7.51
643.813	7.43
644	7.7
644.186	7.64
644.372	7.92
644.559	8.01
644.745	8.04
644.931	8.24
645.118	8.41
645.304	8.52
645.49	8.67
645.676	8.74
645.862	8.91
646.049	9.22
646.235	9.28
646.421	9.58
646.607	9.81
646.793	9.7
646.979	9.69
647.165	10.08
647.352	10.2
647.538	10.24
647.724	10.46
647.91	10.63
648.096	10.91
648.282	11.08
648.468	11.14
648.654	11.42
648.84	11.51
649.026	11.79
649.212	11.77
649.397	11.98
649.583	12.26
649.769	12.45
649.955	12.65
650.141	13.05
650.327	13.06
650.513	13.36
650.698	13.57
650.884	13.59
651.07	14.02
651.256	13.99
651.442	14.43
651.627	14.21
651.813	14.93
651.999	14.76
652.184	14.98
652.37	15.39
652.556	15.62
652.741	15.79
652.927	15.65
653.113	16.14
653.298	16.38
653.484	16.65
653.669	16.9
653.855	16.97
654.04	17.29
654.226	17.46
654.412	17.65
654.597	17.7
654.782	18.04
654.968	18.13
655.153	18.46
655.339	18.62
655.524	18.73
655.71	19.09
655.895	19.3
656.08	19.51
656.266	19.8
656.451	19.74
656.636	19.92
656.822	20.06
657.007	20.43
657.192	20.5
657.378	20.69
657.563	20.5
657.748	20.83
657.933	21.23
658.118	20.72
658.304	21.32
658.489	21.6
658.674	21.42
658.859	21.42
659.044	21.41
659.229	21.71
659.414	21.89
659.599	21.68
659.785	21.59
659.97	21.67
660.155	21.59
660.34	21.9
660.525	21.58
660.71	21.48
660.895	21.56
661.08	21.31
661.264	20.9
661.449	20.79
661.634	20.41
661.819	20.64
662.004	19.94
662.189	19.72
662.374	19.71
662.559	19.08
662.743	18.73
662.928	18.64
663.113	18.05
663.298	17.88
663.483	17.5
663.667	16.99
663.852	16.91
664.037	16.43
664.221	16.18
664.406	15.65
664.591	15.13
664.775	14.68
664.96	14.33
665.145	13.75
665.329	13.67
665.514	13.13
665.698	12.54
665.883	12.2
666.068	12.03
666.252	11.71
666.437	11.11
666.621	10.74
666.806	10.43
666.99	10
667.174	9.73
667.359	9.46
667.543	9.02
667.728	8.88
667.912	8.37
668.096	8.15
668.281	7.87
668.465	7.64
668.649	7.41
668.834	7.02
669.018	6.95
669.202	6.76
669.387	6.38
669.571	6.28
669.755	5.91
669.939	5.71
670.124	5.59
670.308	5.41
670.492	5.31
670.676	5.01
670.86	4.84
671.044	4.69
671.228	4.65
671.413	4.39
671.597	4.21
671.781	4.13
671.965	4.02
672.149	3.87
672.333	3.76
672.517	3.64
672.701	3.48
672.885	3.44
673.069	3.18
673.253	3.23
673.437	3.11
673.621	3.01
673.804	2.93
673.988	2.78
674.172	2.68
674.356	2.57
674.54	2.55
674.724	2.56
674.908	2.4
675.091	2.36
675.275	2.26
675.459	2.27
675.643	2.17
675.826	2.07
676.01	1.98
676.194	1.93
676.377	1.97
676.561	1.91
676.745	1.78
676.928	1.71
677.112	1.68
677.296	1.59
677.479	1.52
677.663	1.41
677.846	1.51
678.03	1.43
678.213	1.34
678.397	1.34
678.58	1.3
678.764	1.23
678.947	1.2
679.131	1.18
679.314	1.19
679.498	1.16
679.681	1.09
679.865	1.19
680.048	0.98
680.231	0.96
680.415	0.96
680.598	0.97
680.781	0.87
680.965	0.92
681.148	0.87
681.331	0.8
681.514	0.87
681.698	0.81
681.881	0.79
682.064	0.78
682.247	0.76
682.43	0.63
682.614	0.72
682.797	0.72
682.98	0.68
683.163	0.63
683.346	0.64
683.529	0.6
683.712	0.57
683.895	0.63
684.078	0.51
684.261	0.53
684.444	0.59
684.627	0.55
684.81	0.55
684.993	0.49
685.176	0.56
685.359	0.43
685.542	0.48
685.725	0.54
685.908	0.47
686.091	0.42
686.274	0.53
686.457	0.43
686.639	0.4
686.822	0.43
687.005	0.43
687.188	0.4
687.371	0.47
687.553	0.41
687.736	0.4
687.919	0.39
688.102	0.47
688.284	0.38
688.467	0.36
688.65	0.33
688.832	0.33
689.015	0.32
689.197	0.3
689.38	0.39
689.563	0.39
689.745	0.29
689.928	0.29
690.11	0.27
690.293	0.32
690.475	0.26
690.658	0.3
690.84	0.29
691.023	0.25
691.205	0.25
691.388	0.23
691.57	0.28
691.752	0.23
691.935	0.18
692.117	0.22
692.3	0.24
692.482	0.28
692.664	0.26
692.847	0.25
693.029	0.31
693.211	0.26
693.393	0.26
693.576	0.19
693.758	0.26
693.94	0.17
694.122	0.21
694.304	0.21
694.487	0.17
694.669	0.31
694.851	0.15
695.033	0.19
695.215	0.18
695.397	0.21
695.579	0.22
695.761	0.14
695.943	0.07
696.125	0.22
696.308	0.22
696.49	0.03
696.671	0.3
696.853	0.18
697.035	0.32
697.217	0.17
697.399	0.2
697.581	0.14
697.763	0.16
697.945	0.1
698.127	0.16
698.309	0.1
698.491	0.19
698.672	0.11
698.854	0.19
699.036	0.24
699.218	0.11
699.399	0.17
699.581	0.2
699.763	0.18
699.945	0.14
700.126	0.14
700.308	0.14
700.49	0.21
700.671	0.08
700.853	0.08
701.035	0.11
701.216	0.13
701.398	0.14
701.579	0.17
701.761	0.15
701.943	0.09
702.124	0.14
702.306	0.11
702.487	0.27
702.669	0.17
702.85	0.11
703.031	0.04
703.213	0.27
703.394	0.16
703.576	0.1
703.757	0.19
703.938	0.13
704.12	0.25
704.301	0.13
704.483	0.11
704.664	0.1
704.845	0.24
705.026	0.15
705.208	0.13
705.389	0.13
705.57	0.2
705.751	0.17
705.933	0.17
706.114	0.17
706.295	0.11
706.476	0.08
706.657	0.19
706.838	0.14
707.02	0.14
707.201	0.11
707.382	0.12
707.563	0.14
707.744	0.14
707.925	0.06
708.106	0.08
708.287	0.2
708.468	0.26
708.649	0.1
708.83	0.11
709.011	0.13
709.192	0.11
709.373	0.05
709.554	0.12
709.734	0.15
709.915	0.16
710.096	0.1
710.277	0.02
710.458	0.13
710.639	0.18
710.819	0.01
711	0.05
711.181	0.24
711.362	0.17
711.542	0.12
711.723	0.11
711.904	0.21
712.085	0.18
712.265	0.09
712.446	0.09
712.627	0.18
712.807	0.12
712.988	0.12
713.168	0.04
713.349	0.12
713.53	0.01
713.71	-0.01
713.891	0.09
714.071	0.12
714.252	0.03
714.432	0.1
714.613	0.06
714.793	0.08
714.974	0.13
715.154	0.19
715.334	0.12
715.515	0.22
715.695	-0.01
715.876	0.08
716.056	0.12
716.236	0.04
716.417	0.08
716.597	0
716.777	0.31
716.957	0.09
717.138	0.13
717.318	0.11
717.498	0.04
717.678	0.15
717.859	0.11
718.039	0.09
718.219	0.14
718.399	0.16
718.579	0.04
718.759	-0.02
718.939	0.1
719.12	0.13
719.3	0.18
719.48	-0.01
719.66	-0
719.84	0.16
720.02	0.09
720.2	0.05
720.38	0.15
720.56	0.16
720.74	0.1
720.92	0.12
721.1	0.17
721.279	0.17
721.459	0.11
721.639	-0.01
721.819	0.13
721.999	0.1
722.179	0.13
722.359	0.03
722.538	0.15
722.718	0.09
722.898	0.05
723.078	0.09
723.257	0.07
723.437	0.06
723.617	0.12
723.797	0.11
723.976	0.12
724.156	0.13
724.336	0.12
724.515	0.14
724.695	-0.06
724.874	0.19
725.054	0.18
725.234	-0.02
725.413	0.16
725.593	0.04
725.772	0.06
725.952	0.08
726.131	0.04
726.311	0.1
726.49	0.08
726.67	0.07
726.849	0.06
727.028	0.2
727.208	0.12
727.387	0.14
727.567	-0.01
727.746	0.16
727.925	0.05
728.105	-0.01
728.284	0.07
728.463	-0.19
728.643	0.18
728.822	0.04
729.001	0.05
729.18	0.1
729.359	0.19
729.539	0.07
729.718	0.12
729.897	0.01
730.076	0.12
730.255	0.03
730.434	0.12
730.614	0.09
730.793	0.21
730.972	0.13
731.151	0.09
731.33	0.21
731.509	0.1
731.688	0.13
731.867	0.11
732.046	-0.06
732.225	0.26
732.404	0.11
732.583	-0.01
732.762	0.16
732.941	0.15
733.12	0.17
733.298	0.16
733.477	0.18
733.656	0.07
733.835	0.05
734.014	0.18
734.193	0.02
734.371	0.12
734.55	0.19
734.729	-0.04
734.908	0.12
735.086	0.13
735.265	0.14
735.444	-0.14
735.623	0.01
735.801	0.11
735.98	0.19
736.159	0.03
736.337	0.18
736.516	0.15
736.694	0.05
736.873	0.04
737.052	0.28
737.23	0.17
737.409	0.05
737.587	0.22
737.766	-0
737.944	-0.08
738.123	0.21
738.301	0.16
738.479	0.12
738.658	0.19
738.836	-0
739.015	0.1
739.193	0.26
739.371	-0.04
739.55	0.08
739.728	-0.03
739.906	0.25
740.085	0.26
740.263	0
740.441	-0.06
740.62	0.27
740.798	0.29
740.976	0.03
741.154	-0.04
741.332	0.32
741.511	0.04
741.689	0.12
741.867	0.18
742.045	0.08
742.223	0.06
742.401	0.02
742.579	0.03
742.757	0.16
742.935	0.07
743.114	0.09
743.292	0.04
743.47	0.15
743.648	0.13
743.826	0.11
744.004	0.18
744.181	0.16
744.359	0.09
744.537	0.1
744.715	0.01
744.893	0.05
745.071	0.11
745.249	0.1
745.427	0.07
745.605	0.14
745.782	0.07
745.96	0.23
746.138	0.08
746.316	0.12
746.493	0.04
746.671	0.08
746.849	0.1
747.027	0.13
747.204	-0.08
747.382	0.14
747.56	-0.01
747.737	-0.01
747.915	0.02
748.093	0.12
748.27	0.05
748.448	0.18
748.625	-0.02
748.803	-0.04
748.98	0.06
749.158	0.17
749.335	0.18
749.513	0.03
749.69	0.06
749.868	0.18
750.045	0.14
750.223	0.05
750.4	-0.13
750.578	0.33
750.755	0.03
750.932	0.07
751.11	0.15
751.287	0.02
751.464	0.2
751.642	0.02
751.819	0.21
751.996	0.17
752.173	-0.04
752.351	-0.02
752.528	0.12
752.705	0.06
752.882	0.04
753.06	0.14
753.237	0.23
753.414	0.22
753.591	0.27
753.768	0.11
753.945	-0.02
754.122	0.09
754.299	0.18
754.476	0.04
754.654	0.13
754.831	0.07
755.008	0.11
755.185	0.06
755.362	-0.04
755.539	0.17
755.716	-0.01
755.892	-0.01
756.069	0.06
756.246	0.02
756.423	0.05
756.6	0.2
756.777	0.09
756.954	0.14
757.131	0.1
757.307	-0.01
757.484	-0.03
757.661	0.06
757.838	0.21
758.015	-0.11
758.191	0.17
758.368	0.14
758.545	0.21
758.721	0.15
758.898	-0
759.075	0.11
759.251	0.22
759.428	0.23
759.605	0.04
759.781	0.06
759.958	0.15
760.134	0.19
760.311	-0.07
760.488	0.21
760.664	0.21
760.841	0.13
761.017	-0.02
761.194	0.2
761.37	0.18
761.547	0.09
761.723	0.18
761.899	0.18
762.076	-0.04
762.252	0.06
762.429	0.03
762.605	0.09
762.781	0.03
762.958	0.16
763.134	0.21
763.31	-0.04
763.486	0.19
763.663	-0.13
763.839	0.12
764.015	-0.09
764.191	-0.11
764.368	0.13
764.544	0.01
764.72	0.12
764.896	0.15
765.072	-0.02
765.248	0.05
765.425	0.1
765.601	0.04
765.777	0.12
765.953	-0.15
766.129	0.04
766.305	0.01
766.481	0.21
766.657	0.14
766.833	0.15
767.009	0.02
767.185	0
767.361	0.14
767.537	-0.05
767.713	0.21
767.889	0.08
768.065	0.06
768.24	-0.06
768.416	0.17
768.592	-0
768.768	0.06
768.944	0.15
769.12	-0.08
769.295	0.02
769.471	0.1
769.647	-0.03
769.823	0.24
769.998	0.02
770.174	0.07
770.35	0.5
770.525	0.32
770.701	0.11
770.877	0.06
771.052	0.13
771.228	0.15
771.403	0.24
771.579	0.09
771.755	0.38
771.93	0.04
772.106	0.03
772.281	-0.09
772.457	0.08
772.632	0.2
772.808	-0.07
772.983	0.01
773.159	-0.05
773.334	0.16
773.509	0.21
773.685	-0.07
773.86	0.38
774.036	0.21
774.211	0.07
774.386	-0.05
774.562	0.13
774.737	0.01
774.912	-0.06
775.087	0.13
775.263	0.15
775.438	0.14
775.613	-0.06
775.788	0.03
775.964	0.32
776.139	0.56
776.314	0
776.489	0.17
776.664	0.16
776.839	0.03
777.014	0.2
777.19	-0.01
777.365	0.27
777.54	0.32
777.715	0.07
777.89	0.04
778.065	0.02
778.24	0.09
778.415	0.12
778.59	0
778.765	0.12
778.94	0.23
779.115	0.16
779.289	0.15
779.464	0.13
779.639	0.1
779.814	-0.1
779.989	0.1
780.164	0.38
780.339	0.08
780.513	-0.03
780.688	-0.07
780.863	0.3
781.038	0.24
781.212	-0.08
781.387	0.01
781.562	0.31
781.737	-0.02
781.911	0.46
782.086	0.01
782.261	0.04
782.435	0.36
782.61	0.01
782.784	0.09
782.959	0.24
783.134	0.11
783.308	-0.08
783.483	0.09
783.657	0.46
783.832	0.16
784.006	-0.4
784.181	0.03
784.355	0.18
784.53	-0.01
784.704	-0.04
784.878	0.32
785.053	0.22
785.227	0.23
785.402	0.54
785.576	-0.05
785.75	0.16
785.925	0.05
786.099	0.41
786.273	0.09
786.448	0.29
786.622	0.38
786.796	0.24
786.97	0.15
787.145	0.61
787.319	-0.14
787.493	-0.01
787.667	-0.26
787.841	0.16
788.015	0.32
788.19	-0.1
788.364	0.13
788.538	0.29
788.712	0.2
788.886	0.13
789.06	0.43
789.234	0.45
789.408	-0.08
789.582	0.16
789.756	0.21
789.93	0.02
790.104	0.16
790.278	-0.09
790.452	0
790.626	0.24
790.8	0.01
790.973	0.42
791.147	0.3
791.321	0.49
791.495	0.27
791.669	0.23
791.843	0.07
792.016	0.2
792.19	0.33
792.364	-0.06
792.538	0.53
792.711	0.42
792.885	0.04
793.059	-0.16
793.233	-0.44
793.406	0.47
793.58	0.16
793.754	-0.02
793.927	0.11
794.101	0.29
794.274	0.15
794.448	0.29
794.622	-0.01
794.795	0.11
794.969	0
795.142	0.29
795.316	-0.02
795.489	0.05
795.663	0.24
795.836	0.26
796.009	0.01
796.183	0.36
796.356	0.43
796.53	0.24
796.703	0.21
796.876	0.78
797.05	-0.03
797.223	0.11
797.396	0.11
797.57	0.19
797.743	0.45
797.916	0.25
798.09	0.34
798.263	0.36
798.436	0.01
798.609	0.26
798.782	0.04
798.956	0.45
799.129	0.25
799.302	0.01
799.475	0.11
799.648	-0.11
799.821	-0.09
799.994	0.2
800.167	-0.35
800.34	0.07
800.514	0.22
800.687	-0.01
800.86	0.09
801.033	0.37
801.206	0.32
801.379	0.1
801.551	0.54
801.724	0.18
801.897	0.78
802.07	0.23
802.243	-0.23
802.416	0.11
802.589	0.13
802.762	0.29
802.935	0.14
803.107	0.23
803.28	0.59
803.453	0.13
803.626	-0
803.798	0.17
803.971	0.12
804.144	0.35
804.317	0.36
804.489	0.43
804.662	0.1
804.835	0.21
805.007	-0.19
805.18	0.67
805.353	0.43
805.525	0.02
805.698	0.14
805.87	0.43
806.043	0.51
806.215	0.07
806.388	-0.14
806.56	0.29
806.733	0.36
806.905	0.27
807.078	0.38
807.25	0.08
807.423	0.42
807.595	0.06
807.768	0.33
807.94	0.59
808.112	0.53
808.285	0
808.457	-0.19
808.629	0.17
808.802	0.83
808.974	-0.26
809.146	-0.24
809.318	0.03
809.491	-0.01
809.663	0.37
809.835	0.02
810.007	0.44
810.18	0.25
810.352	0.23
810.524	0.19
810.696	0.3
810.868	0.44
811.04	0
811.212	-0.03
811.384	0.48
811.556	0.23
811.728	0.16
811.901	0.82
812.073	-0.06
812.245	0.42
812.417	0.61
812.589	-0.51
812.76	0.07
812.932	0.53
813.104	0.26
813.276	0.37
813.448	0.49
813.62	0.03
813.792	0.16
813.964	-0.01
814.136	0.3
814.307	0.12
814.479	-0.22
814.651	0.17
814.823	0.89
814.995	0.56
815.166	0.41
815.338	0.27
815.51	-0.24
815.681	0.6
815.853	0.45
816.025	0.12
816.196	0.53
816.368	0.53
816.54	-0.28
816.711	-0.07
816.883	0.75
817.054	1
817.226	-0.41
817.398	0.85
817.569	-0.22
817.741	0.25
817.912	0.16
818.084	0.25
818.255	0.39
818.426	0.02
818.598	0.17
818.769	0.2
818.941	0.24
819.112	0.79
819.283	0.6
819.455	-0.14
819.626	0.45
819.798	0.59
819.969	0.13
820.14	0.33
820.311	-0.03
820.483	0.11
820.654	0.34
820.825	0.55
820.996	0.11
821.168	-0.08
821.339	-0.06
821.51	0.06
821.681	0.15
821.852	0.12
822.023	0.32
822.195	-0.27
822.366	0.43
822.537	-0.34
822.708	0.31
822.879	-0.12
823.05	1.19
823.221	-0.09
823.392	0.5
823.563	0.51
823.734	0.64
823.905	0.58
824.076	0.48
824.247	0.49
824.418	0.32
824.589	0.84
824.759	0.73
824.93	-0.11
825.101	-0.07
825.272	0.83
825.443	0.85
825.614	0.71
825.784	-0.63
825.955	1.45
826.126	0.52
826.297	0.89
826.467	1.27
826.638	1.25
826.809	-0.44
826.98	0.25
827.15	1.18
827.321	0.05
827.492	0.64
827.662	0.2
827.833	1.15
828.003	0.73
828.174	-0.46
828.345	-0.31
828.515	0.76
828.686	0.15
828.856	-0.25
829.027	0.5
829.197	0.5
829.368	0.52
829.538	0.13
829.709	0.1
829.879	0.74
830.049	0.46
830.22	-0.08
830.39	0.85
830.56	0.52
830.731	0.36
830.901	0
831.072	0.27
831.242	0.53
831.412	0.29
831.582	0.67
831.753	0.45
831.923	1.13
832.093	0.03
832.263	0.57
832.434	0.13
832.604	0.15
832.774	0.59
832.944	0.87
833.114	0.17
833.284	0.19
833.454	-0.5
833.624	-0.44
833.795	0.11
833.965	1.22
834.135	0.58
834.305	-0.35
834.475	-0.17
834.645	0.17
834.815	-0.4
834.985	-0.02
835.155	0.12
835.325	0.31
835.494	0.71
835.664	-0.19
835.834	-0.31
836.004	0.8
836.174	1.12
836.344	0.16
836.514	-0.41
836.684	0.25
836.853	1.31
837.023	0.37
837.193	-0.28
837.363	0.79
837.532	1.53
837.702	0.59
837.872	-0.18
838.041	1.16
838.211	1.98
838.381	-0.23
838.55	0.84
838.72	2.08
838.89	1.62
839.059	0.34
839.229	-0.22
839.398	1.15
839.568	0.68
839.738	0.31
839.907	1.49
840.077	0.6
840.246	0.12
840.416	0.02
840.585	-0.53
840.755	1.94
840.924	1.21
841.093	0.04
841.263	0.54
841.432	1
841.602	-0.54
841.771	0.13
841.94	0.91
842.11	1.99
842.279	2.3
842.448	-0.58
842.617	0.75
842.787	1.04
842.956	-0.34
843.125	0.33
843.294	0.6
843.464	1.38
843.633	0.39
843.802	-0.42
843.971	0.42
844.14	1.34
844.309	0.72
844.479	-0.79
844.648	-0.46
844.817	-0.12
844.986	0.77
845.155	0.64
845.324	0.21
845.493	0
845.662	-0.32
845.831	1.23
846	0.32
846.169	0.17
846.338	1.6
846.507	1.15
846.676	0.85
846.844	0.12
847.013	1.18
847.182	-0.18
847.351	0.6
847.52	0.42
847.689	0.59
847.858	-0.66
848.026	0.06
848.195	0.62
848.364	0.56
848.533	0.15
848.701	-0.12
848.87	0.01
849.039	0.95
849.207	1.6
849.376	1.07
849.545	0.9
849.713	0.93
849.882	0.43
850.051	0.77
850.219	0.03
850.388	0.73
850.556	-0.29
850.725	1.05
850.893	1.03
851.062	-0.09
851.23	0.59
851.399	-1.4
851.567	-0.66
851.736	0.53
851.904	-0.68
852.073	1.29
852.241	0.76
852.41	0.63
852.578	0.71
852.746	0.42
852.915	0.57
853.083	-0.06
853.251	-0.9
853.42	-0.29
853.588	1.17
853.756	1.18
853.924	0.29
854.093	0.08
854.261	0.29
854.429	-0.56
854.597	0.51
854.765	-0.04
854.934	-0.08
855.102	2.21
855.27	0.7
855.438	0.21
855.606	1.3
855.774	0.7
855.942	-0.94
856.11	-0.74
856.278	-0.14
856.446	1.73
856.614	1.07
856.782	0.58
856.95	1.48
857.118	1.43
857.286	0.93
857.454	0.37
857.622	1.14
857.79	0.76
857.958	-0.77
858.126	-0.61
858.294	-2.46
858.462	0.83
858.629	0.5
858.797	-0.66
858.965	1.03
859.133	-0.25
859.301	-0.67
859.468	0.88
859.636	0.2
859.804	2.75
859.971	1.01
860.139	-0.47
860.307	1.82
860.474	0.88
860.642	0.05
860.81	-0.6
860.977	-0.38
861.145	1.12
861.313	0.01
861.48	1.34
861.648	1.33
861.815	0.73
861.983	-0.73
862.15	0.47
862.318	0.51
862.485	0.99
862.653	-0.77
862.82	-0.3
862.988	1.37
863.155	2.26
863.322	0.31
863.49	0.58
863.657	0.25
863.824	2.19
863.992	2.14
864.159	1.72
864.326	0.86
864.494	0.07
864.661	3.29
864.828	-0.37
864.996	1.53
865.163	3.23
865.33	-1.52
865.497	-2.4
865.664	0.49
865.832	-0.81
865.999	0.86
866.166	-0.13
866.333	1
866.5	1.11
866.667	1.2
866.834	0.41
867.001	1.42
867.168	-0.19
867.335	-0.15
867.502	-3.24
867.669	1.53
867.836	0.94
868.003	1.25
868.17	2.31
868.337	-0.34
868.504	2.5
868.671	0.23
868.838	0.03
869.005	1.38
869.172	1.4
869.339	-1.13
869.505	-0.28
869.672	0.22
869.839	3.34
870.006	1.13
870.173	-0.38
870.339	3.88
870.506	3.43
870.673	0.13
870.84	2.18
871.006	1.02
871.173	0.78
871.34	2.35
871.506	-1.35
871.673	1.3
871.839	-2.53
872.006	1.43
872.173	0.58
872.339	1.04
872.506	2.22
872.672	1.53
872.839	-1.03
873.005	0.32
873.172	3.94
873.338	1.62
873.505	0.19
873.671	0.29
873.838	2.15
874.004	-1.27
874.171	0.31
874.337	2.04
874.503	2.46
874.67	2.1
874.836	0.04
875.002	3.35
875.169	2.9
875.335	1.08
875.501	0.62
875.668	1.94
875.834	0.92
876	0.59
876.166	3.18
876.332	0.47
876.499	3.79
876.665	0.76
876.831	0.53
876.997	4.1
877.163	1.34
877.329	0.29
877.495	0.17
877.662	1.56
877.828	1.83
877.994	0.72
878.16	-1.2
878.326	0.02
878.492	-0.92
878.658	1
878.824	0.19
878.99	2.77
879.156	3.54
879.322	2.73
879.487	0.17
879.653	0.47
879.819	-0.99
879.985	-0.13
880.151	1.34
880.317	1.63
880.483	0.15
880.648	1.74
880.814	-2.76
880.98	1.69
881.146	-3.9
881.312	0.47
881.477	0.88
881.643	2.43
881.809	2.69
881.974	1.99
882.14	-0.52
882.306	0.94
882.471	2.68
882.637	0.19
882.803	1.26
882.968	3.01
883.134	4.25
883.299	1.05
883.465	-0.19
883.63	2.86
883.796	1.23
883.961	2.43
884.127	1.04
884.292	-3.23
884.458	-1.36
884.623	-1.36
