Data from Apollo_Calib_20240827__AbsoluteIrradiance__344__04-53-03-180.txt Node

Date: Wed Aug 28 04:53:03 BST 2024
User: biology
Spectrometer: FLMT08252
Trigger mode: 0
Integration Time (sec): 5.000000E-1
Scans to average: 5
Electric dark correction enabled: true
Nonlinearity correction enabled: false
Boxcar width: 0
XAxis mode: Wavelengths
Number of Pixels in Spectrum: 3648
>>>>>Begin Spectral Data<<<<<
179.588	-0
179.809	-0
180.03	-0
180.251	-0
180.473	-0
180.694	0
180.915	0
181.136	-0
181.357	-0
181.578	-0
181.799	0
182.02	-0
182.241	-0
182.462	-0
182.683	0
182.904	-0
183.125	-0
183.346	-0
183.567	0
183.788	-0
184.009	-0
184.23	0
184.451	0
184.672	-0
184.892	-0
185.113	0
185.334	0
185.555	0
185.776	0
185.996	0
186.217	0
186.438	0
186.659	-0
186.879	0
187.1	0
187.321	-0
187.541	-0
187.762	0
187.983	0
188.203	0
188.424	-0
188.644	-0
188.865	0
189.086	-0
189.306	-0
189.527	0
189.747	0
189.968	-0
190.188	0
190.409	0
190.629	0
190.849	0
191.07	0
191.29	0
191.511	0
191.731	-0
191.951	-0
192.172	0
192.392	-0
192.612	0
192.833	0
193.053	0
193.273	0
193.493	-0
193.714	-0
193.934	0
194.154	0
194.374	0
194.594	0
194.815	0
195.035	0
195.255	0
195.475	-0
195.695	0
195.915	0
196.135	-0
196.355	0
196.575	0
196.795	0
197.015	-0
197.235	-0
197.455	0
197.675	0
197.895	-0
198.115	-0
198.335	0
198.555	0
198.775	-0
198.995	0
199.214	0
199.434	0
199.654	-0
199.874	-0
200.094	1.1
200.313	-0.24
200.533	-0.01
200.753	-0.73
200.973	1.21
201.192	1.18
201.412	-0.41
201.632	0.22
201.851	1.08
202.071	-0.03
202.291	-0.31
202.51	-0.14
202.73	0.83
202.95	0.07
203.169	-0.46
203.389	0.19
203.608	-0.04
203.828	0.06
204.047	-0.2
204.267	0.74
204.486	0.51
204.706	0.59
204.925	-0.02
205.145	-0.19
205.364	0.77
205.583	0.45
205.803	-0.05
206.022	-0.38
206.242	0.37
206.461	-0.05
206.68	-0.24
206.9	0.29
207.119	0.89
207.338	0.89
207.557	-0.19
207.777	0.16
207.996	0.18
208.215	0.86
208.434	-0
208.654	-0.22
208.873	0.01
209.092	0.38
209.311	-0.01
209.53	0.1
209.749	0.09
209.968	-0.11
210.187	0.27
210.407	-0.31
210.626	0.06
210.845	0.59
211.064	0.32
211.283	-0.03
211.502	0.59
211.721	-0.19
211.94	0
212.159	0.36
212.377	0.28
212.596	0.58
212.815	0.11
213.034	0.21
213.253	0.41
213.472	0.38
213.691	-0.06
213.91	-0.2
214.128	-0.17
214.347	0.53
214.566	-0.26
214.785	-0.15
215.003	0.42
215.222	0.32
215.441	0.26
215.66	-0.22
215.878	0.21
216.097	0.34
216.316	-0.17
216.534	0.11
216.753	0.21
216.972	0.17
217.19	0.12
217.409	-0.17
217.627	0.03
217.846	0.03
218.064	0.23
218.283	0.13
218.501	0.53
218.72	0.29
218.938	-0.1
219.157	-0.06
219.375	0.31
219.594	0.21
219.812	-0.02
220.031	-0.04
220.249	0.43
220.467	0.45
220.686	-0.06
220.904	-0.12
221.122	-0.04
221.341	0.49
221.559	0.13
221.777	-0.02
221.995	0.15
222.214	0.17
222.432	0.04
222.65	0.22
222.868	0.18
223.086	0.19
223.305	0.24
223.523	0.19
223.741	0.35
223.959	0.14
224.177	-0.13
224.395	-0.08
224.613	0.23
224.831	0.33
225.049	-0.17
225.267	-0.11
225.485	-0.01
225.703	-0.05
225.921	-0.06
226.139	-0.02
226.357	0.19
226.575	0.17
226.793	-0.17
227.011	0.53
227.229	0.24
227.447	0.28
227.665	-0.06
227.883	-0.16
228.1	0.12
228.318	0.16
228.536	-0.21
228.754	-0
228.972	0.15
229.189	0.23
229.407	-0.07
229.625	0.01
229.843	0.3
230.06	0.19
230.278	0.04
230.496	0.03
230.713	0.24
230.931	0.22
231.149	-0.04
231.366	-0.02
231.584	0.15
231.801	0.42
232.019	0.01
232.236	-0.04
232.454	-0.04
232.671	0.13
232.889	0.02
233.106	-0.14
233.324	0
233.541	0.05
233.759	0.08
233.976	-0.07
234.194	0.13
234.411	0.02
234.628	0.06
234.846	0.08
235.063	0.05
235.28	0.13
235.498	0.01
235.715	0.02
235.932	0.24
236.149	0.17
236.367	-0.04
236.584	0.17
236.801	-0.03
237.018	0.18
237.236	0.04
237.453	-0.06
237.67	0.07
237.887	0.08
238.104	0.09
238.321	0.08
238.538	-0.09
238.755	0.24
238.973	-0.14
239.19	0.03
239.407	0.09
239.624	0.04
239.841	-0.08
240.058	0.04
240.275	0.11
240.492	0.04
240.709	0.09
240.925	0.04
241.142	0.13
241.359	-0.08
241.576	-0.01
241.793	0.03
242.01	0.04
242.227	0.2
242.444	0.18
242.66	0.13
242.877	0.09
243.094	0.06
243.311	0.11
243.527	0.02
243.744	0.1
243.961	0.19
244.178	-0.03
244.394	-0.08
244.611	0.18
244.828	0.27
245.044	-0.03
245.261	0.03
245.477	0.07
245.694	0.14
245.911	-0
246.127	0.07
246.344	0.27
246.56	0.12
246.777	0.02
246.993	0.07
247.21	0.13
247.426	0.16
247.643	0.01
247.859	-0.03
248.076	0.05
248.292	0.22
248.508	-0.03
248.725	0.04
248.941	0.06
249.157	0.18
249.374	-0.02
249.59	0.06
249.806	0.13
250.023	0.24
250.239	-0.03
250.455	0.06
250.671	0.04
250.888	0.04
251.104	0.13
251.32	-0.02
251.536	0.05
251.752	0.01
251.969	0.07
252.185	0.02
252.401	0.26
252.617	0.04
252.833	-0.01
253.049	-0.02
253.265	0.05
253.481	0.04
253.697	0.06
253.913	0.04
254.129	0.16
254.345	0.06
254.561	0.03
254.777	-0.05
254.993	0.14
255.209	0.08
255.425	0.03
255.641	0.02
255.857	0.11
256.073	0.05
256.288	-0.11
256.504	0.01
256.72	0.16
256.936	0.24
257.152	0.06
257.367	-0.01
257.583	0.03
257.799	0.09
258.015	-0.01
258.23	-0.02
258.446	0.17
258.662	0.05
258.877	0.01
259.093	-0.07
259.309	0.14
259.524	0.1
259.74	0.03
259.955	-0.03
260.171	0.08
260.387	0.06
260.602	0.07
260.818	0.04
261.033	-0.04
261.249	0.03
261.464	-0.01
261.68	0.04
261.895	0.1
262.11	0.08
262.326	0.05
262.541	-0.03
262.757	0.06
262.972	0.02
263.187	0.1
263.403	0.04
263.618	0.17
263.833	0.06
264.049	0.02
264.264	0.1
264.479	0.1
264.694	0.17
264.91	-0.08
265.125	0.03
265.34	0.11
265.555	0.23
265.77	0.11
265.986	0.02
266.201	0.14
266.416	0.12
266.631	-0
266.846	0.05
267.061	0.11
267.276	0.12
267.491	-0.12
267.706	0.07
267.921	0.01
268.136	0.03
268.351	0.07
268.566	-0.03
268.781	0.14
268.996	0.21
269.211	0.11
269.426	-0.01
269.641	0.05
269.856	0.11
270.071	0
270.285	-0.05
270.5	0.12
270.715	0.15
270.93	0.02
271.145	0.09
271.359	0.14
271.574	0.03
271.789	0
272.004	0.05
272.218	-0.01
272.433	0.14
272.648	0.03
272.862	0.09
273.077	0.06
273.292	0.09
273.506	0.06
273.721	0.03
273.936	0.1
274.15	0.15
274.365	0.04
274.579	0.08
274.794	0.12
275.008	0.12
275.223	0
275.437	0.04
275.652	0.17
275.866	0.07
276.081	0.07
276.295	0.13
276.509	0.09
276.724	0.07
276.938	0.05
277.153	0.08
277.367	0.16
277.581	0.04
277.796	0.02
278.01	-0
278.224	0.13
278.438	0.19
278.653	0.03
278.867	0.03
279.081	-0.04
279.295	0.06
279.51	0.09
279.724	-0.03
279.938	0.14
280.152	0.1
280.366	0.02
280.58	0.04
280.794	0.14
281.008	0.11
281.222	0.12
281.437	0.16
281.651	0.11
281.865	0.12
282.079	0.03
282.293	-0.02
282.507	0.04
282.721	0.08
282.935	0.07
283.148	0.01
283.362	0.05
283.576	0.01
283.79	0.07
284.004	0.04
284.218	0.14
284.432	0.09
284.646	0.01
284.859	0.04
285.073	0.03
285.287	0.02
285.501	0.02
285.714	0.04
285.928	0.04
286.142	0.12
286.356	0.03
286.569	0.01
286.783	0.17
286.997	0.1
287.21	0.02
287.424	0.13
287.637	0.03
287.851	0
288.065	0.09
288.278	0.01
288.492	0.07
288.705	0.09
288.919	0.1
289.132	-0.02
289.346	0.18
289.559	0.02
289.773	0.03
289.986	0.01
290.2	0.07
290.413	0.11
290.626	0.02
290.84	0.01
291.053	0.1
291.267	0.19
291.48	0.03
291.693	0.03
291.906	0.05
292.12	0.05
292.333	0.01
292.546	0.04
292.76	0.16
292.973	0.12
293.186	0.09
293.399	0.04
293.612	0.11
293.826	0.06
294.039	0.04
294.252	0.05
294.465	0.12
294.678	0.06
294.891	0.06
295.104	0.03
295.317	0.02
295.53	0.09
295.743	0.11
295.956	0.07
296.169	0.17
296.382	0.09
296.595	0.04
296.808	0.03
297.021	0.13
297.234	0.09
297.447	0.05
297.66	0.07
297.873	0.13
298.086	0.1
298.299	0.02
298.511	-0.01
298.724	0.07
298.937	0.03
299.15	0.01
299.363	0.08
299.575	0.1
299.788	0.11
300.001	0.05
300.213	0.04
300.426	0.05
300.639	0.05
300.852	0.05
301.064	0.13
301.277	0.12
301.489	0.11
301.702	0.07
301.915	0.07
302.127	0.07
302.34	0.1
302.552	0.1
302.765	0.03
302.977	0.08
303.19	0.06
303.402	0.05
303.615	0.06
303.827	0.04
304.04	0.06
304.252	0.1
304.464	0.07
304.677	0.19
304.889	0.1
305.102	0.02
305.314	0.05
305.526	0.12
305.739	0.07
305.951	0.05
306.163	0.05
306.375	0.12
306.588	0.04
306.8	0.05
307.012	0
307.224	0.09
307.436	0.1
307.649	-0.03
307.861	0.04
308.073	0.12
308.285	0.03
308.497	0.03
308.709	0.07
308.921	0.05
309.133	0.1
309.346	0.08
309.558	0.08
309.77	0.07
309.982	0.16
310.194	0.11
310.406	0.04
310.617	0.12
310.829	0.06
311.041	0.09
311.253	0.04
311.465	0.06
311.677	0.07
311.889	0.03
312.101	0.03
312.313	0.12
312.524	0.14
312.736	-0.02
312.948	0.04
313.16	0.15
313.372	0.08
313.583	0.06
313.795	0.04
314.007	0.02
314.218	0.1
314.43	0.05
314.642	0.02
314.853	0.01
315.065	0.13
315.277	0.05
315.488	0.07
315.7	0.13
315.912	0.13
316.123	0.06
316.335	0.04
316.546	0.21
316.758	0.08
316.969	0.07
317.181	0.05
317.392	0.07
317.604	0.11
317.815	0.01
318.026	0.04
318.238	0.06
318.449	0.06
318.661	0.01
318.872	0.02
319.083	0.03
319.295	0.11
319.506	0.04
319.717	0.06
319.929	0.1
320.14	0.07
320.351	0.09
320.562	0.03
320.774	0.02
320.985	0.1
321.196	0.04
321.407	0.01
321.618	0.1
321.829	0.11
322.041	0.09
322.252	0.09
322.463	0.09
322.674	0.05
322.885	0.03
323.096	0.06
323.307	0.05
323.518	0.07
323.729	0.03
323.94	0.02
324.151	0.05
324.362	0.09
324.573	0.05
324.784	0.05
324.995	0.12
325.206	0.12
325.417	0.02
325.628	0.04
325.838	0.08
326.049	0.07
326.26	0.09
326.471	0.05
326.682	0.1
326.892	0.07
327.103	0.02
327.314	0
327.525	0.12
327.735	0.08
327.946	0.06
328.157	0.03
328.368	0.07
328.578	0.04
328.789	0.09
328.999	0.06
329.21	0.03
329.421	0.11
329.631	0.04
329.842	0.05
330.052	0.08
330.263	0.11
330.473	0.09
330.684	0.02
330.894	0.09
331.105	0.09
331.315	0.09
331.526	-0
331.736	0.15
331.947	0.14
332.157	0.12
332.367	0.02
332.578	0.08
332.788	0.14
332.999	0.1
333.209	0.03
333.419	0.02
333.629	0.11
333.84	0.15
334.05	0.08
334.26	0.15
334.47	0.02
334.681	0.12
334.891	0.07
335.101	0.07
335.311	0.18
335.521	0.06
335.732	-0.01
335.942	0.15
336.152	0.1
336.362	0.09
336.572	0.09
336.782	0.12
336.992	0.05
337.202	0.03
337.412	-0.03
337.622	0.11
337.832	0.07
338.042	0.08
338.252	0.02
338.462	0.04
338.672	0.11
338.882	-0.01
339.092	0.1
339.302	0.12
339.511	0.08
339.721	0.02
339.931	0.02
340.141	0.11
340.351	0.12
340.561	0.07
340.77	0.07
340.98	0.06
341.19	0.07
341.4	0.03
341.609	0.03
341.819	0.04
342.029	0.03
342.238	0.08
342.448	-0
342.658	0.13
342.867	0.04
343.077	0.08
343.286	0.08
343.496	0.06
343.706	0.14
343.915	0.03
344.125	0.07
344.334	0.09
344.544	0.01
344.753	0.04
344.963	0.09
345.172	0.03
345.381	0.04
345.591	0.06
345.8	0.1
346.01	0.11
346.219	0.13
346.428	-0.08
346.638	0.06
346.847	0.1
347.056	0.15
347.266	0.01
347.475	0.04
347.684	0.09
347.893	0.08
348.103	0.09
348.312	0.02
348.521	0.05
348.73	0.08
348.94	0.06
349.149	0.06
349.358	0.04
349.567	0.02
349.776	0.02
349.985	0.02
350.194	0.09
350.403	0.12
350.612	-0.01
350.821	0.04
351.03	0.07
351.239	-0.02
351.448	0.07
351.657	0.04
351.866	0.13
352.075	0.07
352.284	0.1
352.493	-0
352.702	0.08
352.911	0.08
353.12	0.03
353.329	0.04
353.538	0.06
353.746	0.03
353.955	0.03
354.164	0.06
354.373	0.06
354.582	0.1
354.79	0.07
354.999	0.1
355.208	0.04
355.416	0.12
355.625	0.03
355.834	0.07
356.042	0.11
356.251	0.04
356.46	0.04
356.668	0.07
356.877	0.2
357.085	0.12
357.294	-0.02
357.503	0.07
357.711	0.06
357.92	0.23
358.128	0.1
358.337	0.06
358.545	0.11
358.754	0.06
358.962	0.13
359.17	0.01
359.379	0.09
359.587	0.1
359.796	0.1
360.004	0.09
360.212	0.09
360.421	0.13
360.629	0.03
360.837	0.06
361.046	0.12
361.254	0.19
361.462	0.06
361.67	0.05
361.879	0.09
362.087	0.14
362.295	0.09
362.503	0.05
362.711	0.01
362.92	0.02
363.128	0.06
363.336	0.04
363.544	0.05
363.752	0.05
363.96	0.01
364.168	0.02
364.376	0.1
364.584	0.09
364.792	0.09
365	0.05
365.208	0.04
365.416	0.1
365.624	0.07
365.832	0.07
366.04	0.12
366.248	0.1
366.456	0.06
366.664	0.06
366.872	0.1
367.079	0.02
367.287	0.06
367.495	0.1
367.703	0.05
367.911	0.06
368.118	0.07
368.326	0.09
368.534	0.03
368.742	0.13
368.949	0.01
369.157	0.06
369.365	0.09
369.572	0.04
369.78	0.03
369.988	0.1
370.195	0.07
370.403	0.1
370.61	0.03
370.818	0.09
371.026	0.12
371.233	0.01
371.441	0.05
371.648	0.06
371.856	0.1
372.063	0.08
372.271	0.07
372.478	0.06
372.685	0.05
372.893	0.15
373.1	0.04
373.308	0.06
373.515	0.12
373.722	0.08
373.93	0.07
374.137	0.07
374.344	0.17
374.552	0.13
374.759	0.11
374.966	0.08
375.173	0.05
375.381	0.14
375.588	0.07
375.795	-0.01
376.002	0.07
376.209	0.01
376.417	0.06
376.624	0.06
376.831	0.09
377.038	0.03
377.245	0.05
377.452	0.05
377.659	0.06
377.866	0.1
378.073	0.06
378.28	0.04
378.487	0.1
378.694	0.1
378.901	0.07
379.108	0.07
379.315	0.11
379.522	0.17
379.729	0.06
379.936	0.05
380.143	0.1
380.35	0.07
380.557	0.06
380.763	0.07
380.97	0.07
381.177	0.12
381.384	0.11
381.591	0.05
381.797	0.15
382.004	0.09
382.211	0.08
382.418	0.06
382.624	0.12
382.831	0.12
383.038	0.08
383.244	0.06
383.451	0.09
383.658	0.1
383.864	0.06
384.071	0.07
384.277	0.16
384.484	0.04
384.69	0.08
384.897	0.06
385.103	0.06
385.31	0.05
385.516	0.08
385.723	0.05
385.929	0.08
386.136	0.05
386.342	0.09
386.549	0.08
386.755	0.08
386.961	0.13
387.168	0.03
387.374	0.06
387.58	0.13
387.787	0.1
387.993	0.11
388.199	0.05
388.406	0.05
388.612	0.09
388.818	0.06
389.024	-0.03
389.231	0.09
389.437	0.12
389.643	0.08
389.849	0.1
390.055	0.17
390.261	0.11
390.467	0.08
390.674	0.03
390.88	0.08
391.086	0.08
391.292	0.04
391.498	0.13
391.704	0.12
391.91	0.03
392.116	0.1
392.322	-0
392.528	0.13
392.734	0.07
392.94	0.09
393.146	0.08
393.352	0.05
393.557	0.05
393.763	0.09
393.969	0.09
394.175	0.11
394.381	0.13
394.587	0.04
394.792	0.07
394.998	0.19
395.204	0.13
395.41	0.05
395.615	0.13
395.821	0.13
396.027	0.14
396.233	0.08
396.438	0.09
396.644	0.13
396.85	0.14
397.055	0.1
397.261	0.13
397.466	0.14
397.672	0.08
397.878	0.15
398.083	0.1
398.289	0.09
398.494	0.12
398.7	0.14
398.905	0.02
399.111	0.19
399.316	0.07
399.522	0.1
399.727	0.12
399.932	0.08
400.138	0.07
400.343	0.13
400.549	0.11
400.754	0.12
400.959	0.1
401.165	0.1
401.37	0.1
401.575	0.22
401.78	0.14
401.986	0.12
402.191	0.07
402.396	0.14
402.601	0.13
402.807	0.21
403.012	0.09
403.217	0.14
403.422	0.12
403.627	0.14
403.832	0.09
404.037	0.18
404.243	0.13
404.448	0.13
404.653	0.13
404.858	0.17
405.063	0.13
405.268	0.1
405.473	0.1
405.678	0.09
405.883	0.29
406.088	0.17
406.293	0.12
406.498	0.13
406.703	0.2
406.907	0.17
407.112	0.12
407.317	0.13
407.522	0.16
407.727	0.07
407.932	0.17
408.136	0.27
408.341	0.2
408.546	0.18
408.751	0.18
408.956	0.2
409.16	0.29
409.365	0.16
409.57	0.14
409.774	0.24
409.979	0.23
410.184	0.21
410.388	0.17
410.593	0.29
410.798	0.26
411.002	0.19
411.207	0.29
411.411	0.27
411.616	0.2
411.82	0.26
412.025	0.27
412.229	0.26
412.434	0.33
412.638	0.3
412.843	0.28
413.047	0.34
413.252	0.27
413.456	0.32
413.66	0.38
413.865	0.36
414.069	0.45
414.273	0.34
414.478	0.37
414.682	0.42
414.886	0.4
415.091	0.34
415.295	0.36
415.499	0.53
415.703	0.45
415.908	0.56
416.112	0.41
416.316	0.6
416.52	0.57
416.724	0.51
416.929	0.59
417.133	0.74
417.337	0.64
417.541	0.63
417.745	0.66
417.949	0.75
418.153	0.79
418.357	0.73
418.561	0.96
418.765	0.82
418.969	0.96
419.173	1
419.377	0.93
419.581	1.08
419.785	1.03
419.989	1
420.193	1.15
420.397	1.17
420.601	1.3
420.804	1.37
421.008	1.26
421.212	1.39
421.416	1.41
421.62	1.38
421.823	1.48
422.027	1.6
422.231	1.62
422.435	1.6
422.638	1.6
422.842	1.63
423.046	1.71
423.249	1.86
423.453	1.85
423.657	2.03
423.86	2.01
424.064	2.12
424.268	2.25
424.471	2.19
424.675	2.41
424.878	2.48
425.082	2.53
425.285	2.68
425.489	2.6
425.692	2.7
425.896	2.73
426.099	2.9
426.303	3.01
426.506	3.07
426.71	3.19
426.913	3.39
427.116	3.51
427.32	3.53
427.523	3.6
427.726	3.9
427.93	3.9
428.133	4.17
428.336	4.2
428.54	4.29
428.743	4.5
428.946	4.77
429.149	4.76
429.353	4.8
429.556	4.83
429.759	4.85
429.962	4.9
430.165	5.17
430.368	4.94
430.571	5
430.775	4.99
430.978	5.07
431.181	5.14
431.384	5.19
431.587	5.29
431.79	5.61
431.993	5.54
432.196	5.73
432.399	6.06
432.602	6.17
432.805	6.1
433.008	6.66
433.211	6.57
433.414	6.89
433.616	6.87
433.819	6.9
434.022	6.96
434.225	7.22
434.428	7.23
434.631	7.56
434.833	7.41
435.036	7.61
435.239	7.91
435.442	7.9
435.645	8.16
435.847	8.1
436.05	8.44
436.253	8.67
436.455	8.79
436.658	8.64
436.861	8.99
437.063	9.12
437.266	9.22
437.468	9.5
437.671	9.88
437.874	9.85
438.076	9.83
438.279	10.41
438.481	10.42
438.684	11.06
438.886	11
439.089	11.34
439.291	11.38
439.494	11.74
439.696	12.04
439.899	12.49
440.101	13.07
440.303	13.37
440.506	14.05
440.708	14.14
440.91	14.37
441.113	14.74
441.315	15.04
441.517	15.06
441.72	15.68
441.922	15.57
442.124	15.65
442.326	16.1
442.529	16.52
442.731	16.7
442.933	17.18
443.135	17.1
443.337	17.29
443.539	18.04
443.742	17.89
443.944	18.64
444.146	18.65
444.348	18.85
444.55	18.72
444.752	19.2
444.954	19.4
445.156	19.42
445.358	20.01
445.56	20.53
445.762	20.46
445.964	20.98
446.166	20.98
446.368	21.04
446.57	21.14
446.772	20.89
446.974	20.65
447.175	21.31
447.377	21.01
447.579	21.74
447.781	21.34
447.983	21.17
448.184	20.8
448.386	21.28
448.588	20.9
448.79	20.85
448.991	21.44
449.193	21.3
449.395	20.71
449.597	20.07
449.798	20.16
450	19.59
450.202	19.63
450.403	19.7
450.605	19.36
450.806	19
451.008	18.7
451.21	18.5
451.411	17.97
451.613	16.97
451.814	17.25
452.016	17.29
452.217	16.34
452.419	16.36
452.62	15.89
452.821	15.61
453.023	15.24
453.224	14.92
453.426	14.22
453.627	13.4
453.828	13.5
454.03	13.43
454.231	13.54
454.432	13.15
454.634	12.79
454.835	12.31
455.036	12.32
455.238	11.77
455.439	11.46
455.64	11.12
455.841	10.91
456.042	10.97
456.244	10.53
456.445	10.24
456.646	9.87
456.847	9.81
457.048	9.63
457.249	9.67
457.45	9.2
457.651	8.73
457.852	8.47
458.054	8.21
458.255	8.16
458.456	8.08
458.657	8.05
458.858	7.52
459.058	7.36
459.259	7.44
459.46	7.16
459.661	7.13
459.862	7.09
460.063	6.99
460.264	6.79
460.465	6.56
460.666	6.64
460.866	6.36
461.067	5.99
461.268	6.03
461.469	5.99
461.67	5.75
461.87	5.48
462.071	5.63
462.272	5.52
462.473	5.41
462.673	5.61
462.874	5.5
463.075	5.39
463.275	5.31
463.476	5.29
463.676	5.3
463.877	5.12
464.078	4.96
464.278	4.98
464.479	4.84
464.679	4.72
464.88	4.64
465.08	4.51
465.281	4.4
465.481	4.16
465.682	3.97
465.882	3.96
466.083	3.81
466.283	3.79
466.483	3.59
466.684	3.47
466.884	3.27
467.085	3.38
467.285	3.31
467.485	3.22
467.686	3.13
467.886	2.98
468.086	2.86
468.286	2.84
468.487	2.83
468.687	2.76
468.887	2.67
469.087	2.71
469.287	2.63
469.488	2.43
469.688	2.49
469.888	2.51
470.088	2.41
470.288	2.34
470.488	2.24
470.688	2.07
470.888	1.99
471.088	1.91
471.288	2.04
471.488	1.93
471.688	1.93
471.888	1.8
472.088	1.93
472.288	1.78
472.488	1.68
472.688	1.63
472.888	1.67
473.088	1.63
473.288	1.49
473.488	1.52
473.688	1.6
473.887	1.51
474.087	1.45
474.287	1.4
474.487	1.37
474.687	1.39
474.886	1.32
475.086	1.26
475.286	1.22
475.486	1.25
475.685	1.21
475.885	1.14
476.085	1.21
476.284	1.16
476.484	1.11
476.684	1.1
476.883	1.16
477.083	1.06
477.282	1.01
477.482	1.05
477.681	1.05
477.881	0.95
478.08	0.91
478.28	0.86
478.479	0.9
478.679	0.97
478.878	0.86
479.078	0.81
479.277	0.86
479.477	0.81
479.676	0.84
479.875	0.81
480.075	0.74
480.274	0.77
480.473	0.79
480.673	0.68
480.872	0.76
481.071	0.71
481.271	0.7
481.47	0.66
481.669	0.68
481.868	0.59
482.067	0.57
482.267	0.55
482.466	0.57
482.665	0.55
482.864	0.55
483.063	0.53
483.262	0.55
483.461	0.58
483.661	0.58
483.86	0.52
484.059	0.55
484.258	0.49
484.457	0.44
484.656	0.49
484.855	0.51
485.054	0.38
485.253	0.38
485.452	0.35
485.651	0.44
485.849	0.4
486.048	0.38
486.247	0.34
486.446	0.39
486.645	0.33
486.844	0.36
487.043	0.33
487.241	0.33
487.44	0.3
487.639	0.31
487.838	0.34
488.037	0.3
488.235	0.38
488.434	0.3
488.633	0.25
488.831	0.31
489.03	0.33
489.229	0.28
489.427	0.25
489.626	0.29
489.825	0.31
490.023	0.24
490.222	0.23
490.42	0.26
490.619	0.25
490.817	0.25
491.016	0.19
491.214	0.26
491.413	0.21
491.611	0.21
491.81	0.21
492.008	0.23
492.207	0.22
492.405	0.19
492.604	0.17
492.802	0.2
493	0.18
493.199	0.18
493.397	0.2
493.595	0.18
493.794	0.16
493.992	0.21
494.19	0.15
494.388	0.19
494.587	0.16
494.785	0.16
494.983	0.12
495.181	0.17
495.379	0.16
495.578	0.12
495.776	0.15
495.974	0.15
496.172	0.12
496.37	0.13
496.568	0.12
496.766	0.12
496.964	0.17
497.162	0.14
497.36	0.12
497.558	0.15
497.756	0.15
497.954	0.11
498.152	0.09
498.35	0.11
498.548	0.11
498.746	0.11
498.944	0.06
499.142	0.1
499.34	0.07
499.538	0.12
499.736	0.07
499.933	0.15
500.131	0.14
500.329	0.1
500.527	0.13
500.725	0.13
500.922	0.11
501.12	0.1
501.318	0.1
501.516	0.08
501.713	0.12
501.911	0.08
502.109	0.06
502.306	0.11
502.504	0.1
502.701	0.11
502.899	0.09
503.097	0.12
503.294	0.1
503.492	0.08
503.689	0.1
503.887	0.1
504.084	0.12
504.282	0.09
504.479	0.07
504.677	0.07
504.874	0.05
505.072	0.07
505.269	0.07
505.466	0.1
505.664	0.09
505.861	0.02
506.059	0.06
506.256	0.1
506.453	0.04
506.651	0.12
506.848	0.08
507.045	0.08
507.242	0.07
507.44	0.06
507.637	0.08
507.834	0.07
508.031	0.09
508.229	0.04
508.426	0.07
508.623	0.08
508.82	0.04
509.017	0.05
509.214	0.05
509.411	0.06
509.608	0.02
509.805	0.07
510.003	0.05
510.2	0.04
510.397	0.08
510.594	0.03
510.791	0.03
510.988	0.05
511.184	0.08
511.381	0.05
511.578	0.04
511.775	0.07
511.972	0.05
512.169	0.03
512.366	0.07
512.563	0.07
512.76	0.03
512.956	0.07
513.153	0.03
513.35	0.06
513.547	0.01
513.744	0.04
513.94	0.02
514.137	0.06
514.334	0.04
514.53	0.06
514.727	0.05
514.924	0.09
515.12	0.04
515.317	0.03
515.514	0.05
515.71	0.04
515.907	0.05
516.103	0.05
516.3	0.06
516.497	0.06
516.693	0.08
516.89	0.06
517.086	0.02
517.283	0.08
517.479	0.06
517.676	0.01
517.872	0.03
518.068	0.04
518.265	0.02
518.461	0.03
518.658	0.04
518.854	0.04
519.05	0.03
519.247	0.01
519.443	0.06
519.639	0.06
519.836	0.04
520.032	0.04
520.228	0.03
520.424	0.06
520.621	0.06
520.817	0.03
521.013	0.06
521.209	0.06
521.405	0.07
521.601	0.05
521.798	0.06
521.994	0.08
522.19	0.03
522.386	-0
522.582	0.04
522.778	0.03
522.974	0.04
523.17	0.06
523.366	0.04
523.562	0.07
523.758	0.05
523.954	0.01
524.15	0.03
524.346	0.06
524.542	0
524.738	-0.01
524.934	0.04
525.129	0.03
525.325	0.06
525.521	0.06
525.717	0.07
525.913	0.06
526.109	0.05
526.304	0.02
526.5	0.05
526.696	0.08
526.892	0
527.087	0.05
527.283	0.01
527.479	0.06
527.674	0.03
527.87	0.03
528.066	0.02
528.261	0.04
528.457	0.05
528.653	0.02
528.848	0.04
529.044	0.05
529.239	0.01
529.435	0.05
529.63	0.04
529.826	0.08
530.021	0.04
530.217	0.08
530.412	0.04
530.608	-0
530.803	0.02
530.999	0.03
531.194	-0.01
531.389	0.04
531.585	-0.02
531.78	0.03
531.975	0.04
532.171	0.06
532.366	0.03
532.561	0.04
532.757	0.01
532.952	0.02
533.147	0.03
533.342	0
533.538	0.02
533.733	0.03
533.928	0.03
534.123	0
534.318	-0.03
534.513	0.04
534.709	0.03
534.904	0.03
535.099	0.01
535.294	0.03
535.489	0.03
535.684	0.01
535.879	0.02
536.074	0.04
536.269	0
536.464	0.04
536.659	0.03
536.854	0.02
537.049	0.05
537.244	0.03
537.439	0.02
537.634	0.06
537.828	0.05
538.023	0.02
538.218	-0.01
538.413	0.03
538.608	0.02
538.803	0.03
538.997	-0.01
539.192	0.07
539.387	0.06
539.582	0.03
539.776	0.03
539.971	0.02
540.166	0.03
540.36	-0
540.555	0.03
540.75	0.01
540.944	0.04
541.139	-0
541.334	0.03
541.528	0.05
541.723	0.05
541.917	0.04
542.112	-0.01
542.306	0.03
542.501	0.02
542.695	0.04
542.89	0.01
543.084	0.05
543.279	0
543.473	0.04
543.668	0.03
543.862	0.02
544.056	0.03
544.251	0.03
544.445	0.04
544.64	0.02
544.834	-0.01
545.028	0.03
545.222	0.05
545.417	0.03
545.611	0.03
545.805	0.03
546	-0
546.194	0.02
546.388	0.01
546.582	0.05
546.776	0.04
546.97	0.03
547.165	0.05
547.359	0.06
547.553	-0.01
547.747	0.04
547.941	0.02
548.135	0.01
548.329	0.04
548.523	0.04
548.717	0.03
548.911	0.01
549.105	0.02
549.299	0.04
549.493	0.03
549.687	0.04
549.881	0.04
550.075	0.03
550.269	-0.02
550.463	0.05
550.657	0.02
550.85	0.01
551.044	0
551.238	0.02
551.432	0.01
551.626	-0
551.82	0.05
552.013	0.01
552.207	0.03
552.401	0.04
552.594	0.05
552.788	0.03
552.982	0.04
553.176	0.01
553.369	0.03
553.563	0.02
553.756	-0.02
553.95	-0.01
554.144	0.02
554.337	0.03
554.531	0.03
554.724	0.04
554.918	-0.01
555.111	0.03
555.305	0.02
555.498	0.1
555.692	0.03
555.885	0.02
556.079	0.04
556.272	-0
556.466	0.04
556.659	0.03
556.852	0.01
557.046	0.01
557.239	0.06
557.432	0.01
557.626	0.02
557.819	0.02
558.012	0.05
558.206	0.03
558.399	0.01
558.592	0.04
558.785	0.01
558.979	0.05
559.172	0.04
559.365	0.05
559.558	0.03
559.751	0.02
559.944	0.01
560.138	0.01
560.331	0.02
560.524	0.01
560.717	0.01
560.91	0.01
561.103	0.03
561.296	0.02
561.489	0.02
561.682	0.01
561.875	0.03
562.068	0.03
562.261	0.02
562.454	0.05
562.647	0.03
562.84	0.06
563.032	0.02
563.225	0.03
563.418	-0.01
563.611	0.02
563.804	0.01
563.997	-0.01
564.19	0
564.382	0.03
564.575	0.02
564.768	0.02
564.961	-0.01
565.153	0
565.346	0.04
565.539	0.04
565.731	0.05
565.924	0.05
566.117	0.04
566.309	0.03
566.502	0.03
566.695	0.03
566.887	0.02
567.08	-0.04
567.272	0.02
567.465	0.01
567.657	0.02
567.85	0.04
568.042	0.03
568.235	0.05
568.427	0.02
568.62	0.01
568.812	0.03
569.005	0.03
569.197	-0.02
569.389	0.04
569.582	0.03
569.774	0.01
569.966	-0.04
570.159	0
570.351	0.03
570.543	-0.01
570.736	0.01
570.928	-0.02
571.12	0.02
571.312	0
571.505	-0.01
571.697	0.06
571.889	-0.01
572.081	0.02
572.273	-0.01
572.465	0.07
572.658	0.02
572.85	0.04
573.042	0.02
573.234	0.01
573.426	0.06
573.618	-0
573.81	0.01
574.002	0.06
574.194	0.06
574.386	-0.02
574.578	-0.04
574.77	-0.01
574.962	0.01
575.154	-0
575.346	-0.01
575.538	0.04
575.729	0.01
575.921	-0
576.113	0.01
576.305	0.03
576.497	-0.01
576.689	0.01
576.88	-0.01
577.072	0.05
577.264	-0
577.456	0.03
577.647	-0.06
577.839	0.02
578.031	0.07
578.223	-0.05
578.414	-0.01
578.606	0.02
578.798	0.04
578.989	0
579.181	-0
579.372	0.02
579.564	0.01
579.755	0.01
579.947	0.03
580.139	0.05
580.33	-0.03
580.522	-0
580.713	-0.06
580.905	0.02
581.096	0.04
581.287	0.03
581.479	0.01
581.67	0.03
581.862	0.02
582.053	-0.01
582.244	-0.03
582.436	0.02
582.627	-0
582.818	-0.01
583.01	-0.02
583.201	0.02
583.392	0.04
583.583	0
583.775	-0.02
583.966	-0.02
584.157	0
584.348	-0.04
584.54	-0.01
584.731	0.02
584.922	0
585.113	-0.02
585.304	0.02
585.495	0.06
585.686	0.01
585.877	0.04
586.068	0.01
586.259	0.04
586.45	0.03
586.641	-0.01
586.832	-0.04
587.023	0.03
587.214	-0.01
587.405	0.01
587.596	0.01
587.787	0.03
587.978	0.02
588.169	-0
588.36	-0.01
588.551	0.01
588.742	0.01
588.932	0.04
589.123	-0
589.314	0.03
589.505	0.03
589.696	0.02
589.886	-0.02
590.077	-0.01
590.268	0.04
590.458	-0.02
590.649	-0.04
590.84	0.03
591.03	-0.02
591.221	-0.01
591.412	-0.02
591.602	0.05
591.793	0.03
591.984	-0.02
592.174	-0.02
592.365	0.06
592.555	-0.01
592.746	0.04
592.936	0.03
593.127	0.01
593.317	0.04
593.508	0
593.698	0.01
593.889	0.02
594.079	0.02
594.269	-0.01
594.46	0.01
594.65	0.04
594.84	0.02
595.031	0
595.221	-0.02
595.411	-0.01
595.602	0.05
595.792	0.01
595.982	0.02
596.172	0.05
596.363	0.02
596.553	0.01
596.743	0.02
596.933	0.01
597.123	0.03
597.314	-0.01
597.504	-0
597.694	0.08
597.884	0.02
598.074	-0.01
598.264	-0.02
598.454	0
598.644	0
598.834	0
599.024	-0.04
599.214	0.01
599.404	0.06
599.594	-0.02
599.784	0
599.974	0.05
600.164	0.04
600.354	-0.01
600.544	-0.04
600.734	0.01
600.924	0.04
601.114	-0.02
601.303	0.02
601.493	-0.01
601.683	-0
601.873	0.02
602.063	-0.02
602.252	0.03
602.442	-0.04
602.632	-0.01
602.821	-0.03
603.011	0.02
603.201	-0.02
603.39	-0.02
603.58	-0.03
603.77	0.01
603.959	0.04
604.149	0.01
604.339	-0.01
604.528	0.03
604.718	0.07
604.907	-0
605.097	-0.01
605.286	-0.03
605.476	0.05
605.665	0.01
605.855	-0
606.044	0.06
606.234	0.04
606.423	-0.01
606.612	-0.02
606.802	0.02
606.991	0.04
607.181	0.02
607.37	-0.04
607.559	0.03
607.749	-0
607.938	0
608.127	0
608.316	-0.02
608.506	0.01
608.695	0.01
608.884	-0.03
609.073	0.03
609.263	0.04
609.452	0.01
609.641	0.03
609.83	-0
610.019	0.04
610.208	-0.01
610.397	-0
610.586	0.05
610.775	-0
610.965	0
611.154	-0.01
611.343	0.02
611.532	0.01
611.721	0
611.91	-0
612.099	0.02
612.287	-0.02
612.476	-0.02
612.665	0.02
612.854	-0.02
613.043	0.04
613.232	-0.01
613.421	-0.05
613.61	0.02
613.798	-0.03
613.987	0.04
614.176	-0.02
614.365	0.05
614.554	0.04
614.742	0.03
614.931	0.01
615.12	0.04
615.309	-0.01
615.497	0.02
615.686	-0.03
615.875	-0.01
616.063	0.02
616.252	0
616.44	-0
616.629	0.05
616.818	0.04
617.006	-0.01
617.195	-0.01
617.383	0.03
617.572	0.01
617.76	-0.01
617.949	-0.02
618.137	0.02
618.326	0.05
618.514	-0.01
618.703	-0.02
618.891	0.07
619.079	-0.06
619.268	0.03
619.456	-0
619.644	0.04
619.833	0.01
620.021	-0.02
620.209	-0.01
620.398	0.05
620.586	0.04
620.774	0.04
620.962	0.01
621.151	0.01
621.339	-0
621.527	-0.02
621.715	-0.02
621.903	-0.02
622.092	0
622.28	0.01
622.468	0.01
622.656	0.02
622.844	0.05
623.032	-0.01
623.22	-0.03
623.408	0.03
623.596	0.02
623.784	0.02
623.972	-0.01
624.16	0.02
624.348	0.08
624.536	-0.01
624.724	-0.01
624.912	0.04
625.1	0.05
625.288	-0.01
625.476	-0.01
625.664	0.06
625.851	-0.03
626.039	0.02
626.227	0
626.415	0.02
626.603	-0.03
626.79	-0.01
626.978	0
627.166	0.04
627.354	0.02
627.541	-0
627.729	-0.06
627.917	0.03
628.104	0.06
628.292	0.01
628.48	-0.01
628.667	0.01
628.855	0.01
629.042	0.04
629.23	-0.02
629.418	0.03
629.605	0.02
629.793	-0.02
629.98	-0.03
630.168	0
630.355	0.03
630.543	0.02
630.73	-0.04
630.917	0.05
631.105	0.09
631.292	-0.02
631.48	-0.01
631.667	0.09
631.854	-0
632.042	0.02
632.229	-0.02
632.416	-0
632.604	0
632.791	-0.03
632.978	0.02
633.165	0
633.353	0.06
633.54	0.03
633.727	-0.05
633.914	-0.05
634.101	-0.07
634.289	0.05
634.476	-0.02
634.663	-0.01
634.85	0.04
635.037	-0.03
635.224	-0.05
635.411	0.05
635.598	0.05
635.785	-0
635.972	-0.02
636.159	0.03
636.346	-0.04
636.533	0.01
636.72	-0.01
636.907	0.01
637.094	0.03
637.281	-0
637.468	0.02
637.655	-0.03
637.842	-0.02
638.029	-0.02
638.215	0.01
638.402	-0.01
638.589	-0.02
638.776	-0.01
638.963	-0.02
639.149	0.02
639.336	0.05
639.523	-0
639.709	0.01
639.896	-0
640.083	0.07
640.27	0.03
640.456	-0.02
640.643	0.02
640.829	-0.03
641.016	0
641.203	-0.06
641.389	0.03
641.576	0.04
641.762	-0
641.949	-0.05
642.135	0.04
642.322	-0
642.508	-0.06
642.695	0
642.881	-0
643.068	-0.02
643.254	0
643.441	0.04
643.627	-0.02
643.813	0.01
644	0.04
644.186	-0.06
644.372	-0
644.559	0.04
644.745	0.01
644.931	-0.02
645.118	-0.01
645.304	-0.01
645.49	-0.04
645.676	-0.01
645.862	-0
646.049	0.04
646.235	-0.01
646.421	0.08
646.607	0.02
646.793	-0.02
646.979	-0.02
647.165	0.01
647.352	0.01
647.538	0.05
647.724	-0.03
647.91	0.01
648.096	0.04
648.282	0.06
648.468	-0
648.654	0.02
648.84	0.03
649.026	0
649.212	-0
649.397	-0.02
649.583	-0.01
649.769	0.02
649.955	0
650.141	0
650.327	0.09
650.513	-0.05
650.698	0.02
650.884	-0.1
651.07	-0.01
651.256	0.05
651.442	0.02
651.627	0
651.813	0.03
651.999	0.02
652.184	0.01
652.37	-0.02
652.556	-0.02
652.741	0.08
652.927	-0.08
653.113	-0
653.298	0.03
653.484	-0.01
653.669	-0.07
653.855	0
654.04	0.03
654.226	0.01
654.412	-0.04
654.597	0
654.782	0.06
654.968	0.08
655.153	0.02
655.339	-0.01
655.524	-0.05
655.71	0.05
655.895	-0.01
656.08	-0.02
656.266	0.06
656.451	0.02
656.636	-0.04
656.822	0.02
657.007	-0.05
657.192	-0.01
657.378	-0.06
657.563	-0.01
657.748	0.02
657.933	0.02
658.118	-0.05
658.304	-0.03
658.489	0.01
658.674	0.02
658.859	-0.06
659.044	0.03
659.229	0.05
659.414	0.01
659.599	0.01
659.785	-0.08
659.97	-0.02
660.155	0.01
660.34	0.03
660.525	-0.01
660.71	-0.02
660.895	0.05
661.08	-0.02
661.264	-0.03
661.449	0.03
661.634	0.02
661.819	0.03
662.004	-0.01
662.189	-0.06
662.374	-0.04
662.559	-0.05
662.743	-0.07
662.928	-0.01
663.113	-0.02
663.298	-0.06
663.483	0
663.667	-0
663.852	-0.03
664.037	0.04
664.221	-0.01
664.406	0.01
664.591	0.03
664.775	0.02
664.96	-0.06
665.145	0.02
665.329	0.06
665.514	-0.02
665.698	-0.02
665.883	-0.04
666.068	0.04
666.252	-0.01
666.437	-0.06
666.621	0.02
666.806	0.04
666.99	0.01
667.174	-0.04
667.359	0.04
667.543	-0.01
667.728	-0.04
667.912	-0.07
668.096	0.04
668.281	-0.03
668.465	-0.02
668.649	0.01
668.834	-0.03
669.018	-0.04
669.202	-0.02
669.387	-0.02
669.571	0.06
669.755	-0.02
669.939	0.02
670.124	0.02
670.308	0.04
670.492	0.04
670.676	-0.01
670.86	-0.02
671.044	-0.02
671.228	0.05
671.413	-0.02
671.597	-0.01
671.781	-0.03
671.965	0.06
672.149	-0
672.333	-0.01
672.517	-0.05
672.701	0.07
672.885	-0
673.069	-0.04
673.253	0.07
673.437	-0.05
673.621	0
673.804	-0
673.988	-0
674.172	-0.01
674.356	-0.06
674.54	-0
674.724	0.1
674.908	0.02
675.091	0.06
675.275	-0.03
675.459	0.05
675.643	0.08
675.826	-0.01
676.01	0.02
676.194	-0.02
676.377	0.08
676.561	0.01
676.745	0.02
676.928	0
677.112	0.09
677.296	-0.01
677.479	-0.01
677.663	0.02
677.846	0.01
678.03	0.01
678.213	-0.01
678.397	0.04
678.58	-0.01
678.764	-0.04
678.947	-0.04
679.131	-0.02
679.314	0.08
679.498	-0.04
679.681	-0
679.865	0.06
680.048	-0
680.231	-0.01
680.415	-0.01
680.598	0.02
680.781	-0.04
680.965	-0.01
681.148	0.03
681.331	-0.01
681.514	0.03
681.698	-0.05
681.881	-0.01
682.064	0
682.247	-0.02
682.43	-0.06
682.614	0.04
682.797	0.08
682.98	0.06
683.163	-0.04
683.346	0.01
683.529	-0.01
683.712	-0.01
683.895	0.05
684.078	-0.08
684.261	-0.02
684.444	0.04
684.627	-0.02
684.81	-0.03
684.993	0.01
685.176	0.01
685.359	-0.02
685.542	-0.02
685.725	0.02
685.908	-0.01
686.091	0.01
686.274	0.09
686.457	0.05
686.639	-0.02
686.822	0
687.005	0.02
687.188	0.03
687.371	0.11
687.553	0.06
687.736	0.04
687.919	0.1
688.102	0.1
688.284	0.02
688.467	-0
688.65	0
688.832	-0.02
689.015	-0.02
689.197	-0.04
689.38	0.07
689.563	0.06
689.745	-0.04
689.928	-0.01
690.11	0
690.293	-0
690.475	-0.07
690.658	0.02
690.84	-0.01
691.023	0
691.205	-0.04
691.388	0.05
691.57	0.04
691.752	0.05
691.935	-0.08
692.117	-0.03
692.3	-0.01
692.482	0.03
692.664	0.05
692.847	0
693.029	0.06
693.211	0.04
693.393	0.02
693.576	-0.04
693.758	0.03
693.94	-0.01
694.122	-0.01
694.304	0
694.487	-0.04
694.669	0.06
694.851	-0.06
695.033	0.02
695.215	-0.04
695.397	-0.03
695.579	0.02
695.761	-0.03
695.943	-0.09
696.125	0.07
696.308	0
696.49	-0.07
696.671	0.11
696.853	-0
697.035	0.1
697.217	0.01
697.399	0.06
697.581	-0.03
697.763	-0.01
697.945	-0.02
698.127	0
698.309	0.09
698.491	0.01
698.672	0.03
698.854	0.04
699.036	0.11
699.218	-0.01
699.399	0.04
699.581	0.09
699.763	-0.01
699.945	-0.02
700.126	-0.04
700.308	-0.03
700.49	0.01
700.671	-0.11
700.853	-0.05
701.035	-0.01
701.216	0.04
701.398	-0.03
701.579	-0.01
701.761	0.06
701.943	-0.01
702.124	-0.05
702.306	-0.02
702.487	0.09
702.669	-0.03
702.85	-0.05
703.031	-0.1
703.213	0.14
703.394	0.09
703.576	-0.01
703.757	0.07
703.938	0.02
704.12	0.13
704.301	-0.01
704.483	-0.02
704.664	-0.02
704.845	0.07
705.026	0.03
705.208	-0.01
705.389	0.02
705.57	0.03
705.751	-0.02
705.933	0.01
706.114	0.06
706.295	0.05
706.476	-0.11
706.657	0.05
706.838	0.02
707.02	0.03
707.201	-0.06
707.382	-0.03
707.563	0.02
707.744	-0.04
707.925	-0.07
708.106	-0.02
708.287	0.03
708.468	0.12
708.649	0.01
708.83	0.06
709.011	0.02
709.192	0.07
709.373	-0.05
709.554	0.03
709.734	0.07
709.915	0.06
710.096	0.03
710.277	-0.1
710.458	0
710.639	-0.01
710.819	-0.08
711	-0.05
711.181	0.07
711.362	0.09
711.542	0.07
711.723	-0.02
711.904	0.09
712.085	0.04
712.265	0.03
712.446	-0.07
712.627	0.02
712.807	-0.06
712.988	-0.05
713.168	-0.07
713.349	0.01
713.53	-0.11
713.71	-0.1
713.891	-0.07
714.071	0.02
714.252	-0.04
714.432	-0.07
714.613	-0.1
714.793	0
714.974	0.09
715.154	0.06
715.334	0.05
715.515	0.05
715.695	-0.07
715.876	-0.02
716.056	-0.07
716.236	-0.03
716.417	0.02
716.597	-0.1
716.777	0.14
716.957	0.02
717.138	-0.05
717.318	0.07
717.498	-0.06
717.678	0.05
717.859	-0
718.039	-0.05
718.219	0.06
718.399	0.05
718.579	-0.07
718.759	-0.05
718.939	0.03
719.12	-0.01
719.3	0.07
719.48	-0.15
719.66	-0.11
719.84	0.02
720.02	0.03
720.2	0.01
720.38	0.03
720.56	0.06
720.74	0.01
720.92	-0.04
721.1	0.07
721.279	0.12
721.459	-0.03
721.639	-0.16
721.819	0.06
721.999	-0.01
722.179	0.11
722.359	-0.05
722.538	0.06
722.718	0
722.898	0.03
723.078	0.02
723.257	-0.11
723.437	0.02
723.617	0
723.797	-0.06
723.976	0
724.156	0.01
724.336	0.09
724.515	0.13
724.695	-0.13
724.874	-0.01
725.054	0.07
725.234	-0.04
725.413	0.08
725.593	-0.01
725.772	0.04
725.952	-0.03
726.131	-0.01
726.311	0.01
726.49	-0.04
726.67	-0.04
726.849	-0.05
727.028	0.07
727.208	0.01
727.387	-0.02
727.567	-0.15
727.746	0.02
727.925	-0.08
728.105	-0.1
728.284	0.02
728.463	-0.01
728.643	0.01
728.822	-0.09
729.001	-0.08
729.18	-0.06
729.359	0.06
729.539	-0.07
729.718	-0.04
729.897	0.09
730.076	0
730.255	-0.09
730.434	0.04
730.614	0
730.793	0.15
730.972	0.01
731.151	0.1
731.33	0.08
731.509	0.03
731.688	0
731.867	0.1
732.046	-0.03
732.225	0.2
732.404	-0.06
732.583	-0.11
732.762	0.01
732.941	0.08
733.12	0.03
733.298	-0.03
733.477	0.05
733.656	-0
733.835	-0.18
734.014	0.02
734.193	0.01
734.371	0.04
734.55	0.07
734.729	-0.12
734.908	0.01
735.086	0.02
735.265	0.09
735.444	-0.1
735.623	-0.11
735.801	0.02
735.98	-0.1
736.159	-0.08
736.337	0.09
736.516	0.12
736.694	-0.02
736.873	-0.05
737.052	0.2
737.23	-0.01
737.409	0.01
737.587	0.21
737.766	-0.09
737.944	-0.01
738.123	0.03
738.301	0.15
738.479	0.04
738.658	0.08
738.836	-0.19
739.015	-0.05
739.193	0.11
739.371	-0.09
739.55	-0.09
739.728	-0.11
739.906	0.15
740.085	0.13
740.263	-0.02
740.441	-0.11
740.62	0.13
740.798	0.09
740.976	-0.09
741.154	-0.04
741.332	0.29
741.511	-0.07
741.689	0.01
741.867	0.09
742.045	0.03
742.223	-0.06
742.401	-0
742.579	0.04
742.757	0.01
742.935	-0.07
743.114	0.06
743.292	-0.01
743.47	-0.09
743.648	-0
743.826	-0.14
744.004	0.09
744.181	-0.03
744.359	-0.12
744.537	0.01
744.715	0.02
744.893	0.05
745.071	0.02
745.249	-0.05
745.427	0.01
745.605	0.05
745.782	0.04
745.96	0.06
746.138	0.01
746.316	0.11
746.493	0.02
746.671	-0.04
746.849	-0.03
747.027	0.08
747.204	0.01
747.382	0.14
747.56	-0.16
747.737	-0.12
747.915	0.01
748.093	0.07
748.27	-0.07
748.448	-0.05
748.625	-0.08
748.803	-0.1
748.98	0.01
749.158	0.15
749.335	0.12
749.513	-0.02
749.69	-0.05
749.868	-0.04
750.045	-0.04
750.223	-0.06
750.4	-0.27
750.578	0.16
750.755	0.09
750.932	-0.07
751.11	0.14
751.287	-0.08
751.464	0.08
751.642	-0.05
751.819	0.07
751.996	-0.02
752.173	-0.02
752.351	-0.06
752.528	0.04
752.705	-0.08
752.882	-0.07
753.06	0
753.237	-0.04
753.414	0.09
753.591	0.21
753.768	0.02
753.945	-0.04
754.122	0.09
754.299	0.13
754.476	-0.03
754.654	-0.08
754.831	0.14
755.008	0.11
755.185	-0.06
755.362	-0.12
755.539	0.04
755.716	-0.11
755.892	-0.04
756.069	-0.07
756.246	-0.08
756.423	-0.06
756.6	0.09
756.777	-0.11
756.954	0.09
757.131	0.08
757.307	-0.14
757.484	-0.22
757.661	0.1
757.838	0.03
758.015	-0.05
758.191	0.11
758.368	-0.07
758.545	0.18
758.721	0.01
758.898	-0.08
759.075	-0
759.251	0.19
759.428	0.04
759.605	-0.15
759.781	0.02
759.958	0.01
760.134	0.07
760.311	-0.04
760.488	0.07
760.664	0.19
760.841	-0.07
761.017	-0.08
761.194	0.07
761.37	0.06
761.547	-0.06
761.723	-0.06
761.899	0.1
762.076	-0.09
762.252	-0.09
762.429	0.04
762.605	0.13
762.781	-0.07
762.958	0.11
763.134	0.02
763.31	-0.09
763.486	0.12
763.663	-0.12
763.839	-0.04
764.015	-0.18
764.191	-0.09
764.368	0
764.544	-0.14
764.72	0.09
764.896	0.09
765.072	0.08
765.248	-0.03
765.425	-0.14
765.601	0.01
765.777	-0.05
765.953	-0.08
766.129	-0.12
766.305	-0.01
766.481	0.02
766.657	0.03
766.833	0.07
767.009	-0.19
767.185	-0.05
767.361	0.04
767.537	-0.15
767.713	0.2
767.889	0.01
768.065	-0.12
768.24	0.11
768.416	0.13
768.592	-0.12
768.768	-0.02
768.944	0.11
769.12	-0.23
769.295	-0.16
769.471	0.01
769.647	-0.06
769.823	0.16
769.998	-0.02
770.174	-0.16
770.35	0.28
770.525	0.36
770.701	0.03
770.877	0.07
771.052	-0.15
771.228	0.2
771.403	0.16
771.579	0.17
771.755	0.23
771.93	-0.06
772.106	-0.16
772.281	-0.17
772.457	-0
772.632	0.09
772.808	-0.19
772.983	-0.1
773.159	-0.23
773.334	0.2
773.509	0.02
773.685	-0.16
773.86	0.3
774.036	0.07
774.211	-0.03
774.386	-0.09
774.562	-0.08
774.737	0.12
774.912	-0.07
775.087	0.15
775.263	0.06
775.438	-0.03
775.613	-0.13
775.788	-0.05
775.964	0.15
776.139	0.49
776.314	-0.23
776.489	-0.02
776.664	0.16
776.839	-0.2
777.014	0.2
777.19	0.15
777.365	0.15
777.54	0.18
777.715	-0.07
777.89	0.01
778.065	-0.07
778.24	-0.07
778.415	0.08
778.59	-0.14
778.765	0.01
778.94	0.11
779.115	0.03
779.289	-0.03
779.464	-0.12
779.639	-0
779.814	-0.15
779.989	-0.24
780.164	0.18
780.339	-0.01
780.513	-0.06
780.688	-0.05
780.863	-0.07
781.038	0.2
781.212	-0.18
781.387	-0.04
781.562	0.31
781.737	-0.07
781.911	0.28
782.086	-0.28
782.261	-0.18
782.435	0.35
782.61	-0.03
782.784	-0.05
782.959	0.2
783.134	-0.1
783.308	-0.22
783.483	-0.1
783.657	0.31
783.832	0.2
784.006	-0.14
784.181	-0.09
784.355	0.14
784.53	-0.18
784.704	-0.25
784.878	0.22
785.053	-0.02
785.227	0.01
785.402	0.35
785.576	-0.32
785.75	-0.13
785.925	0.04
786.099	0.03
786.273	0.08
786.448	-0.03
786.622	0.08
786.796	0.11
786.97	0.08
787.145	0.61
787.319	-0.19
787.493	0.02
787.667	-0.42
787.841	0.01
788.015	0.21
788.19	-0.13
788.364	0.05
788.538	0.09
788.712	0.24
788.886	0.08
789.06	0.04
789.234	0.49
789.408	-0.17
789.582	-0.09
789.756	-0.14
789.93	-0.19
790.104	-0.04
790.278	-0.02
790.452	-0.41
790.626	0.21
790.8	-0.14
790.973	0.11
791.147	0.26
791.321	0.23
791.495	0.13
791.669	-0.12
791.843	0.12
792.016	0.33
792.19	0.52
792.364	-0.16
792.538	0.3
792.711	0.34
792.885	-0.2
793.059	-0.23
793.233	-0.3
793.406	0.39
793.58	-0.11
793.754	0.08
793.927	-0.19
794.101	0.25
794.274	-0.05
794.448	0.28
794.622	-0.35
794.795	0.27
794.969	-0.12
795.142	0.29
795.316	-0.04
795.489	-0.04
795.663	0.4
795.836	0.1
796.009	-0.39
796.183	0.15
796.356	0.23
796.53	0.12
796.703	0.04
796.876	0.51
797.05	-0.17
797.223	-0.23
797.396	-0.21
797.57	0.01
797.743	0.48
797.916	0.12
798.09	-0.04
798.263	0.18
798.436	0.15
798.609	-0.17
798.782	-0.18
798.956	0.23
799.129	0.05
799.302	-0.16
799.475	-0.09
799.648	-0.27
799.821	-0.07
799.994	0.11
800.167	-0.37
800.34	0.02
800.514	0.13
800.687	-0.36
800.86	-0.17
801.033	0.04
801.206	-0.02
801.379	-0.44
801.551	0.5
801.724	0.38
801.897	0.52
802.07	-0.22
802.243	-0.32
802.416	0.18
802.589	-0.04
802.762	-0.06
802.935	0.1
803.107	0.25
803.28	0.21
803.453	0.27
803.626	-0.14
803.798	-0.02
803.971	-0.11
804.144	0.14
804.317	-0.09
804.489	0.34
804.662	-0.27
804.835	-0.02
805.007	-0.21
805.18	0.33
805.353	0
805.525	-0.25
805.698	-0.02
805.87	0.12
806.043	0.28
806.215	-0.34
806.388	0.01
806.56	0.35
806.733	0.08
806.905	0.22
807.078	-0.22
807.25	-0.08
807.423	0.15
807.595	0.03
807.768	0
807.94	0.29
808.112	0.21
808.285	0.28
808.457	-0.14
808.629	-0.04
808.802	0.05
808.974	0
809.146	-0.43
809.318	-0.2
809.491	0.29
809.663	-0.05
809.835	-0.06
810.007	0.34
810.18	-0.05
810.352	-0.49
810.524	-0.16
810.696	0.17
810.868	0.37
811.04	-0.27
811.212	0.11
811.384	0.32
811.556	-0.08
811.728	-0.06
811.901	0.79
812.073	-0.09
812.245	0.16
812.417	-0.16
812.589	-0.53
812.76	-0.01
812.932	0.11
813.104	0.15
813.276	-0.08
813.448	0.14
813.62	-0.13
813.792	-0.02
813.964	-0.26
814.136	-0.08
814.307	-0.29
814.479	-0.59
814.651	-0.3
814.823	1.07
814.995	-0.19
815.166	0.02
815.338	-0.28
815.51	-0.61
815.681	0.67
815.853	0.03
816.025	0.28
816.196	0.8
816.368	-0.23
816.54	-0.64
816.711	-0.47
816.883	-0.15
817.054	0.68
817.226	-0.78
817.398	-0.24
817.569	-0.6
817.741	0.17
817.912	-0.08
818.084	-0.28
818.255	0.16
818.426	-0.28
818.598	-0.16
818.769	-0.5
818.941	0.38
819.112	0.9
819.283	0.1
819.455	-0.38
819.626	-0.14
819.798	0.04
819.969	0.45
820.14	-0.02
820.311	-0.61
820.483	-0.09
820.654	0.12
820.825	0.07
820.996	-0.33
821.168	-0.48
821.339	0.01
821.51	-0.5
821.681	-0.41
821.852	-0.01
822.023	-0.13
822.195	-0.53
822.366	0.51
822.537	-0.45
822.708	0.36
822.879	-0.26
823.05	0.99
823.221	-0.19
823.392	0.01
823.563	0.22
823.734	-0.2
823.905	0.23
824.076	-0.26
824.247	-0.45
824.418	-0.46
824.589	0.22
824.759	-0.1
824.93	-0.32
825.101	-0.33
825.272	0.22
825.443	0.44
825.614	0.43
825.784	-0.93
825.955	1.11
826.126	0.42
826.297	-0.18
826.467	0.74
826.638	0.5
826.809	-0.84
826.98	0.06
827.15	0.05
827.321	-0.31
827.492	0.63
827.662	0.25
827.833	0.53
828.003	0.28
828.174	-0.81
828.345	-0.41
828.515	0.36
828.686	-0.2
828.856	-0.42
829.027	-0.5
829.197	0.34
829.368	0.27
829.538	-0.6
829.709	-0.4
829.879	0.54
830.049	0.37
830.22	-0.13
830.39	0.28
830.56	0.09
830.731	-0.31
830.901	-0.31
831.072	-0.11
831.242	0.96
831.412	-0.39
831.582	-0.14
831.753	-1.21
831.923	0.71
832.093	0.81
832.263	-0.29
832.434	-0.66
832.604	-0.27
832.774	0.76
832.944	0.13
833.114	-0.39
833.284	0.46
833.454	-0.59
833.624	-0.02
833.795	-0.42
833.965	0.65
834.135	0.67
834.305	-1.01
834.475	-0.87
834.645	-0.27
834.815	-0.24
834.985	0.07
835.155	-0.86
835.325	-0.31
835.494	0.33
835.664	-0.14
835.834	-0.73
836.004	0.03
836.174	1.06
836.344	-0.25
836.514	-0.75
836.684	-0.44
836.853	0.23
837.023	-0.12
837.193	-0.15
837.363	0.63
837.532	0.47
837.702	-0.01
837.872	-0.88
838.041	1.07
838.211	2.02
838.381	-1.16
838.55	0.53
838.72	2.29
838.89	1.44
839.059	0.18
839.229	-0.49
839.398	0.91
839.568	0.78
839.738	-0.26
839.907	0.59
840.077	0.6
840.246	-1.22
840.416	-0.19
840.585	-1.29
840.755	1.15
840.924	1.03
841.093	-0.46
841.263	-0.43
841.432	-0.23
841.602	-0.86
841.771	-0.75
841.94	-0.12
842.11	0.97
842.279	1.87
842.448	-0.88
842.617	-0.74
842.787	1.36
842.956	-1.24
843.125	-0.49
843.294	-0.07
843.464	0.54
843.633	0.41
843.802	-0.79
843.971	-0.41
844.14	1.04
844.309	0.22
844.479	-0.34
844.648	-1.28
844.817	0.16
844.986	0.29
845.155	-0.54
845.324	-1.21
845.493	-0.11
845.662	-0.72
845.831	0.2
846	0.45
846.169	0.14
846.338	1.57
846.507	-0.41
846.676	0.32
846.844	-0.44
847.013	1.74
847.182	0.22
847.351	-0.39
847.52	0.2
847.689	0.62
847.858	0.16
848.026	-0.33
848.195	-0.39
848.364	0.18
848.533	-0.8
848.701	-0.5
848.87	0.23
849.039	0.72
849.207	1.28
849.376	1.47
849.545	1.29
849.713	-0.7
849.882	-0.93
850.051	-0.24
850.219	0.42
850.388	-0.45
850.556	-0.4
850.725	-1.39
850.893	0.08
851.062	-0.7
851.23	0.31
851.399	-0.85
851.567	-0.5
851.736	-0.21
851.904	-1.12
852.073	-0.14
852.241	1.34
852.41	-0.43
852.578	-0.57
852.746	-1.37
852.915	0.86
853.083	-0.26
853.251	-1.25
853.42	-1.04
853.588	0.33
853.756	0.66
853.924	-0.55
854.093	-0.19
854.261	-0.34
854.429	-1.22
854.597	0.28
854.765	-0.77
854.934	0.72
855.102	0.87
855.27	0.43
855.438	0.72
855.606	0.09
855.774	0.68
855.942	-1.06
856.11	-1.1
856.278	-0.26
856.446	0.78
856.614	-0.33
856.782	-0.95
856.95	1.86
857.118	0.81
857.286	0.02
857.454	-1.12
857.622	1.54
857.79	-0.31
857.958	0.06
858.126	0.12
858.294	-1.43
858.462	0.39
858.629	-1.02
858.797	-1.84
858.965	0.24
859.133	0.55
859.301	-0.24
859.468	0.12
859.636	-0.05
859.804	1.06
859.971	1.06
860.139	-1.25
860.307	1.5
860.474	-0.39
860.642	-1.4
860.81	-1.01
860.977	-0.88
861.145	1.66
861.313	-0.95
861.48	-0.38
861.648	0.91
861.815	-0.9
861.983	-1.28
862.15	1.25
862.318	1.33
862.485	0.65
862.653	-1.05
862.82	-0.71
862.988	2.35
863.155	1.36
863.322	-0.49
863.49	-0.99
863.657	-1.57
863.824	2.03
863.992	1.21
864.159	-0.29
864.326	2.29
864.494	-0.17
864.661	3.26
864.828	-1.49
864.996	0.85
865.163	1.69
865.33	-1.19
865.497	-3.72
865.664	-0.86
865.832	-1.77
865.999	-1.14
866.166	-2.34
866.333	-0.82
866.5	-1.72
866.667	1.92
866.834	-1.04
867.001	3.03
867.168	-2.07
867.335	0.74
867.502	-2.12
867.669	0.32
867.836	2.3
868.003	0.43
868.17	1.23
868.337	-1.92
868.504	4
868.671	-2.21
868.838	-0.51
869.005	-0.53
869.172	0.28
869.339	-0.11
869.505	-0.4
869.672	0.99
869.839	2.22
870.006	-0.13
870.173	-2.59
870.339	0.3
870.506	1.78
870.673	-1.09
870.84	0.06
871.006	0.16
871.173	-0.14
871.34	-0.74
871.506	-0.8
871.673	0.37
871.839	-1.34
872.006	-0.56
872.173	-0.07
872.339	-0.4
872.506	2.18
872.672	-0.62
872.839	-2.45
873.005	-1.38
873.172	2.27
873.338	-0.13
873.505	-0.86
873.671	3.3
873.838	0.13
874.004	-1.14
874.171	-2.74
874.337	1.4
874.503	0.82
874.67	-0.1
874.836	-1.05
875.002	2.02
875.169	2.45
875.335	0.92
875.501	-0.9
875.668	0.51
875.834	1.74
876	-0.48
876.166	1.02
876.332	0.43
876.499	2.99
876.665	0.03
876.831	-0.18
876.997	3
877.163	-0.42
877.329	-1.59
877.495	-0.02
877.662	0.31
877.828	0.38
877.994	-0.76
878.16	-4.07
878.326	-0.98
878.492	-0.45
878.658	-1.08
878.824	2.12
878.99	0.98
879.156	-0.62
879.322	1.21
879.487	0.33
879.653	0.69
879.819	-0.62
879.985	-2.47
880.151	-0
880.317	-0
880.483	0.47
880.648	1.21
880.814	-2.76
880.98	1.84
881.146	-2.67
881.312	-1.78
881.477	-0.13
881.643	0.69
881.809	0.86
881.974	0.77
882.14	-2.48
882.306	-1.49
882.471	2.48
882.637	-1.09
882.803	-0.26
882.968	3.55
883.134	2.06
883.299	-0.21
883.465	-1.36
883.63	1.08
883.796	1.94
883.961	1.24
884.127	0.91
884.292	-4.46
884.458	-2.68
884.623	-2.67
