Data from Apollo_Calib_20240827__AbsoluteIrradiance__661__10-10-00-054.txt Node

Date: Wed Aug 28 10:10:00 BST 2024
User: biology
Spectrometer: FLMT08252
Trigger mode: 0
Integration Time (sec): 5.000000E-1
Scans to average: 5
Electric dark correction enabled: true
Nonlinearity correction enabled: false
Boxcar width: 0
XAxis mode: Wavelengths
Number of Pixels in Spectrum: 3648
>>>>>Begin Spectral Data<<<<<
179.588	-0
179.809	-0
180.03	-0
180.251	-0
180.473	-0
180.694	0
180.915	0
181.136	-0
181.357	0
181.578	-0
181.799	-0
182.02	-0
182.241	0
182.462	-0
182.683	0
182.904	-0
183.125	-0
183.346	0
183.567	-0
183.788	-0
184.009	-0
184.23	0
184.451	0
184.672	-0
184.892	-0
185.113	0
185.334	0
185.555	-0
185.776	-0
185.996	0
186.217	0
186.438	0
186.659	-0
186.879	-0
187.1	-0
187.321	-0
187.541	-0
187.762	0
187.983	-0
188.203	-0
188.424	0
188.644	-0
188.865	0
189.086	0
189.306	-0
189.527	0
189.747	0
189.968	0
190.188	0
190.409	0
190.629	0
190.849	-0
191.07	-0
191.29	0
191.511	0
191.731	-0
191.951	-0
192.172	-0
192.392	-0
192.612	0
192.833	0
193.053	0
193.273	0
193.493	0
193.714	0
193.934	0
194.154	0
194.374	0
194.594	0
194.815	-0
195.035	0
195.255	0
195.475	-0
195.695	0
195.915	0
196.135	-0
196.355	0
196.575	0
196.795	0
197.015	-0
197.235	-0
197.455	-0
197.675	0
197.895	0
198.115	-0
198.335	0
198.555	-0
198.775	0
198.995	0
199.214	0
199.434	0
199.654	-0
199.874	-0
200.094	1.41
200.313	-0.49
200.533	-0.26
200.753	-0.19
200.973	0.56
201.192	0.56
201.412	-0.35
201.632	0.14
201.851	0.45
202.071	-0.66
202.291	-0.04
202.51	-0.41
202.73	0.49
202.95	-0.13
203.169	0.17
203.389	0.31
203.608	0.19
203.828	-0.16
204.047	-0.43
204.267	0.58
204.486	0.06
204.706	0.28
204.925	0.25
205.145	-0.36
205.364	0.19
205.583	0.85
205.803	-0.06
206.022	-0.26
206.242	0.09
206.461	0.12
206.68	-0.24
206.9	-0.04
207.119	0.47
207.338	0.31
207.557	-0.28
207.777	-0.14
207.996	-0.12
208.215	0.58
208.434	-0.07
208.654	-0.19
208.873	0.02
209.092	0.41
209.311	0.08
209.53	-0.04
209.749	0.07
209.968	-0.14
210.187	-0.04
210.407	-0.49
210.626	-0.14
210.845	0.29
211.064	0.16
211.283	0.03
211.502	0.23
211.721	0.04
211.94	-0.07
212.159	0.34
212.377	0.27
212.596	0.39
212.815	0.13
213.034	0.05
213.253	0.18
213.472	0.18
213.691	0.04
213.91	0.03
214.128	-0.31
214.347	0.44
214.566	-0.13
214.785	-0.32
215.003	0.31
215.222	0.15
215.441	0.08
215.66	-0.24
215.878	0.32
216.097	0.26
216.316	-0.35
216.534	0.09
216.753	0.43
216.972	-0.04
217.19	0.15
217.409	-0.05
217.627	-0.08
217.846	-0.02
218.064	0.05
218.283	-0.1
218.501	0.48
218.72	0.08
218.938	-0.19
219.157	-0.07
219.375	0.11
219.594	0.3
219.812	-0.18
220.031	-0.16
220.249	0.33
220.467	0.33
220.686	-0.1
220.904	-0.07
221.122	-0.11
221.341	0.23
221.559	-0.07
221.777	-0.04
221.995	0.08
222.214	0.15
222.432	-0.15
222.65	0.08
222.868	-0.04
223.086	0.13
223.305	0.17
223.523	0.08
223.741	0.32
223.959	-0.1
224.177	-0.08
224.395	-0.23
224.613	0.04
224.831	0.16
225.049	-0.14
225.267	-0.05
225.485	-0.04
225.703	0.01
225.921	-0.03
226.139	-0.02
226.357	0.1
226.575	0.13
226.793	-0.07
227.011	0.37
227.229	-0.04
227.447	0.14
227.665	-0.07
227.883	-0.16
228.1	0.03
228.318	0.11
228.536	-0.25
228.754	-0.1
228.972	0.12
229.189	0.2
229.407	-0.08
229.625	-0.06
229.843	0.11
230.06	0.2
230.278	0
230.496	-0.02
230.713	0.06
230.931	0.27
231.149	-0.06
231.366	-0.18
231.584	0.11
231.801	0.34
232.019	-0.09
232.236	-0.2
232.454	-0.14
232.671	0.04
232.889	0.05
233.106	-0.06
233.324	0.03
233.541	0.01
233.759	-0.01
233.976	-0.12
234.194	0.04
234.411	-0.02
234.628	-0.09
234.846	0.03
235.063	0.03
235.28	-0.05
235.498	0.06
235.715	-0.12
235.932	0.14
236.149	0.09
236.367	0
236.584	0.03
236.801	-0.01
237.018	0.05
237.236	0.16
237.453	-0.18
237.67	0.07
237.887	0.03
238.104	-0.06
238.321	-0.01
238.538	-0.12
238.755	0.07
238.973	-0.1
239.19	0
239.407	0.13
239.624	0.06
239.841	-0.06
240.058	-0.06
240.275	0.1
240.492	-0.04
240.709	-0.06
240.925	0.01
241.142	0.03
241.359	-0.09
241.576	-0.02
241.793	-0.02
242.01	0.04
242.227	0.15
242.444	0.06
242.66	0.1
242.877	0.07
243.094	-0.06
243.311	0.08
243.527	0.08
243.744	-0.02
243.961	0.07
244.178	-0.01
244.394	0.01
244.611	0.13
244.828	0.21
245.044	-0.04
245.261	0.06
245.477	0.08
245.694	-0
245.911	-0.06
246.127	0.05
246.344	0.14
246.56	0.01
246.777	-0.01
246.993	0.03
247.21	0.09
247.426	-0.01
247.643	-0.07
247.859	-0.12
248.076	0.01
248.292	0.16
248.508	-0.04
248.725	0
248.941	0.08
249.157	0.16
249.374	-0
249.59	0
249.806	0.03
250.023	0.02
250.239	-0.03
250.455	-0.11
250.671	0.02
250.888	0.09
251.104	0.02
251.32	0.03
251.536	0.02
251.752	0.07
251.969	-0
252.185	-0.03
252.401	0.17
252.617	0.03
252.833	0.01
253.049	0.05
253.265	0.03
253.481	-0.01
253.697	-0.04
253.913	-0.03
254.129	0.03
254.345	0.03
254.561	-0.04
254.777	0.06
254.993	0.08
255.209	0.02
255.425	-0.01
255.641	-0.01
255.857	0.12
256.073	0.04
256.288	-0.07
256.504	-0.01
256.72	0.05
256.936	0.07
257.152	0.04
257.367	-0.06
257.583	-0.02
257.799	0.08
258.015	-0.05
258.23	-0.04
258.446	0.15
258.662	-0.02
258.877	-0.04
259.093	-0.1
259.309	0.07
259.524	0.04
259.74	-0.04
259.955	-0.06
260.171	0.04
260.387	0.06
260.602	0.06
260.818	0.07
261.033	-0.08
261.249	0.03
261.464	-0.01
261.68	-0.09
261.895	0.04
262.11	0.09
262.326	0.02
262.541	-0.09
262.757	0.09
262.972	0.03
263.187	-0
263.403	0.03
263.618	0.09
263.833	0.02
264.049	-0.07
264.264	0
264.479	0.08
264.694	0.11
264.91	-0.07
265.125	0.01
265.34	0.09
265.555	0.16
265.77	0.09
265.986	0.06
266.201	0.02
266.416	0.12
266.631	0.02
266.846	-0.01
267.061	0.01
267.276	-0.01
267.491	-0.17
267.706	0.03
267.921	0.03
268.136	0.07
268.351	-0
268.566	-0.04
268.781	0.13
268.996	0.05
269.211	-0
269.426	-0.02
269.641	0.03
269.856	-0.02
270.071	-0.01
270.285	-0.06
270.5	0.09
270.715	0.09
270.93	-0.02
271.145	0.06
271.359	0.07
271.574	-0.04
271.789	-0.02
272.004	-0.03
272.218	-0.02
272.433	0.09
272.648	0
272.862	0.07
273.077	-0.01
273.292	0.03
273.506	-0
273.721	0.04
273.936	0.09
274.15	0.05
274.365	-0.04
274.579	0.06
274.794	0.11
275.008	0.11
275.223	-0.06
275.437	0.03
275.652	0.06
275.866	0.07
276.081	0.04
276.295	0.1
276.509	0.04
276.724	-0.03
276.938	0.06
277.153	0.04
277.367	0.11
277.581	-0.03
277.796	0.04
278.01	0.01
278.224	0.07
278.438	0.19
278.653	-0.07
278.867	-0.01
279.081	-0.16
279.295	0.04
279.51	0.06
279.724	-0.06
279.938	0.09
280.152	0.07
280.366	-0.08
280.58	-0.04
280.794	0.15
281.008	0.05
281.222	0.1
281.437	0.15
281.651	0.01
281.865	0.1
282.079	0.02
282.293	-0.09
282.507	-0.05
282.721	-0.01
282.935	0.02
283.148	-0.09
283.362	0.01
283.576	-0.05
283.79	-0.01
284.004	-0.04
284.218	0.04
284.432	-0.03
284.646	-0.02
284.859	-0
285.073	0.05
285.287	0.01
285.501	-0.01
285.714	0.02
285.928	0.05
286.142	0.04
286.356	0
286.569	0.01
286.783	0.1
286.997	0.05
287.21	0.02
287.424	-0
287.637	0.04
287.851	0
288.065	0.1
288.278	0.01
288.492	-0
288.705	0.05
288.919	0.06
289.132	-0.04
289.346	0.09
289.559	-0.07
289.773	-0.07
289.986	-0.01
290.2	0.05
290.413	0.07
290.626	-0.05
290.84	0.03
291.053	-0.03
291.267	0.04
291.48	0.01
291.693	0.04
291.906	-0.04
292.12	-0.03
292.333	-0.05
292.546	-0.04
292.76	0.1
292.973	-0.01
293.186	0.04
293.399	-0.06
293.612	0.11
293.826	0
294.039	0.02
294.252	-0.03
294.465	0.02
294.678	0.03
294.891	0.01
295.104	-0.02
295.317	0.02
295.53	0.01
295.743	-0.01
295.956	0.05
296.169	0.12
296.382	0.07
296.595	0.01
296.808	-0.05
297.021	0.07
297.234	0.04
297.447	0.02
297.66	0.06
297.873	0.06
298.086	0.02
298.299	-0
298.511	-0.03
298.724	0.02
298.937	-0.02
299.15	-0.02
299.363	0.02
299.575	0.01
299.788	0.06
300.001	0
300.213	-0.01
300.426	-0.02
300.639	-0.02
300.852	-0.02
301.064	0.09
301.277	0.06
301.489	0.05
301.702	0.08
301.915	0.04
302.127	0.01
302.34	0.01
302.552	0.06
302.765	0.03
302.977	0.04
303.19	-0.02
303.402	-0.03
303.615	0.02
303.827	-0.01
304.04	0.02
304.252	0.05
304.464	-0.04
304.677	0.15
304.889	0.09
305.102	-0.02
305.314	-0.03
305.526	0.09
305.739	0.02
305.951	-0.03
306.163	0.02
306.375	0.09
306.588	-0.01
306.8	-0.06
307.012	-0.01
307.224	0.03
307.436	0.03
307.649	-0.06
307.861	0.02
308.073	0.05
308.285	-0
308.497	-0.03
308.709	0.01
308.921	0.01
309.133	0.04
309.346	0.03
309.558	0.04
309.77	0.04
309.982	0.1
310.194	0.04
310.406	0
310.617	0.09
310.829	-0
311.041	0.06
311.253	-0
311.465	-0.01
311.677	0.03
311.889	0.02
312.101	-0
312.313	0.05
312.524	0.07
312.736	-0.04
312.948	0.01
313.16	0.08
313.372	0.05
313.583	0.03
313.795	-0.04
314.007	-0.03
314.218	0.03
314.43	0.02
314.642	0.01
314.853	-0.07
315.065	0.03
315.277	-0.05
315.488	0
315.7	0.04
315.912	0.01
316.123	-0.04
316.335	0.02
316.546	0.1
316.758	-0.04
316.969	-0
317.181	0.06
317.392	0.02
317.604	0.06
317.815	-0.01
318.026	0.01
318.238	-0
318.449	-0.02
318.661	-0.04
318.872	-0.05
319.083	-0.02
319.295	0.05
319.506	-0.02
319.717	-0.01
319.929	0.03
320.14	0.02
320.351	0.02
320.562	0.02
320.774	-0.02
320.985	0.03
321.196	-0.02
321.407	-0.05
321.618	0.04
321.829	0.05
322.041	0.03
322.252	0.03
322.463	0.06
322.674	0.06
322.885	-0.05
323.096	-0.01
323.307	0.01
323.518	0.01
323.729	-0.02
323.94	-0.03
324.151	0.02
324.362	0.09
324.573	0.04
324.784	-0.02
324.995	0.02
325.206	0.01
325.417	-0.01
325.628	-0.01
325.838	0
326.049	-0.02
326.26	0.05
326.471	0.01
326.682	0.05
326.892	0.04
327.103	-0.06
327.314	-0.01
327.525	0
327.735	-0
327.946	0
328.157	0.03
328.368	0.01
328.578	-0.03
328.789	0.03
328.999	0
329.21	0.02
329.421	0.02
329.631	-0.03
329.842	-0.04
330.052	0.06
330.263	0.02
330.473	0.03
330.684	0.02
330.894	0
331.105	0.01
331.315	0.05
331.526	-0.05
331.736	0.06
331.947	0.03
332.157	0.05
332.367	-0.03
332.578	0.08
332.788	0.06
332.999	0.03
333.209	0.02
333.419	-0.04
333.629	0.05
333.84	0.03
334.05	0.02
334.26	0.03
334.47	0.02
334.681	0.08
334.891	0.01
335.101	0.07
335.311	0.09
335.521	-0
335.732	-0.03
335.942	0.06
336.152	0.05
336.362	0.03
336.572	-0.01
336.782	0.04
336.992	0
337.202	0
337.412	-0.09
337.622	0.07
337.832	0.04
338.042	0.01
338.252	-0.01
338.462	-0.02
338.672	0.06
338.882	0.02
339.092	0.03
339.302	0.1
339.511	0.02
339.721	-0.06
339.931	-0.05
340.141	0.05
340.351	0.05
340.561	0.05
340.77	0.01
340.98	0.03
341.19	0.04
341.4	0
341.609	-0.02
341.819	-0.01
342.029	-0.07
342.238	0.01
342.448	-0
342.658	0.02
342.867	0.03
343.077	0.02
343.286	0.02
343.496	-0
343.706	0.05
343.915	-0.04
344.125	0.02
344.334	0.01
344.544	-0
344.753	-0
344.963	-0
345.172	-0.01
345.381	-0.02
345.591	-0.01
345.8	0.01
346.01	0.03
346.219	0.06
346.428	-0.15
346.638	0.02
346.847	0.01
347.056	0.06
347.266	0
347.475	0
347.684	0.03
347.893	0.05
348.103	0
348.312	-0.01
348.521	-0.03
348.73	0.05
348.94	0.02
349.149	0.01
349.358	0.02
349.567	0
349.776	-0.02
349.985	-0.03
350.194	0.05
350.403	0.04
350.612	-0.03
350.821	0.01
351.03	0.02
351.239	-0.04
351.448	-0.01
351.657	-0.01
351.866	0.09
352.075	-0.01
352.284	0.09
352.493	-0.03
352.702	0.07
352.911	0.06
353.12	0.03
353.329	-0.03
353.538	0.02
353.746	0.03
353.955	-0.03
354.164	0.06
354.373	0.01
354.582	0.03
354.79	-0
354.999	0.07
355.208	0
355.416	0.08
355.625	-0.03
355.834	0
356.042	0.01
356.251	0.01
356.46	-0.02
356.668	0.04
356.877	0.07
357.085	0.07
357.294	-0.04
357.503	0.01
357.711	0.02
357.92	0.11
358.128	0.03
358.337	0.01
358.545	0.02
358.754	-0.03
358.962	0.05
359.17	-0.02
359.379	0.03
359.587	0.07
359.796	-0.01
360.004	0.05
360.212	0.02
360.421	0.05
360.629	-0.01
360.837	-0.02
361.046	0.02
361.254	0.11
361.462	0.03
361.67	-0.03
361.879	0.01
362.087	0.05
362.295	0.01
362.503	-0.01
362.711	-0.06
362.92	-0.01
363.128	-0.06
363.336	-0.01
363.544	-0.03
363.752	0
363.96	-0
364.168	-0.05
364.376	-0
364.584	0.03
364.792	0.02
365	-0
365.208	0.02
365.416	-0
365.624	0.04
365.832	-0.04
366.04	0.07
366.248	-0.02
366.456	0.01
366.664	0.05
366.872	0.05
367.079	0
367.287	0.03
367.495	0
367.703	-0.02
367.911	0.01
368.118	-0.05
368.326	0.04
368.534	-0.01
368.742	0.04
368.949	-0.03
369.157	0.01
369.365	0.07
369.572	-0.02
369.78	0
369.988	0.03
370.195	0.02
370.403	0.03
370.61	0
370.818	0.03
371.026	0.07
371.233	-0.05
371.441	0.01
371.648	-0.03
371.856	-0
372.063	0.03
372.271	-0.01
372.478	-0.02
372.685	-0
372.893	0.07
373.1	-0.04
373.308	-0.02
373.515	0.05
373.722	0.03
373.93	-0.01
374.137	0.01
374.344	0.07
374.552	-0
374.759	0.04
374.966	0.01
375.173	-0.01
375.381	0.05
375.588	0
375.795	-0.05
376.002	-0
376.209	-0.03
376.417	-0.01
376.624	0.06
376.831	0.01
377.038	0.01
377.245	-0.07
377.452	-0.03
377.659	0.05
377.866	0
378.073	0.04
378.28	0.01
378.487	0.04
378.694	0.02
378.901	-0.02
379.108	0
379.315	0.04
379.522	0.09
379.729	-0
379.936	-0.03
380.143	0.03
380.35	0.03
380.557	-0.02
380.763	-0
380.97	0
381.177	0.02
381.384	0.05
381.591	-0.05
381.797	0.01
382.004	0.03
382.211	0.06
382.418	-0.04
382.624	0.04
382.831	0.05
383.038	-0.04
383.244	0.03
383.451	0.01
383.658	0.01
383.864	-0.01
384.071	-0.03
384.277	0.08
384.484	-0.03
384.69	0.06
384.897	0
385.103	-0.02
385.31	-0.04
385.516	0.04
385.723	-0.02
385.929	0
386.136	-0
386.342	0.02
386.549	-0
386.755	0.03
386.961	0.03
387.168	0.04
387.374	0
387.58	0.09
387.787	0.02
387.993	0.02
388.199	-0.01
388.406	-0.01
388.612	0.01
388.818	-0.03
389.024	-0.03
389.231	0.03
389.437	0.06
389.643	0.03
389.849	-0.01
390.055	-0.01
390.261	0.02
390.467	0.01
390.674	-0.04
390.88	-0.02
391.086	0.03
391.292	-0.04
391.498	0.05
391.704	0.03
391.91	-0.01
392.116	-0.03
392.322	-0.05
392.528	0.04
392.734	-0.03
392.94	-0
393.146	0.01
393.352	0.02
393.557	-0.02
393.763	0.02
393.969	0.01
394.175	-0
394.381	0.05
394.587	-0.02
394.792	-0.01
394.998	0.03
395.204	0.08
395.41	-0.03
395.615	0.03
395.821	0.01
396.027	0.02
396.233	-0.03
396.438	0.02
396.644	0.11
396.85	0.03
397.055	0.01
397.261	0.01
397.466	0.01
397.672	0.02
397.878	0.05
398.083	0.03
398.289	0.06
398.494	0.01
398.7	-0
398.905	-0.04
399.111	0.09
399.316	-0.03
399.522	0.02
399.727	0.03
399.932	-0.02
400.138	-0.04
400.343	0.06
400.549	-0
400.754	-0.02
400.959	-0.01
401.165	-0.01
401.37	0.03
401.575	-0.04
401.78	0
401.986	-0.01
402.191	-0.03
402.396	0.02
402.601	0.03
402.807	0.02
403.012	-0
403.217	0.03
403.422	-0.01
403.627	0
403.832	0.02
404.037	0.02
404.243	0.07
404.448	-0.04
404.653	-0.02
404.858	0.04
405.063	0.07
405.268	0
405.473	-0.05
405.678	-0.03
405.883	0.13
406.088	0.03
406.293	-0.05
406.498	-0.02
406.703	0.03
406.907	0.04
407.112	-0.01
407.317	0.03
407.522	0.05
407.727	-0.04
407.932	0.03
408.136	0.08
408.341	0.01
408.546	-0.01
408.751	0.01
408.956	-0.01
409.16	0.04
409.365	-0.03
409.57	0
409.774	0.02
409.979	-0.02
410.184	0.04
410.388	-0.04
410.593	0.07
410.798	-0
411.002	-0.01
411.207	0.04
411.411	-0.01
411.616	-0.02
411.82	-0.01
412.025	-0
412.229	-0.05
412.434	0.06
412.638	-0.01
412.843	-0.04
413.047	0.03
413.252	-0.04
413.456	-0.02
413.66	0.08
413.865	-0.05
414.069	0.09
414.273	-0.04
414.478	-0.03
414.682	-0.07
414.886	0.01
415.091	-0.07
415.295	-0.06
415.499	0.03
415.703	0.04
415.908	-0.02
416.112	-0.08
416.316	0
416.52	-0.03
416.724	-0.02
416.929	-0.03
417.133	0.12
417.337	-0.02
417.541	-0.04
417.745	-0.03
417.949	0.03
418.153	0.03
418.357	-0.07
418.561	0.06
418.765	-0.03
418.969	0.11
419.173	0.07
419.377	-0.02
419.581	0.06
419.785	-0.03
419.989	-0
420.193	-0.02
420.397	0.04
420.601	0.08
420.804	0.01
421.008	-0
421.212	0.04
421.416	0.07
421.62	-0.03
421.823	-0.04
422.027	0.11
422.231	-0.01
422.435	-0.01
422.638	0.02
422.842	0.01
423.046	-0.04
423.249	0.05
423.453	0.08
423.657	0
423.86	-0.02
424.064	-0.04
424.268	0.04
424.471	0.01
424.675	0.11
424.878	0.11
425.082	0.02
425.285	0.03
425.489	0.02
425.692	0.05
425.896	-0.03
426.099	0.06
426.303	-0.04
426.506	-0.06
426.71	0.02
426.913	0.06
427.116	0.02
427.32	-0.01
427.523	-0.03
427.726	0.13
427.93	-0.07
428.133	0.02
428.336	-0.06
428.54	-0.05
428.743	0.03
428.946	0.02
429.149	-0.04
429.353	-0.02
429.556	-0
429.759	-0.02
429.962	-0.06
430.165	-0.02
430.368	0
430.571	-0.06
430.775	0.03
430.978	-0.02
431.181	0
431.384	0.03
431.587	-0.02
431.79	0
431.993	-0
432.196	-0.03
432.399	-0.02
432.602	0.1
432.805	-0.01
433.008	-0.02
433.211	-0.06
433.414	0.04
433.616	0.05
433.819	-0.01
434.022	-0.08
434.225	0.04
434.428	0.04
434.631	0.08
434.833	-0.02
435.036	0.03
435.239	0.07
435.442	-0
435.645	0
435.847	0.02
436.05	0.03
436.253	0.03
436.455	-0.01
436.658	-0.02
436.861	0.04
437.063	-0.05
437.266	-0.04
437.468	0.04
437.671	0.11
437.874	0.03
438.076	-0.05
438.279	-0.06
438.481	0.01
438.684	-0.03
438.886	0.01
439.089	-0.03
439.291	-0.01
439.494	0.01
439.696	0
439.899	-0.02
440.101	-0.02
440.303	-0.03
440.506	0.05
440.708	0.04
440.91	-0.02
441.113	-0.05
441.315	0
441.517	-0.03
441.72	0.02
441.922	-0.04
442.124	-0.04
442.326	0.06
442.529	0.06
442.731	-0.01
442.933	0.08
443.135	-0.01
443.337	-0.04
443.539	0.01
443.742	0.01
443.944	-0.01
444.146	-0.04
444.348	-0
444.55	0
444.752	-0.02
444.954	-0.03
445.156	0
445.358	-0.04
445.56	0.07
445.762	0.03
445.964	0.02
446.166	-0.03
446.368	-0.06
446.57	0.08
446.772	-0.01
446.974	0.02
447.175	0.01
447.377	-0.02
447.579	-0.06
447.781	-0.11
447.983	0.03
448.184	-0.01
448.386	0.03
448.588	-0.08
448.79	-0.01
448.991	-0.02
449.193	-0.04
449.395	-0
449.597	0.07
449.798	0.06
450	0.02
450.202	-0.01
450.403	-0.02
450.605	0.03
450.806	0
451.008	-0.02
451.21	0.02
451.411	0.02
451.613	0.02
451.814	-0.02
452.016	0.04
452.217	0.01
452.419	0.05
452.62	0.03
452.821	0.03
453.023	0.05
453.224	0.07
453.426	-0.01
453.627	0.01
453.828	0.06
454.03	-0.03
454.231	-0.02
454.432	-0.01
454.634	0.06
454.835	-0.02
455.036	-0.04
455.238	0.03
455.439	0.04
455.64	-0.03
455.841	-0.02
456.042	0.07
456.244	0.06
456.445	-0.02
456.646	-0.06
456.847	-0.04
457.048	0.05
457.249	0.04
457.45	0.16
457.651	-0.05
457.852	0.02
458.054	0.02
458.255	0.03
458.456	0.02
458.657	0.01
458.858	0.02
459.058	0
459.259	0.08
459.46	-0.01
459.661	-0.01
459.862	0.04
460.063	0.05
460.264	0.07
460.465	-0.04
460.666	0.1
460.866	0
461.067	0.02
461.268	-0.02
461.469	-0.01
461.67	0.02
461.87	-0.01
462.071	-0.02
462.272	-0.03
462.473	0.02
462.673	-0.01
462.874	-0.07
463.075	0
463.275	-0.04
463.476	0
463.676	0.02
463.877	0.01
464.078	0.01
464.278	0.04
464.479	0.01
464.679	0.04
464.88	-0.01
465.08	0.07
465.281	-0.04
465.481	-0.03
465.682	-0.05
465.882	0.06
466.083	-0.01
466.283	-0.03
466.483	0.03
466.684	-0.05
466.884	-0.02
467.085	-0.05
467.285	0.01
467.485	-0.06
467.686	-0.04
467.886	0
468.086	0
468.286	0.01
468.487	0.03
468.687	-0.05
468.887	0
469.087	0.05
469.287	0.03
469.488	-0.05
469.688	0.01
469.888	-0
470.088	0.01
470.288	0.03
470.488	0.03
470.688	-0.03
470.888	-0.02
471.088	-0.04
471.288	0.06
471.488	0.01
471.688	0.02
471.888	-0.02
472.088	0.04
472.288	0.02
472.488	-0.02
472.688	-0.01
472.888	-0.01
473.088	-0.01
473.288	-0.02
473.488	0.01
473.688	0.08
473.887	0
474.087	-0.01
474.287	-0.01
474.487	-0.04
474.687	0.02
474.886	-0.01
475.086	-0
475.286	0.02
475.486	0.01
475.685	0
475.885	-0.03
476.085	-0.01
476.284	0.01
476.484	-0.04
476.684	0.03
476.883	0.03
477.083	0.01
477.282	-0.03
477.482	0.07
477.681	0.06
477.881	0.01
478.08	0
478.28	-0.01
478.479	0.04
478.679	0.07
478.878	-0.02
479.078	-0.02
479.277	0.02
479.477	-0.01
479.676	0.05
479.875	-0.01
480.075	-0.06
480.274	0.02
480.473	0.04
480.673	-0.04
480.872	0.04
481.071	0.02
481.271	-0.01
481.47	-0.02
481.669	0
481.868	-0.02
482.067	-0.03
482.267	-0.02
482.466	-0.03
482.665	-0.03
482.864	-0.04
483.063	-0.02
483.262	0.01
483.461	0.04
483.661	0.03
483.86	0.01
484.059	-0.01
484.258	0.02
484.457	0
484.656	-0.03
484.855	0.05
485.054	-0.04
485.253	-0.03
485.452	-0.04
485.651	-0.01
485.849	0
486.048	-0.01
486.247	-0.03
486.446	0.01
486.645	-0.03
486.844	-0.02
487.043	0.01
487.241	0
487.44	-0.03
487.639	-0.02
487.838	0
488.037	0.02
488.235	0.01
488.434	-0.01
488.633	-0.03
488.831	0.03
489.03	0.03
489.229	0.01
489.427	-0.02
489.626	0.04
489.825	0.05
490.023	-0.01
490.222	-0.01
490.42	0.01
490.619	0.05
490.817	0
491.016	-0
491.214	0.02
491.413	0.01
491.611	0
491.81	0.01
492.008	0.03
492.207	0
492.405	0.01
492.604	-0.04
492.802	0
493	0.01
493.199	-0.01
493.397	0
493.595	-0
493.794	-0.02
493.992	0.06
494.19	-0.02
494.388	0.04
494.587	-0.01
494.785	0.01
494.983	-0.01
495.181	-0.01
495.379	0
495.578	0
495.776	0
495.974	0
496.172	0
496.37	-0.03
496.568	-0.04
496.766	-0.02
496.964	0.03
497.162	0
497.36	-0.02
497.558	0.03
497.756	0.01
497.954	-0
498.152	-0.03
498.35	0.01
498.548	-0.02
498.746	0
498.944	-0.02
499.142	0
499.34	-0.04
499.538	-0.01
499.736	-0.03
499.933	0.03
500.131	0.03
500.329	0
500.527	0.02
500.725	0.04
500.922	0.03
501.12	-0
501.318	0.01
501.516	-0.01
501.713	0.01
501.911	0.01
502.109	-0.03
502.306	0
502.504	-0.01
502.701	-0.01
502.899	-0.01
503.097	0.03
503.294	-0.01
503.492	-0.03
503.689	0.01
503.887	0.01
504.084	0.04
504.282	0.01
504.479	-0.05
504.677	0.01
504.874	-0.02
505.072	-0.01
505.269	0
505.466	0.01
505.664	-0.02
505.861	-0.04
506.059	-0.04
506.256	0.01
506.453	-0.01
506.651	0.03
506.848	0.03
507.045	0
507.242	0.02
507.44	-0.01
507.637	-0
507.834	-0.02
508.031	0.03
508.229	-0.01
508.426	-0.01
508.623	0.02
508.82	-0.01
509.017	-0.02
509.214	-0.01
509.411	0.01
509.608	-0.04
509.805	-0.02
510.003	-0.02
510.2	-0.01
510.397	0.02
510.594	0
510.791	-0.02
510.988	0.02
511.184	0.01
511.381	0.01
511.578	-0.02
511.775	0.01
511.972	-0
512.169	0
512.366	-0.02
512.563	0
512.76	-0.02
512.956	0.03
513.153	-0.02
513.35	0.02
513.547	-0.02
513.744	-0.02
513.94	-0.02
514.137	0.05
514.334	-0.01
514.53	0
514.727	0.01
514.924	0.03
515.12	-0.01
515.317	-0.04
515.514	-0.02
515.71	-0.05
515.907	-0
516.103	0.02
516.3	0.03
516.497	-0
516.693	0.02
516.89	-0
517.086	-0.02
517.283	0.04
517.479	-0.01
517.676	-0.03
517.872	-0
518.068	-0.01
518.265	-0.01
518.461	-0.01
518.658	-0.01
518.854	0.02
519.05	-0.01
519.247	-0.01
519.443	-0.01
519.639	0.02
519.836	0
520.032	0.01
520.228	-0.01
520.424	0.03
520.621	-0.01
520.817	0.02
521.013	0.02
521.209	-0.01
521.405	0.05
521.601	0.01
521.798	0.01
521.994	0.03
522.19	-0.02
522.386	-0.02
522.582	0.01
522.778	0
522.974	-0.01
523.17	-0
523.366	-0.01
523.562	0.03
523.758	-0.01
523.954	-0.04
524.15	-0.02
524.346	0.02
524.542	-0.02
524.738	-0.01
524.934	-0.02
525.129	-0.09
525.325	0.01
525.521	0
525.717	0.02
525.913	-0
526.109	0
526.304	-0
526.5	0
526.696	0.02
526.892	-0.01
527.087	-0
527.283	-0.03
527.479	0.01
527.674	0
527.87	0
528.066	-0.02
528.261	0.03
528.457	0
528.653	-0.01
528.848	0.01
529.044	-0
529.239	0
529.435	0
529.63	0.01
529.826	0.03
530.021	0.03
530.217	0.02
530.412	-0.02
530.608	-0
530.803	0
530.999	-0
531.194	-0.04
531.389	0.01
531.585	-0.06
531.78	0.01
531.975	-0.01
532.171	0.02
532.366	0
532.561	-0.02
532.757	-0.01
532.952	-0.02
533.147	0.01
533.342	0
533.538	-0
533.733	0.03
533.928	-0.01
534.123	-0
534.318	-0.02
534.513	-0
534.709	-0.01
534.904	-0.01
535.099	-0.01
535.294	0.01
535.489	0.01
535.684	-0
535.879	0
536.074	-0
536.269	-0.02
536.464	0.02
536.659	-0.01
536.854	0.01
537.049	0.01
537.244	0.01
537.439	0.01
537.634	0.02
537.828	0.03
538.023	0
538.218	-0.03
538.413	0
538.608	-0.03
538.803	0.01
538.997	-0.04
539.192	0
539.387	0
539.582	0
539.776	0.01
539.971	-0.01
540.166	-0.01
540.36	-0.02
540.555	-0.01
540.75	-0.02
540.944	0.01
541.139	-0.02
541.334	0
541.528	0.02
541.723	0.03
541.917	-0.01
542.112	-0.04
542.306	-0.01
542.501	-0
542.695	-0
542.89	-0.03
543.084	-0.01
543.279	-0.02
543.473	0.02
543.668	-0
543.862	-0
544.056	0.02
544.251	0
544.445	-0
544.64	-0.03
544.834	-0.02
545.028	-0.01
545.222	0.02
545.417	0.02
545.611	0.01
545.805	-0.01
546	-0.01
546.194	-0.01
546.388	-0.03
546.582	0.01
546.776	0
546.97	-0
547.165	0
547.359	0.04
547.553	-0.01
547.747	0.01
547.941	0.02
548.135	-0.01
548.329	0.04
548.523	0.01
548.717	-0
548.911	-0.02
549.105	-0
549.299	0.01
549.493	0
549.687	0.03
549.881	0.01
550.075	-0.02
550.269	-0.04
550.463	0.01
550.657	-0.02
550.85	0.01
551.044	-0.01
551.238	0.02
551.432	-0.02
551.626	-0.04
551.82	0
552.013	-0.01
552.207	-0.01
552.401	0.01
552.594	-0.02
552.788	-0
552.982	0.02
553.176	-0
553.369	0.03
553.563	-0
553.756	-0.04
553.95	-0.02
554.144	-0
554.337	0.04
554.531	-0.01
554.724	0
554.918	0.01
555.111	0.01
555.305	-0
555.498	0.04
555.692	0.02
555.885	0
556.079	0.01
556.272	-0.01
556.466	0.01
556.659	-0.01
556.852	-0.01
557.046	-0
557.239	0.03
557.432	-0.03
557.626	-0.03
557.819	-0
558.012	0.01
558.206	0.05
558.399	-0.01
558.592	-0
558.785	0
558.979	0.03
559.172	0.01
559.365	0.02
559.558	-0
559.751	0.01
559.944	-0.01
560.138	0.01
560.331	-0.01
560.524	-0
560.717	-0.01
560.91	0
561.103	0.03
561.296	0.01
561.489	0.02
561.682	0.01
561.875	0.04
562.068	0.01
562.261	0.02
562.454	0.03
562.647	0.03
562.84	0.02
563.032	0.01
563.225	0
563.418	-0.01
563.611	0
563.804	0.01
563.997	-0.02
564.19	-0.03
564.382	-0.05
564.575	-0
564.768	0
564.961	-0.02
565.153	-0.04
565.346	0.04
565.539	0.04
565.731	0.01
565.924	0.03
566.117	0.01
566.309	-0.01
566.502	0
566.695	-0
566.887	0
567.08	-0.04
567.272	-0.01
567.465	-0.03
567.657	0
567.85	0.01
568.042	-0
568.235	0.02
568.427	-0
568.62	0
568.812	0.04
569.005	-0.02
569.197	-0.01
569.389	0.01
569.582	0.01
569.774	-0
569.966	-0.04
570.159	-0.02
570.351	0.02
570.543	0
570.736	-0.01
570.928	-0.04
571.12	0.01
571.312	-0.02
571.505	-0.03
571.697	0.02
571.889	-0.02
572.081	0
572.273	-0.01
572.465	0.03
572.658	-0
572.85	0.01
573.042	0.01
573.234	-0.01
573.426	0.01
573.618	-0.04
573.81	0.01
574.002	0.03
574.194	0.02
574.386	-0.04
574.578	-0.04
574.77	-0.02
574.962	0.02
575.154	-0.03
575.346	0.01
575.538	-0.01
575.729	-0.02
575.921	-0.01
576.113	-0.01
576.305	0.01
576.497	-0.02
576.689	0
576.88	-0.03
577.072	0.01
577.264	-0.01
577.456	0.01
577.647	-0.07
577.839	-0.01
578.031	0.04
578.223	-0.04
578.414	-0.03
578.606	0.04
578.798	-0.02
578.989	-0.02
579.181	-0.01
579.372	0.02
579.564	-0.02
579.755	-0
579.947	0
580.139	-0
580.33	-0.04
580.522	-0.01
580.713	-0.07
580.905	0
581.096	-0.02
581.287	0.01
581.479	-0.01
581.67	0.04
581.862	-0.02
582.053	-0.03
582.244	-0.03
582.436	-0.01
582.627	-0.01
582.818	-0.02
583.01	-0.04
583.201	0.02
583.392	0.05
583.583	0.01
583.775	-0.03
583.966	-0.03
584.157	0
584.348	-0.01
584.54	-0.03
584.731	0
584.922	-0.01
585.113	-0.03
585.304	-0
585.495	0.01
585.686	-0.01
585.877	0.03
586.068	0.01
586.259	0.03
586.45	-0.01
586.641	-0.04
586.832	-0.05
587.023	-0.01
587.214	-0.03
587.405	-0.02
587.596	-0
587.787	0.02
587.978	-0.02
588.169	-0.03
588.36	-0.03
588.551	0.01
588.742	-0.04
588.932	0.01
589.123	-0.01
589.314	0.02
589.505	-0.01
589.696	0.02
589.886	-0.02
590.077	-0.05
590.268	-0.03
590.458	-0.03
590.649	-0.05
590.84	0.02
591.03	-0.03
591.221	-0.06
591.412	-0.04
591.602	0.01
591.793	0.02
591.984	-0.04
592.174	-0.01
592.365	0.06
592.555	-0.03
592.746	0.02
592.936	0
593.127	0.02
593.317	0.01
593.508	-0.01
593.698	-0
593.889	-0.01
594.079	0.01
594.269	-0.04
594.46	0.01
594.65	-0.01
594.84	0.01
595.031	-0.05
595.221	-0.03
595.411	-0.03
595.602	-0.01
595.792	-0.01
595.982	-0
596.172	0.02
596.363	-0
596.553	-0
596.743	-0.01
596.933	0.01
597.123	0.04
597.314	-0.03
597.504	-0.01
597.694	0.04
597.884	-0
598.074	-0.02
598.264	-0.03
598.454	0.01
598.644	-0
598.834	-0.01
599.024	-0.03
599.214	-0.02
599.404	0.01
599.594	-0.02
599.784	-0.04
599.974	0.02
600.164	0.01
600.354	-0.02
600.544	-0.05
600.734	0.02
600.924	0.02
601.114	-0.03
601.303	-0.01
601.493	0.01
601.683	0.01
601.873	-0.02
602.063	-0.05
602.252	0.03
602.442	-0.05
602.632	-0.05
602.821	-0.02
603.011	0.01
603.201	-0.03
603.39	-0.05
603.58	-0.01
603.77	0.02
603.959	0.02
604.149	-0.01
604.339	-0.02
604.528	0.05
604.718	0.03
604.907	-0
605.097	-0.02
605.286	-0.05
605.476	0.02
605.665	0.02
605.855	-0.02
606.044	0.03
606.234	0.02
606.423	-0
606.612	-0.04
606.802	0.03
606.991	0.02
607.181	0.01
607.37	-0.04
607.559	-0.03
607.749	-0.03
607.938	-0
608.127	-0.01
608.316	-0.03
608.506	-0.01
608.695	-0
608.884	-0.04
609.073	0.01
609.263	0.01
609.452	0.03
609.641	0.03
609.83	-0.05
610.019	0
610.208	-0.01
610.397	0.01
610.586	0.01
610.775	-0.05
610.965	-0.04
611.154	-0.02
611.343	0.01
611.532	0
611.721	-0.04
611.91	-0.03
612.099	-0
612.287	-0
612.476	-0.03
612.665	-0
612.854	-0.01
613.043	0.03
613.232	0.03
613.421	-0.04
613.61	-0.01
613.798	-0.03
613.987	0.01
614.176	-0.02
614.365	0.02
614.554	-0.01
614.742	0.03
614.931	-0.02
615.12	-0
615.309	0
615.497	-0.01
615.686	-0.04
615.875	-0.02
616.063	0.02
616.252	-0.04
616.44	0
616.629	0
616.818	0.04
617.006	-0.01
617.195	-0.02
617.383	-0.04
617.572	-0.01
617.76	0.01
617.949	0.02
618.137	0.06
618.326	0.01
618.514	-0.04
618.703	-0.05
618.891	0.07
619.079	-0.04
619.268	0.02
619.456	-0.01
619.644	0.04
619.833	-0.02
620.021	-0.05
620.209	-0.04
620.398	-0
620.586	0.03
620.774	0.02
620.962	-0.02
621.151	0.03
621.339	-0.03
621.527	-0.04
621.715	-0.02
621.903	-0.03
622.092	-0.06
622.28	-0.01
622.468	0.01
622.656	-0.02
622.844	-0
623.032	-0.02
623.22	-0.07
623.408	0.04
623.596	0.04
623.784	0.01
623.972	-0.02
624.16	-0.04
624.348	0.04
624.536	0.01
624.724	-0.03
624.912	0.01
625.1	0.03
625.288	-0.02
625.476	-0.04
625.664	0.02
625.851	-0.05
626.039	-0.01
626.227	0.01
626.415	-0.01
626.603	-0.08
626.79	-0.02
626.978	-0
627.166	0.02
627.354	-0.01
627.541	-0.04
627.729	-0.04
627.917	0
628.104	0.03
628.292	0.01
628.48	-0.01
628.667	-0.01
628.855	0.02
629.042	-0.03
629.23	-0.04
629.418	0
629.605	0
629.793	-0.02
629.98	0
630.168	-0.01
630.355	-0.04
630.543	0.02
630.73	0.01
630.917	0.03
631.105	0.05
631.292	-0.04
631.48	0.01
631.667	0.06
631.854	0.01
632.042	-0.01
632.229	-0.06
632.416	0
632.604	0.03
632.791	-0.05
632.978	0.01
633.165	0
633.353	0.03
633.54	0
633.727	-0.08
633.914	-0.02
634.101	-0.02
634.289	0.05
634.476	0
634.663	-0.05
634.85	0.02
635.037	-0.06
635.224	-0.05
635.411	0.02
635.598	0.03
635.785	-0.01
635.972	0.01
636.159	0.01
636.346	-0.03
636.533	-0
636.72	-0.02
636.907	-0.01
637.094	0.03
637.281	-0.02
637.468	0.04
637.655	-0.02
637.842	0
638.029	-0.06
638.215	0.02
638.402	-0.01
638.589	-0.03
638.776	-0.04
638.963	-0.02
639.149	0.04
639.336	0.06
639.523	-0
639.709	-0
639.896	0.01
640.083	0.05
640.27	0.01
640.456	-0.02
640.643	0.03
640.829	-0.04
641.016	-0
641.203	-0.01
641.389	0.03
641.576	0.05
641.762	0.02
641.949	-0.04
642.135	0.03
642.322	0.01
642.508	-0.03
642.695	-0.01
642.881	-0.01
643.068	-0.01
643.254	-0.01
643.441	0.03
643.627	-0.01
643.813	-0.03
644	0.02
644.186	-0.01
644.372	-0.04
644.559	0.01
644.745	0
644.931	-0.01
645.118	-0.01
645.304	-0
645.49	-0.03
645.676	0.01
645.862	-0.01
646.049	0.06
646.235	0.02
646.421	0.07
646.607	0.06
646.793	-0.03
646.979	-0.01
647.165	0.01
647.352	-0.01
647.538	0.01
647.724	-0.01
647.91	0.04
648.096	0.02
648.282	0.04
648.468	-0.01
648.654	0.01
648.84	-0.03
649.026	-0.02
649.212	-0
649.397	-0.03
649.583	-0.03
649.769	0.03
649.955	-0.01
650.141	0.01
650.327	0.04
650.513	-0.02
650.698	0.03
650.884	-0.07
651.07	0.04
651.256	0.01
651.442	-0.03
651.627	0.01
651.813	0.01
651.999	0.01
652.184	0.02
652.37	0.02
652.556	-0.05
652.741	0.05
652.927	-0.06
653.113	-0
653.298	0.03
653.484	-0.01
653.669	-0.07
653.855	-0.01
654.04	0.03
654.226	0.02
654.412	-0.01
654.597	-0.03
654.782	-0
654.968	0.06
655.153	0.04
655.339	-0.03
655.524	-0.03
655.71	0.05
655.895	-0.03
656.08	-0.03
656.266	0.04
656.451	0.02
656.636	-0.04
656.822	0.01
657.007	-0.04
657.192	-0.01
657.378	-0.05
657.563	0.04
657.748	0.03
657.933	0.03
658.118	0.02
658.304	0.03
658.489	0.03
658.674	0.04
658.859	-0.03
659.044	0.03
659.229	-0.01
659.414	-0.01
659.599	0.01
659.785	-0.05
659.97	-0.03
660.155	0.04
660.34	0.01
660.525	-0
660.71	0.01
660.895	0.03
661.08	0.04
661.264	-0.01
661.449	0.06
661.634	0.06
661.819	0.04
662.004	0.03
662.189	-0.04
662.374	-0
662.559	0
662.743	-0.04
662.928	0.02
663.113	0.03
663.298	-0.03
663.483	0.01
663.667	0.06
663.852	-0.03
664.037	0.06
664.221	-0.01
664.406	0.04
664.591	0.02
664.775	0.01
664.96	0.04
665.145	0.04
665.329	0.04
665.514	-0
665.698	0
665.883	-0.07
666.068	0.1
666.252	0.05
666.437	0
666.621	0.01
666.806	0.01
666.99	0.04
667.174	-0.04
667.359	0.08
667.543	0.01
667.728	0.03
667.912	-0.06
668.096	0.04
668.281	0.02
668.465	0.01
668.649	-0.01
668.834	0.01
669.018	-0
669.202	0.06
669.387	-0.02
669.571	0.1
669.755	-0.01
669.939	0.03
670.124	0.05
670.308	0.06
670.492	0.04
670.676	0.03
670.86	0.04
671.044	0.03
671.228	0.08
671.413	-0.04
671.597	0.01
671.781	0.02
671.965	0.04
672.149	0.04
672.333	0.05
672.517	0.03
672.701	0.07
672.885	0.04
673.069	-0.01
673.253	0.09
673.437	0.04
673.621	0.01
673.804	0.04
673.988	0.04
674.172	0.02
674.356	-0
674.54	0.03
674.724	0.11
674.908	0.05
675.091	0.14
675.275	0.07
675.459	0.1
675.643	0.11
675.826	0.05
676.01	0.07
676.194	0.07
676.377	0.11
676.561	0.1
676.745	0.06
676.928	0.05
677.112	0.13
677.296	0.09
677.479	0.04
677.663	0.04
677.846	0.13
678.03	0.08
678.213	0.11
678.397	0.11
678.58	0.07
678.764	0.06
678.947	0.03
679.131	0.1
679.314	0.09
679.498	0.06
679.681	0.12
679.865	0.13
680.048	0.12
680.231	0.09
680.415	0.07
680.598	0.09
680.781	0.06
680.965	0.09
681.148	0.13
681.331	0.05
681.514	0.11
681.698	0.06
681.881	0.1
682.064	0.13
682.247	0.13
682.43	0.05
682.614	0.16
682.797	0.13
682.98	0.15
683.163	0.1
683.346	0.12
683.529	0.13
683.712	0.1
683.895	0.19
684.078	0.07
684.261	0.13
684.444	0.17
684.627	0.15
684.81	0.13
684.993	0.13
685.176	0.17
685.359	0.14
685.542	0.13
685.725	0.18
685.908	0.18
686.091	0.16
686.274	0.21
686.457	0.19
686.639	0.12
686.822	0.2
687.005	0.19
687.188	0.23
687.371	0.26
687.553	0.21
687.736	0.2
687.919	0.23
688.102	0.27
688.284	0.17
688.467	0.19
688.65	0.16
688.832	0.21
689.015	0.23
689.197	0.13
689.38	0.31
689.563	0.28
689.745	0.18
689.928	0.18
690.11	0.24
690.293	0.31
690.475	0.22
690.658	0.26
690.84	0.21
691.023	0.23
691.205	0.24
691.388	0.28
691.57	0.3
691.752	0.27
691.935	0.17
692.117	0.28
692.3	0.27
692.482	0.29
692.664	0.29
692.847	0.31
693.029	0.37
693.211	0.31
693.393	0.28
693.576	0.29
693.758	0.34
693.94	0.31
694.122	0.33
694.304	0.28
694.487	0.32
694.669	0.39
694.851	0.29
695.033	0.36
695.215	0.34
695.397	0.34
695.579	0.38
695.761	0.4
695.943	0.35
696.125	0.44
696.308	0.43
696.49	0.33
696.671	0.54
696.853	0.46
697.035	0.58
697.217	0.4
697.399	0.48
697.581	0.44
697.763	0.48
697.945	0.36
698.127	0.47
698.309	0.52
698.491	0.56
698.672	0.54
698.854	0.61
699.036	0.6
699.218	0.48
699.399	0.57
699.581	0.57
699.763	0.53
699.945	0.52
700.126	0.5
700.308	0.57
700.49	0.6
700.671	0.56
700.853	0.53
701.035	0.57
701.216	0.7
701.398	0.59
701.579	0.59
701.761	0.71
701.943	0.62
702.124	0.64
702.306	0.67
702.487	0.86
702.669	0.78
702.85	0.69
703.031	0.66
703.213	0.79
703.394	0.78
703.576	0.79
703.757	0.86
703.938	0.89
704.12	0.97
704.301	0.87
704.483	0.8
704.664	0.87
704.845	0.86
705.026	0.92
705.208	0.89
705.389	0.91
705.57	0.94
705.751	0.84
705.933	1.03
706.114	1.04
706.295	1.02
706.476	0.99
706.657	1.14
706.838	1.07
707.02	1.14
707.201	1.07
707.382	1.07
707.563	1.17
707.744	1.1
707.925	1.11
708.106	1.14
708.287	1.2
708.468	1.3
708.649	1.18
708.83	1.32
709.011	1.3
709.192	1.37
709.373	1.23
709.554	1.36
709.734	1.42
709.915	1.45
710.096	1.43
710.277	1.31
710.458	1.47
710.639	1.53
710.819	1.43
711	1.53
711.181	1.61
711.362	1.63
711.542	1.68
711.723	1.62
711.904	1.75
712.085	1.71
712.265	1.77
712.446	1.65
712.627	1.76
712.807	1.77
712.988	1.89
713.168	1.72
713.349	1.89
713.53	1.79
713.71	1.85
713.891	1.93
714.071	1.96
714.252	1.97
714.432	2.05
714.613	2.05
714.793	2.2
714.974	2.3
715.154	2.27
715.334	2.25
715.515	2.34
715.695	2.22
715.876	2.32
716.056	2.31
716.236	2.43
716.417	2.42
716.597	2.47
716.777	2.76
716.957	2.48
717.138	2.68
717.318	2.7
717.498	2.67
717.678	2.8
717.859	2.76
718.039	2.8
718.219	2.88
718.399	2.96
718.579	2.95
718.759	3
718.939	3.11
719.12	3.2
719.3	3.19
719.48	3.06
719.66	3.12
719.84	3.49
720.02	3.4
720.2	3.32
720.38	3.58
720.56	3.69
720.74	3.59
720.92	3.67
721.1	3.84
721.279	3.82
721.459	3.83
721.639	3.69
721.819	3.95
721.999	4.01
722.179	4.04
722.359	3.9
722.538	4.2
722.718	4.25
722.898	4.29
723.078	4.34
723.257	4.49
723.437	4.53
723.617	4.71
723.797	4.58
723.976	4.76
724.156	4.86
724.336	4.88
724.515	5.2
724.695	4.97
724.874	5.14
725.054	5.12
725.234	5.06
725.413	5.32
725.593	5.29
725.772	5.18
725.952	5.41
726.131	5.53
726.311	5.59
726.49	5.78
726.67	5.78
726.849	5.75
727.028	5.77
727.208	5.79
727.387	5.98
727.567	6.03
727.746	6.08
727.925	6.13
728.105	6.03
728.284	6.25
728.463	6.39
728.643	6.46
728.822	6.64
729.001	6.67
729.18	6.75
729.359	6.79
729.539	6.97
729.718	6.87
729.897	7.04
730.076	7.27
730.255	7.1
730.434	7.38
730.614	7.5
730.793	7.63
730.972	7.52
731.151	7.71
731.33	7.82
731.509	7.9
731.688	7.95
731.867	7.95
732.046	7.8
732.225	8.38
732.404	8.04
732.583	8.24
732.762	8.44
732.941	8.53
733.12	8.72
733.298	8.62
733.477	8.78
733.656	8.75
733.835	8.76
734.014	9.05
734.193	9.14
734.371	9.09
734.55	9.28
734.729	9.09
734.908	9.28
735.086	9.36
735.265	9.38
735.444	9.17
735.623	9.54
735.801	9.59
735.98	9.66
736.159	9.48
736.337	9.55
736.516	9.57
736.694	9.55
736.873	9.63
737.052	9.98
737.23	9.6
737.409	9.25
737.587	9.71
737.766	9.42
737.944	9.32
738.123	9.76
738.301	9.52
738.479	9.39
738.658	9.27
738.836	8.93
739.015	9.14
739.193	9.03
739.371	8.7
739.55	8.45
739.728	8.35
739.906	8.51
740.085	8.41
740.263	8.25
740.441	7.71
740.62	8.18
740.798	7.84
740.976	7.45
741.154	7.17
741.332	7.37
741.511	6.93
741.689	6.85
741.867	6.66
742.045	6.28
742.223	6.22
742.401	6
742.579	5.92
742.757	5.74
742.935	5.53
743.114	5.44
743.292	5.33
743.47	5.07
743.648	4.95
743.826	4.82
744.004	4.78
744.181	4.73
744.359	4.32
744.537	4.34
744.715	4.25
744.893	4.09
745.071	3.98
745.249	3.68
745.427	3.64
745.605	3.53
745.782	3.38
745.96	3.41
746.138	3.29
746.316	3.22
746.493	2.92
746.671	2.85
746.849	2.69
747.027	2.76
747.204	2.62
747.382	2.64
747.56	2.25
747.737	2.4
747.915	2.22
748.093	2.28
748.27	2.1
748.448	2.08
748.625	1.81
748.803	1.87
748.98	1.83
749.158	1.84
749.335	1.81
749.513	1.73
749.69	1.63
749.868	1.63
750.045	1.69
750.223	1.42
750.4	1.27
750.578	1.54
750.755	1.43
750.932	1.2
751.11	1.38
751.287	1.21
751.464	1.37
751.642	1.11
751.819	1.06
751.996	1.19
752.173	1.09
752.351	1.01
752.528	1.05
752.705	0.92
752.882	0.92
753.06	0.92
753.237	1.02
753.414	1.03
753.591	1.13
753.768	0.88
753.945	0.75
754.122	0.78
754.299	0.76
754.476	0.66
754.654	0.7
754.831	0.66
755.008	0.66
755.185	0.54
755.362	0.51
755.539	0.68
755.716	0.54
755.892	0.59
756.069	0.46
756.246	0.42
756.423	0.47
756.6	0.69
756.777	0.47
756.954	0.68
757.131	0.49
757.307	0.38
757.484	0.48
757.661	0.35
757.838	0.45
758.015	0.38
758.191	0.49
758.368	0.5
758.545	0.55
758.721	0.44
758.898	0.21
759.075	0.53
759.251	0.48
759.428	0.51
759.605	0.25
759.781	0.29
759.958	0.4
760.134	0.31
760.311	0.33
760.488	0.38
760.664	0.34
760.841	0.29
761.017	0.16
761.194	0.34
761.37	0.36
761.547	0.26
761.723	0.04
761.899	0.43
762.076	0.21
762.252	0.12
762.429	0.25
762.605	0.23
762.781	0.12
762.958	0.33
763.134	0.14
763.31	0.12
763.486	0.3
763.663	-0.01
763.839	0.14
764.015	0
764.191	0.2
764.368	0.18
764.544	0.13
764.72	0.22
764.896	0.29
765.072	0.19
765.248	0.16
765.425	0.08
765.601	0.1
765.777	0.16
765.953	-0.18
766.129	0.02
766.305	0.04
766.481	0.16
766.657	0.11
766.833	0.31
767.009	-0.03
767.185	0.08
767.361	0.04
767.537	-0.01
767.713	0.3
767.889	-0.01
768.065	0.15
768.24	0.18
768.416	0.22
768.592	-0.02
768.768	-0.04
768.944	0.15
769.12	0.04
769.295	-0.07
769.471	0.18
769.647	0.11
769.823	0.31
769.998	-0.09
770.174	-0.04
770.35	0.41
770.525	0.46
770.701	0.03
770.877	0.05
771.052	-0.06
771.228	0.22
771.403	0.11
771.579	0.11
771.755	0.35
771.93	0.04
772.106	-0.07
772.281	-0.17
772.457	0.22
772.632	-0.04
772.808	-0.15
772.983	0.02
773.159	-0.07
773.334	0.36
773.509	-0.04
773.685	0.03
773.86	0.4
774.036	0.29
774.211	0.07
774.386	-0.08
774.562	-0.02
774.737	0.08
774.912	0.07
775.087	0.18
775.263	0.15
775.438	0.16
775.613	-0.01
775.788	0.06
775.964	0.16
776.139	0.4
776.314	0.03
776.489	0.08
776.664	0.09
776.839	-0.14
777.014	0.19
777.19	0.17
777.365	0.34
777.54	0.28
777.715	-0.15
777.89	0.03
778.065	0.03
778.24	0.13
778.415	0.16
778.59	-0.14
778.765	-0.11
778.94	0.01
779.115	-0.02
779.289	0.05
779.464	0.06
779.639	0.01
779.814	-0.1
779.989	0
780.164	0.23
780.339	0.26
780.513	0
780.688	-0.1
780.863	-0.08
781.038	0.18
781.212	-0.12
781.387	0.04
781.562	0.17
781.737	-0.05
781.911	0.24
782.086	0.04
782.261	-0.02
782.435	0.07
782.61	0
782.784	0.15
782.959	0.39
783.134	-0.09
783.308	-0.24
783.483	-0.13
783.657	0.39
783.832	0.15
784.006	-0.18
784.181	0.04
784.355	0.14
784.53	-0.16
784.704	-0.1
784.878	0.14
785.053	0.2
785.227	0.04
785.402	0.27
785.576	-0.25
785.75	0.09
785.925	-0.03
786.099	0
786.273	0.15
786.448	0.13
786.622	0.13
786.796	-0.08
786.97	0.09
787.145	0.45
787.319	-0.51
787.493	-0.09
787.667	-0.39
787.841	0.04
788.015	0.04
788.19	-0.17
788.364	0.21
788.538	0.38
788.712	0.17
788.886	-0
789.06	0.22
789.234	0.13
789.408	0
789.582	0.05
789.756	0.1
789.93	-0.11
790.104	0.11
790.278	-0.06
790.452	-0.1
790.626	0.17
790.8	-0.02
790.973	0.1
791.147	0.47
791.321	0.27
791.495	0.29
791.669	-0.09
791.843	0.25
792.016	0.06
792.19	0.41
792.364	0.01
792.538	0.55
792.711	0.17
792.885	-0.1
793.059	-0.19
793.233	-0.43
793.406	0.29
793.58	-0.05
793.754	0.24
793.927	0
794.101	0.29
794.274	0.09
794.448	0.25
794.622	-0.15
794.795	0.11
794.969	-0.38
795.142	0.26
795.316	0.02
795.489	-0.19
795.663	0.4
795.836	0.24
796.009	-0.24
796.183	0.35
796.356	0.05
796.53	0.23
796.703	0.03
796.876	0.48
797.05	-0.04
797.223	-0
797.396	-0.08
797.57	0.37
797.743	0.42
797.916	0.15
798.09	-0.05
798.263	0.12
798.436	0.2
798.609	-0.1
798.782	0.11
798.956	0.08
799.129	0.05
799.302	-0.03
799.475	-0.44
799.648	-0.18
799.821	-0.2
799.994	0.11
800.167	-0.38
800.34	-0.08
800.514	0.04
800.687	-0.06
800.86	0.06
801.033	-0.02
801.206	0.1
801.379	-0.2
801.551	0.29
801.724	0.22
801.897	0.38
802.07	0.05
802.243	-0.22
802.416	-0.12
802.589	-0.15
802.762	0.17
802.935	0.11
803.107	0.22
803.28	0.32
803.453	0.15
803.626	-0.16
803.798	0.05
803.971	-0.29
804.144	0.23
804.317	0.17
804.489	0.69
804.662	-0.21
804.835	0.18
805.007	-0.26
805.18	0.4
805.353	0.41
805.525	-0.26
805.698	0.01
805.87	0.22
806.043	0.32
806.215	-0.16
806.388	-0.26
806.56	0.28
806.733	0.32
806.905	0.42
807.078	-0.25
807.25	-0.25
807.423	0.37
807.595	0.1
807.768	-0.02
807.94	0.57
808.112	0.31
808.285	0.2
808.457	-0.17
808.629	-0.03
808.802	0.34
808.974	0.2
809.146	-0.01
809.318	-0.3
809.491	0.05
809.663	-0.09
809.835	0.04
810.007	0.22
810.18	0.07
810.352	-0.26
810.524	-0.1
810.696	0.21
810.868	0.2
811.04	0.13
811.212	0
811.384	0.16
811.556	0.33
811.728	0.14
811.901	0.58
812.073	0.03
812.245	0.27
812.417	0.18
812.589	-0.7
812.76	0.27
812.932	0.2
813.104	0.3
813.276	0.3
813.448	0.24
813.62	0.17
813.792	0.31
813.964	0.26
814.136	0.29
814.307	0.21
814.479	-0.29
814.651	-0.18
814.823	0.92
814.995	-0.08
815.166	-0.06
815.338	-0.56
815.51	-0.22
815.681	0.71
815.853	0.08
816.025	-0.01
816.196	0.86
816.368	0.08
816.54	-0.45
816.711	-0.2
816.883	0.23
817.054	0.88
817.226	-0.27
817.398	-0.1
817.569	-0.24
817.741	0.26
817.912	0.27
818.084	-0.1
818.255	0.1
818.426	-0.45
818.598	0.07
818.769	-0.21
818.941	0.16
819.112	0.49
819.283	0.28
819.455	-0.3
819.626	0.37
819.798	0.44
819.969	0.19
820.14	0.03
820.311	-0.41
820.483	0.27
820.654	0.5
820.825	-0.25
820.996	-0.32
821.168	-0.32
821.339	0.06
821.51	-0.16
821.681	0.76
821.852	0.15
822.023	-0.1
822.195	-0.22
822.366	0.63
822.537	0.29
822.708	0.13
822.879	0.07
823.05	0.49
823.221	-0.28
823.392	0.56
823.563	0.06
823.734	0.14
823.905	0.1
824.076	-0.06
824.247	-0.31
824.418	-0.27
824.589	0.5
824.759	0.1
824.93	-0.1
825.101	-0.35
825.272	0.46
825.443	0.32
825.614	0.54
825.784	-0.55
825.955	0.46
826.126	0.62
826.297	0.19
826.467	0.96
826.638	0.27
826.809	-0.58
826.98	0.02
827.15	0.32
827.321	-0.02
827.492	0.77
827.662	0.05
827.833	0.15
828.003	0.04
828.174	0.31
828.345	-0.4
828.515	0.19
828.686	0.26
828.856	-0.09
829.027	0.35
829.197	0.41
829.368	0.29
829.538	-0.31
829.709	-0.52
829.879	0.35
830.049	0.14
830.22	-0.58
830.39	0.3
830.56	0.72
830.731	-0.34
830.901	-0.29
831.072	-0.12
831.242	0.21
831.412	-0.08
831.582	-0.01
831.753	0.01
831.923	0.29
832.093	0.25
832.263	-0.04
832.434	-0.09
832.604	-0.01
832.774	0.25
832.944	-0.43
833.114	0.14
833.284	-0.05
833.454	-1
833.624	-0.45
833.795	-0.46
833.965	1.05
834.135	1.01
834.305	-0.68
834.475	-0.76
834.645	-0.04
834.815	-0.39
834.985	-0.75
835.155	0.3
835.325	0.13
835.494	0.32
835.664	-0.37
835.834	-0.81
836.004	0.15
836.174	0.33
836.344	0.63
836.514	-1.08
836.684	-0.14
836.853	0.44
837.023	0.43
837.193	-0.45
837.363	0.27
837.532	1.2
837.702	0.26
837.872	-0.6
838.041	0.2
838.211	1.51
838.381	-1.27
838.55	-0.38
838.72	1.52
838.89	1.47
839.059	-0.24
839.229	-0.39
839.398	0.65
839.568	0.03
839.738	0.23
839.907	1.12
840.077	0.11
840.246	-0.39
840.416	-1.35
840.585	-0.74
840.755	1.15
840.924	0.55
841.093	-0.76
841.263	-0.29
841.432	0.19
841.602	-0.76
841.771	-0.69
841.94	0.38
842.11	1.53
842.279	1.43
842.448	0.19
842.617	-0.86
842.787	1.08
842.956	-1.04
843.125	-0.29
843.294	0.26
843.464	1.13
843.633	-0.59
843.802	-0.8
843.971	0.19
844.14	0.47
844.309	0.88
844.479	-1.09
844.648	-0.3
844.817	-0.62
844.986	0.97
845.155	0
845.324	-0.33
845.493	-0.14
845.662	-0.21
845.831	0.45
846	0.62
846.169	-0.57
846.338	1.25
846.507	0.4
846.676	0.71
846.844	-0.21
847.013	1.22
847.182	-0.49
847.351	0.05
847.52	0.01
847.689	0.53
847.858	-0.31
848.026	-0.82
848.195	-0.54
848.364	-0.14
848.533	0.15
848.701	0
848.87	0.49
849.039	-0.05
849.207	1.15
849.376	0.39
849.545	0.83
849.713	-0.69
849.882	-0.31
850.051	0.2
850.219	0.35
850.388	0.88
850.556	-0.71
850.725	0.09
850.893	-0.77
851.062	0.05
851.23	-0.18
851.399	-1.46
851.567	-0.47
851.736	0.47
851.904	-0.66
852.073	-0.14
852.241	0.61
852.41	-0.28
852.578	0.35
852.746	0.05
852.915	0.05
853.083	0.18
853.251	-1.96
853.42	-0.06
853.588	0.26
853.756	0.26
853.924	0.65
854.093	-0.06
854.261	-0.67
854.429	-0.74
854.597	0.48
854.765	-1.51
854.934	-0.34
855.102	0.99
855.27	-0.77
855.438	0.49
855.606	0.86
855.774	1
855.942	-1.89
856.11	-0.89
856.278	-0.69
856.446	0.32
856.614	0.03
856.782	-0.96
856.95	1.03
857.118	1.83
857.286	0.64
857.454	-0.5
857.622	1.57
857.79	0.92
857.958	-1.78
858.126	-0.1
858.294	-1.65
858.462	0.68
858.629	0.96
858.797	-0.67
858.965	0.33
859.133	0.13
859.301	-0.46
859.468	0.44
859.636	-0.22
859.804	1.06
859.971	1.32
860.139	-0.85
860.307	1.63
860.474	-0.79
860.642	-1.42
860.81	0.49
860.977	-0.94
861.145	1.67
861.313	-0.05
861.48	0.37
861.648	1.37
861.815	-0.25
861.983	-0.91
862.15	-0.46
862.318	1.36
862.485	0.43
862.653	-0.41
862.82	-0.32
862.988	0.94
863.155	1.86
863.322	-0.55
863.49	-1.15
863.657	-0.74
863.824	1.48
863.992	-0.18
864.159	0.04
864.326	0.86
864.494	-0.68
864.661	2.05
864.828	-1.33
864.996	0.7
865.163	1.47
865.33	-0.78
865.497	-0.89
865.664	-0.29
865.832	-1.2
865.999	-0.12
866.166	-0.58
866.333	-1.09
866.5	-1.8
866.667	0.18
866.834	0.15
867.001	1.86
867.168	-1.49
867.335	-0.1
867.502	-1.5
867.669	0.21
867.836	3.87
868.003	-0.65
868.17	1.4
868.337	-1.24
868.504	2.8
868.671	-2.05
868.838	0.55
869.005	1.93
869.172	1.84
869.339	0.75
869.505	-0.82
869.672	-1.52
869.839	1.9
870.006	0.47
870.173	-0.6
870.339	0.43
870.506	2.48
870.673	-1
870.84	1.29
871.006	2.11
871.173	-0.16
871.34	0.45
871.506	-0.99
871.673	0.24
871.839	-1.14
872.006	0.65
872.173	0.2
872.339	1.3
872.506	2.4
872.672	1.11
872.839	-1.12
873.005	1.47
873.172	4.52
873.338	2.1
873.505	0.15
873.671	1.51
873.838	1.93
874.004	-1.05
874.171	-0.32
874.337	1.39
874.503	2.08
874.67	-0.52
874.836	0.22
875.002	1.69
875.169	0.82
875.335	-0.68
875.501	2.56
875.668	2.71
875.834	0.83
876	-0.62
876.166	0.59
876.332	1.85
876.499	2.63
876.665	0.05
876.831	1.42
876.997	2.43
877.163	1.16
877.329	1.56
877.495	0.84
877.662	1.96
877.828	0.53
877.994	0.2
878.16	-1.68
878.326	-2.49
878.492	1.85
878.658	0.57
878.824	1.95
878.99	2.6
879.156	-1.45
879.322	3.53
879.487	-1.31
879.653	2.07
879.819	1.73
879.985	1.15
880.151	0.69
880.317	1.27
880.483	0.28
880.648	3.6
880.814	-2.35
880.98	1.63
881.146	-0.77
881.312	-0.86
881.477	-2.25
881.643	1.07
881.809	2.18
881.974	2.63
882.14	-1.18
882.306	0.08
882.471	4.26
882.637	0.53
882.803	0.32
882.968	2.39
883.134	4.9
883.299	1.48
883.465	-0.63
883.63	1.19
883.796	1.86
883.961	1.41
884.127	1.21
884.292	-3.97
884.458	-0.78
884.623	-0.77
