Data from Apollo_Calib_20240827__AbsoluteIrradiance__431__06-20-02-179.txt Node

Date: Wed Aug 28 06:20:02 BST 2024
User: biology
Spectrometer: FLMT08252
Trigger mode: 0
Integration Time (sec): 5.000000E-1
Scans to average: 5
Electric dark correction enabled: true
Nonlinearity correction enabled: false
Boxcar width: 0
XAxis mode: Wavelengths
Number of Pixels in Spectrum: 3648
>>>>>Begin Spectral Data<<<<<
179.588	-0
179.809	-0
180.03	-0
180.251	-0
180.473	-0
180.694	0
180.915	0
181.136	-0
181.357	0
181.578	-0
181.799	0
182.02	-0
182.241	0
182.462	-0
182.683	0
182.904	-0
183.125	-0
183.346	0
183.567	0
183.788	0
184.009	-0
184.23	0
184.451	0
184.672	0
184.892	0
185.113	0
185.334	0
185.555	0
185.776	0
185.996	0
186.217	0
186.438	0
186.659	0
186.879	0
187.1	0
187.321	0
187.541	0
187.762	0
187.983	0
188.203	0
188.424	0
188.644	0
188.865	0
189.086	0
189.306	0
189.527	0
189.747	0
189.968	-0
190.188	0
190.409	0
190.629	0
190.849	0
191.07	0
191.29	0
191.511	0
191.731	0
191.951	0
192.172	0
192.392	0
192.612	0
192.833	0
193.053	0
193.273	0
193.493	0
193.714	0
193.934	0
194.154	0
194.374	0
194.594	0
194.815	0
195.035	0
195.255	0
195.475	0
195.695	0
195.915	0
196.135	0
196.355	0
196.575	0
196.795	0
197.015	-0
197.235	0
197.455	0
197.675	0
197.895	0
198.115	0
198.335	0
198.555	0
198.775	0
198.995	0
199.214	0
199.434	0
199.654	0
199.874	0
200.094	-0.59
200.313	0.88
200.533	0.48
200.753	-0.08
200.973	1.9
201.192	1.15
201.412	-0.29
201.632	-0.31
201.851	2.08
202.071	0.08
202.291	0.68
202.51	0.21
202.73	1.26
202.95	0.52
203.169	0.23
203.389	0.96
203.608	0.56
203.828	0.55
204.047	0.66
204.267	1.17
204.486	0.97
204.706	0.97
204.925	0.77
205.145	0.46
205.364	1.06
205.583	1.23
205.803	0.59
206.022	-0.03
206.242	0.31
206.461	0.64
206.68	0.17
206.9	0.72
207.119	1.28
207.338	1.23
207.557	0.64
207.777	0.44
207.996	0.41
208.215	1.01
208.434	0.44
208.654	0.32
208.873	0.35
209.092	1.29
209.311	0.36
209.53	0.35
209.749	0.23
209.968	0.3
210.187	0.35
210.407	0.01
210.626	0.52
210.845	0.56
211.064	0.48
211.283	0.3
211.502	0.72
211.721	0.47
211.94	0.32
212.159	0.57
212.377	0.66
212.596	0.9
212.815	0.33
213.034	0.55
213.253	0.68
213.472	0.74
213.691	0.43
213.91	0.17
214.128	0.28
214.347	0.77
214.566	0.07
214.785	-0.13
215.003	0.65
215.222	0.41
215.441	0.42
215.66	0.01
215.878	0.57
216.097	0.42
216.316	-0.04
216.534	0.38
216.753	0.54
216.972	0.35
217.19	0.34
217.409	0.06
217.627	0.23
217.846	0.18
218.064	0.31
218.283	0.25
218.501	0.64
218.72	0.57
218.938	0.11
219.157	0.27
219.375	0.45
219.594	0.25
219.812	0.05
220.031	0.08
220.249	0.72
220.467	0.53
220.686	0.22
220.904	0.08
221.122	0.17
221.341	0.62
221.559	0.27
221.777	0.16
221.995	0.32
222.214	0.49
222.432	0.19
222.65	0.55
222.868	0.35
223.086	0.45
223.305	0.38
223.523	0.14
223.741	0.43
223.959	0.18
224.177	0.09
224.395	0.18
224.613	0.28
224.831	0.29
225.049	0.14
225.267	0.18
225.485	0.46
225.703	0.11
225.921	0.25
226.139	0.2
226.357	0.44
226.575	0.27
226.793	0.05
227.011	0.66
227.229	0.23
227.447	0.45
227.665	0.25
227.883	-0.03
228.1	0.23
228.318	0.19
228.536	-0.14
228.754	0.07
228.972	0.32
229.189	0.36
229.407	0.18
229.625	0.22
229.843	0.33
230.06	0.35
230.278	0.07
230.496	0.16
230.713	0.16
230.931	0.4
231.149	0.18
231.366	0.08
231.584	0.11
231.801	0.51
232.019	0.11
232.236	-0
232.454	0.05
232.671	0.26
232.889	0.19
233.106	0.03
233.324	0.11
233.541	0.25
233.759	0.23
233.976	0.1
234.194	0.23
234.411	0.24
234.628	0.08
234.846	0.2
235.063	0.14
235.28	0.2
235.498	0.13
235.715	0.11
235.932	0.27
236.149	0.1
236.367	-0
236.584	0.19
236.801	0.13
237.018	0.33
237.236	0.19
237.453	0.06
237.67	0.25
237.887	0.25
238.104	0.15
238.321	0.1
238.538	0.07
238.755	0.34
238.973	0.02
239.19	0.07
239.407	0.28
239.624	0.33
239.841	0.09
240.058	0.12
240.275	0.22
240.492	0.1
240.709	0.23
240.925	0.13
241.142	0.13
241.359	0.1
241.576	0.1
241.793	0.07
242.01	0.14
242.227	0.3
242.444	0.24
242.66	0.2
242.877	0.26
243.094	0.08
243.311	0.22
243.527	0.19
243.744	0.16
243.961	0.31
244.178	0.1
244.394	0.12
244.611	0.28
244.828	0.41
245.044	0.1
245.261	0.12
245.477	0.14
245.694	0.26
245.911	0.12
246.127	0.1
246.344	0.38
246.56	0.2
246.777	0.11
246.993	0.18
247.21	0.18
247.426	0.26
247.643	0.08
247.859	0.08
248.076	0.06
248.292	0.31
248.508	0.07
248.725	0.11
248.941	0.27
249.157	0.25
249.374	0.08
249.59	0.14
249.806	0.14
250.023	0.32
250.239	0.11
250.455	0.09
250.671	0.15
250.888	0.15
251.104	0.16
251.32	0.13
251.536	0.07
251.752	0.1
251.969	0.22
252.185	0.16
252.401	0.37
252.617	0.18
252.833	0.15
253.049	0.16
253.265	0.11
253.481	0.19
253.697	0.12
253.913	0.09
254.129	0.18
254.345	0.13
254.561	0.07
254.777	0.12
254.993	0.22
255.209	0.19
255.425	0.08
255.641	0.13
255.857	0.18
256.073	0.19
256.288	0.07
256.504	0.11
256.72	0.18
256.936	0.28
257.152	0.13
257.367	0.1
257.583	0.17
257.799	0.19
258.015	0.06
258.23	0.04
258.446	0.26
258.662	0.11
258.877	0.09
259.093	0.06
259.309	0.13
259.524	0.12
259.74	0.09
259.955	0.07
260.171	0.12
260.387	0.09
260.602	0.26
260.818	0.18
261.033	0.05
261.249	0.08
261.464	0.07
261.68	0.03
261.895	0.16
262.11	0.22
262.326	0.14
262.541	0.01
262.757	0.21
262.972	0.13
263.187	0.13
263.403	0.11
263.618	0.21
263.833	0.1
264.049	0.07
264.264	0.14
264.479	0.15
264.694	0.2
264.91	0.05
265.125	0.17
265.34	0.24
265.555	0.27
265.77	0.04
265.986	0.05
266.201	0.11
266.416	0.24
266.631	0.04
266.846	0.14
267.061	0.16
267.276	0.14
267.491	-0.01
267.706	0.22
267.921	0.08
268.136	0.11
268.351	0.12
268.566	0
268.781	0.22
268.996	0.15
269.211	0.15
269.426	0.13
269.641	0.14
269.856	0.21
270.071	0.07
270.285	0
270.5	0.19
270.715	0.18
270.93	0.09
271.145	0.18
271.359	0.16
271.574	0.03
271.789	0.14
272.004	0.07
272.218	0.1
272.433	0.16
272.648	0.08
272.862	0.19
273.077	0.05
273.292	0.15
273.506	0.04
273.721	0.1
273.936	0.17
274.15	0.2
274.365	0.11
274.579	0.18
274.794	0.15
275.008	0.21
275.223	0.04
275.437	0.06
275.652	0.17
275.866	0.14
276.081	0.08
276.295	0.18
276.509	0.14
276.724	0.1
276.938	0.16
277.153	0.14
277.367	0.18
277.581	0.08
277.796	0.07
278.01	0.01
278.224	0.15
278.438	0.25
278.653	0.04
278.867	0.06
279.081	0.12
279.295	0.1
279.51	0.16
279.724	0.04
279.938	0.17
280.152	0.18
280.366	0.04
280.58	0.12
280.794	0.21
281.008	0.15
281.222	0.21
281.437	0.2
281.651	0.16
281.865	0.19
282.079	0.07
282.293	0.02
282.507	0.11
282.721	0.1
282.935	0.11
283.148	-0.04
283.362	0.08
283.576	0.02
283.79	0.11
284.004	0.03
284.218	0.16
284.432	0.04
284.646	0.12
284.859	0.07
285.073	0.04
285.287	0.16
285.501	0.07
285.714	0.09
285.928	0.09
286.142	0.11
286.356	0.1
286.569	0.11
286.783	0.16
286.997	0.17
287.21	0.1
287.424	0.15
287.637	0.13
287.851	0.06
288.065	0.14
288.278	0.1
288.492	0.16
288.705	0.09
288.919	0.17
289.132	0.08
289.346	0.14
289.559	0.02
289.773	0.07
289.986	0.1
290.2	0.09
290.413	0.19
290.626	0.03
290.84	0.05
291.053	0.08
291.267	0.23
291.48	0.06
291.693	0.12
291.906	0.08
292.12	0.07
292.333	0.09
292.546	0.1
292.76	0.18
292.973	0.12
293.186	0.17
293.399	0.09
293.612	0.16
293.826	0.09
294.039	0.03
294.252	0.09
294.465	0.13
294.678	0.1
294.891	0.1
295.104	0.01
295.317	0.08
295.53	0.11
295.743	0.05
295.956	0.08
296.169	0.19
296.382	0.15
296.595	0.11
296.808	0.04
297.021	0.17
297.234	0.11
297.447	0.12
297.66	0.13
297.873	0.15
298.086	0.12
298.299	0.04
298.511	0.07
298.724	0.09
298.937	0.06
299.15	0.09
299.363	0.15
299.575	0.15
299.788	0.13
300.001	0.07
300.213	0.03
300.426	0.08
300.639	0.03
300.852	0.07
301.064	0.1
301.277	0.2
301.489	0.14
301.702	0.12
301.915	0.14
302.127	0.07
302.34	0.1
302.552	0.12
302.765	0.1
302.977	0.14
303.19	0.09
303.402	0.06
303.615	0.1
303.827	0.08
304.04	0.1
304.252	0.09
304.464	0.07
304.677	0.21
304.889	0.14
305.102	0.08
305.314	0.09
305.526	0.14
305.739	0.12
305.951	0.06
306.163	0.08
306.375	0.18
306.588	0.1
306.8	0.05
307.012	0.05
307.224	0.12
307.436	0.14
307.649	0.06
307.861	0.11
308.073	0.12
308.285	0.07
308.497	0.07
308.709	0.05
308.921	0.1
309.133	0.15
309.346	0.03
309.558	0.09
309.77	0.15
309.982	0.16
310.194	0.12
310.406	0.06
310.617	0.18
310.829	0.1
311.041	0.12
311.253	0.03
311.465	0.08
311.677	0.09
311.889	0.1
312.101	0.07
312.313	0.13
312.524	0.15
312.736	0.01
312.948	0.08
313.16	0.19
313.372	0.1
313.583	0.15
313.795	0.1
314.007	0.08
314.218	0.19
314.43	0.07
314.642	0.06
314.853	0.01
315.065	0.1
315.277	0.08
315.488	0.1
315.7	0.15
315.912	0.08
316.123	0.07
316.335	0.09
316.546	0.19
316.758	0.09
316.969	0.05
317.181	0.09
317.392	0.08
317.604	0.15
317.815	0.09
318.026	0.05
318.238	0.13
318.449	0.11
318.661	0.08
318.872	0.02
319.083	0.08
319.295	0.09
319.506	0.07
319.717	0.1
319.929	0.09
320.14	0.07
320.351	0.12
320.562	0.06
320.774	0.09
320.985	0.07
321.196	0.02
321.407	0.01
321.618	0.16
321.829	0.13
322.041	0.11
322.252	0.08
322.463	0.11
322.674	0.12
322.885	0.05
323.096	0.09
323.307	0.1
323.518	0.09
323.729	0.07
323.94	0.08
324.151	0.07
324.362	0.12
324.573	0.11
324.784	0.07
324.995	0.18
325.206	0.12
325.417	0.08
325.628	0.08
325.838	0.11
326.049	0.12
326.26	0.12
326.471	0.07
326.682	0.1
326.892	0.11
327.103	0.05
327.314	0.05
327.525	0.14
327.735	0.1
327.946	0.07
328.157	0.02
328.368	0.09
328.578	0.08
328.789	0.18
328.999	0.04
329.21	0.1
329.421	0.12
329.631	0.08
329.842	0.05
330.052	0.13
330.263	0.11
330.473	0.15
330.684	0.06
330.894	0.08
331.105	0.07
331.315	0.12
331.526	0.07
331.736	0.14
331.947	0.12
332.157	0.12
332.367	0.07
332.578	0.14
332.788	0.11
332.999	0.08
333.209	0.11
333.419	0.06
333.629	0.09
333.84	0.1
334.05	0.09
334.26	0.13
334.47	0.1
334.681	0.12
334.891	0.04
335.101	0.09
335.311	0.2
335.521	0.09
335.732	0.06
335.942	0.16
336.152	0.13
336.362	0.09
336.572	0.07
336.782	0.12
336.992	0.11
337.202	0.07
337.412	0.04
337.622	0.14
337.832	0.11
338.042	0.06
338.252	0.1
338.462	0.06
338.672	0.07
338.882	0.09
339.092	0.08
339.302	0.14
339.511	0.08
339.721	0.08
339.931	0.06
340.141	0.08
340.351	0.14
340.561	0.1
340.77	0.08
340.98	0.11
341.19	0.09
341.4	0.09
341.609	0.06
341.819	0.06
342.029	0.05
342.238	0.09
342.448	0.07
342.658	0.11
342.867	0.11
343.077	0.11
343.286	0.11
343.496	0.1
343.706	0.12
343.915	0.02
344.125	0.1
344.334	0.11
344.544	0.03
344.753	0.1
344.963	0.06
345.172	0
345.381	0.02
345.591	0.11
345.8	0.06
346.01	0.16
346.219	0.14
346.428	-0.02
346.638	0.08
346.847	0.09
347.056	0.17
347.266	0.05
347.475	0.06
347.684	0.16
347.893	0.12
348.103	0.11
348.312	0.07
348.521	0.06
348.73	0.09
348.94	0.08
349.149	0.06
349.358	0.08
349.567	0.07
349.776	0.03
349.985	0.06
350.194	0.11
350.403	0.1
350.612	0.03
350.821	0.09
351.03	0.05
351.239	0.03
351.448	0.1
351.657	0.05
351.866	0.18
352.075	0.06
352.284	0.17
352.493	0.05
352.702	0.11
352.911	0.08
353.12	0.09
353.329	0.04
353.538	0.13
353.746	0.1
353.955	0.09
354.164	0.1
354.373	0.09
354.582	0.11
354.79	0.11
354.999	0.17
355.208	0.09
355.416	0.18
355.625	0.03
355.834	0.06
356.042	0.09
356.251	0.08
356.46	0.04
356.668	0.1
356.877	0.17
357.085	0.13
357.294	-0.01
357.503	0.1
357.711	0.05
357.92	0.19
358.128	0.08
358.337	0.09
358.545	0.1
358.754	0.08
358.962	0.13
359.17	0.07
359.379	0.13
359.587	0.13
359.796	0.07
360.004	0.13
360.212	0.13
360.421	0.16
360.629	0.07
360.837	0.06
361.046	0.11
361.254	0.21
361.462	0.11
361.67	0.05
361.879	0.1
362.087	0.18
362.295	0.07
362.503	0.07
362.711	0.01
362.92	0.08
363.128	0.06
363.336	0.05
363.544	0.06
363.752	0
363.96	0.07
364.168	0.07
364.376	0.07
364.584	0.09
364.792	0.18
365	0.13
365.208	0.14
365.416	0.11
365.624	0.12
365.832	0.05
366.04	0.15
366.248	0.09
366.456	0.11
366.664	0.07
366.872	0.09
367.079	0.06
367.287	0.06
367.495	0.08
367.703	0.08
367.911	0.07
368.118	0.08
368.326	0.08
368.534	0.04
368.742	0.12
368.949	-0.01
369.157	0.06
369.365	0.1
369.572	0.06
369.78	0.05
369.988	0.14
370.195	0.12
370.403	0.04
370.61	0.08
370.818	0.13
371.026	0.15
371.233	0.08
371.441	0.07
371.648	0.08
371.856	0.12
372.063	0.1
372.271	0.06
372.478	0.07
372.685	0.07
372.893	0.14
373.1	0.11
373.308	0.09
373.515	0.17
373.722	0.14
373.93	0.09
374.137	0.11
374.344	0.19
374.552	0.08
374.759	0.12
374.966	0.12
375.173	0.1
375.381	0.11
375.588	0.07
375.795	0.06
376.002	0.06
376.209	0.06
376.417	0.08
376.624	0.1
376.831	0.11
377.038	0.05
377.245	0.02
377.452	0.1
377.659	0.11
377.866	0.08
378.073	0.09
378.28	0.09
378.487	0.12
378.694	0.14
378.901	0.09
379.108	0.08
379.315	0.11
379.522	0.15
379.729	0.11
379.936	0.11
380.143	0.07
380.35	0.12
380.557	0.11
380.763	0.11
380.97	0.07
381.177	0.14
381.384	0.1
381.591	0.06
381.797	0.12
382.004	0.11
382.211	0.14
382.418	0.07
382.624	0.11
382.831	0.11
383.038	0.11
383.244	0.09
383.451	0.11
383.658	0.1
383.864	0.11
384.071	0.06
384.277	0.18
384.484	0.05
384.69	0.18
384.897	0.04
385.103	0.04
385.31	0.03
385.516	0.09
385.723	0.05
385.929	0.11
386.136	0.08
386.342	0.18
386.549	0.09
386.755	0.13
386.961	0.12
387.168	0.12
387.374	0.08
387.58	0.1
387.787	0.08
387.993	0.12
388.199	0.06
388.406	0.07
388.612	0.12
388.818	0.06
389.024	0.09
389.231	0.08
389.437	0.16
389.643	0.13
389.849	0.1
390.055	0.15
390.261	0.11
390.467	0.11
390.674	0.07
390.88	0.09
391.086	0.12
391.292	0.09
391.498	0.12
391.704	0.1
391.91	0.11
392.116	0.1
392.322	0.04
392.528	0.16
392.734	0.12
392.94	0.14
393.146	0.07
393.352	0.12
393.557	0.09
393.763	0.07
393.969	0.15
394.175	0.14
394.381	0.15
394.587	0.06
394.792	0.07
394.998	0.17
395.204	0.19
395.41	0.06
395.615	0.15
395.821	0.12
396.027	0.11
396.233	0.08
396.438	0.14
396.644	0.17
396.85	0.1
397.055	0.08
397.261	0.09
397.466	0.08
397.672	0.14
397.878	0.16
398.083	0.14
398.289	0.08
398.494	0.13
398.7	0.15
398.905	0.08
399.111	0.14
399.316	0.14
399.522	0.12
399.727	0.11
399.932	0.09
400.138	0.05
400.343	0.15
400.549	0.12
400.754	0.12
400.959	0.1
401.165	0.09
401.37	0.12
401.575	0.2
401.78	0.12
401.986	0.08
402.191	0.13
402.396	0.12
402.601	0.14
402.807	0.13
403.012	0.08
403.217	0.15
403.422	0.12
403.627	0.08
403.832	0.11
404.037	0.14
404.243	0.12
404.448	0.11
404.653	0.08
404.858	0.15
405.063	0.15
405.268	0.13
405.473	0.12
405.678	0.1
405.883	0.25
406.088	0.12
406.293	0.09
406.498	0.1
406.703	0.15
406.907	0.1
407.112	0.08
407.317	0.13
407.522	0.14
407.727	0.07
407.932	0.14
408.136	0.2
408.341	0.16
408.546	0.17
408.751	0.18
408.956	0.14
409.16	0.16
409.365	0.1
409.57	0.12
409.774	0.14
409.979	0.17
410.184	0.13
410.388	0.1
410.593	0.15
410.798	0.14
411.002	0.12
411.207	0.14
411.411	0.17
411.616	0.09
411.82	0.14
412.025	0.18
412.229	0.12
412.434	0.17
412.638	0.15
412.843	0.14
413.047	0.17
413.252	0.08
413.456	0.11
413.66	0.18
413.865	0.08
414.069	0.19
414.273	0.13
414.478	0.1
414.682	0.11
414.886	0.14
415.091	0.1
415.295	0.08
415.499	0.15
415.703	0.1
415.908	0.18
416.112	0.05
416.316	0.17
416.52	0.12
416.724	0.07
416.929	0.08
417.133	0.26
417.337	0.14
417.541	0.12
417.745	0.17
417.949	0.17
418.153	0.14
418.357	0.08
418.561	0.2
418.765	0.1
418.969	0.27
419.173	0.21
419.377	0.12
419.581	0.19
419.785	0.14
419.989	0.16
420.193	0.1
420.397	0.14
420.601	0.21
420.804	0.2
421.008	0.17
421.212	0.17
421.416	0.18
421.62	0.15
421.823	0.16
422.027	0.25
422.231	0.21
422.435	0.14
422.638	0.15
422.842	0.11
423.046	0.13
423.249	0.16
423.453	0.18
423.657	0.16
423.86	0.13
424.064	0.1
424.268	0.23
424.471	0.15
424.675	0.2
424.878	0.21
425.082	0.13
425.285	0.21
425.489	0.16
425.692	0.13
425.896	0.15
426.099	0.15
426.303	0.15
426.506	0.1
426.71	0.15
426.913	0.21
427.116	0.22
427.32	0.19
427.523	0.13
427.726	0.17
427.93	0.11
428.133	0.17
428.336	0.15
428.54	0.15
428.743	0.17
428.946	0.21
429.149	0.12
429.353	0.2
429.556	0.13
429.759	0.23
429.962	0.16
430.165	0.19
430.368	0.13
430.571	0.12
430.775	0.2
430.978	0.1
431.181	0.19
431.384	0.16
431.587	0.15
431.79	0.1
431.993	0.17
432.196	0.15
432.399	0.13
432.602	0.19
432.805	0.12
433.008	0.2
433.211	0.05
433.414	0.22
433.616	0.21
433.819	0.13
434.022	0.07
434.225	0.24
434.428	0.14
434.631	0.28
434.833	0.16
435.036	0.16
435.239	0.21
435.442	0.2
435.645	0.17
435.847	0.16
436.05	0.21
436.253	0.18
436.455	0.16
436.658	0.16
436.861	0.27
437.063	0.17
437.266	0.17
437.468	0.21
437.671	0.3
437.874	0.21
438.076	0.1
438.279	0.11
438.481	0.21
438.684	0.14
438.886	0.21
439.089	0.08
439.291	0.18
439.494	0.18
439.696	0.11
439.899	0.19
440.101	0.2
440.303	0.12
440.506	0.24
440.708	0.2
440.91	0.2
441.113	0.15
441.315	0.18
441.517	0.15
441.72	0.24
441.922	0.15
442.124	0.14
442.326	0.27
442.529	0.27
442.731	0.15
442.933	0.26
443.135	0.16
443.337	0.16
443.539	0.15
443.742	0.2
443.944	0.17
444.146	0.15
444.348	0.17
444.55	0.18
444.752	0.21
444.954	0.17
445.156	0.22
445.358	0.17
445.56	0.24
445.762	0.17
445.964	0.22
446.166	0.19
446.368	0.18
446.57	0.22
446.772	0.16
446.974	0.15
447.175	0.21
447.377	0.11
447.579	0.14
447.781	0.1
447.983	0.24
448.184	0.2
448.386	0.17
448.588	0.13
448.79	0.2
448.991	0.15
449.193	0.22
449.395	0.19
449.597	0.25
449.798	0.2
450	0.25
450.202	0.17
450.403	0.22
450.605	0.25
450.806	0.19
451.008	0.12
451.21	0.16
451.411	0.21
451.613	0.17
451.814	0.23
452.016	0.24
452.217	0.17
452.419	0.21
452.62	0.19
452.821	0.28
453.023	0.23
453.224	0.29
453.426	0.21
453.627	0.2
453.828	0.25
454.03	0.24
454.231	0.2
454.432	0.14
454.634	0.26
454.835	0.22
455.036	0.2
455.238	0.25
455.439	0.32
455.64	0.14
455.841	0.14
456.042	0.3
456.244	0.22
456.445	0.19
456.646	0.14
456.847	0.18
457.048	0.31
457.249	0.29
457.45	0.46
457.651	0.18
457.852	0.33
458.054	0.23
458.255	0.23
458.456	0.26
458.657	0.27
458.858	0.19
459.058	0.24
459.259	0.31
459.46	0.21
459.661	0.19
459.862	0.35
460.063	0.21
460.264	0.35
460.465	0.18
460.666	0.34
460.866	0.21
461.067	0.24
461.268	0.23
461.469	0.23
461.67	0.22
461.87	0.25
462.071	0.22
462.272	0.2
462.473	0.31
462.673	0.27
462.874	0.23
463.075	0.28
463.275	0.22
463.476	0.32
463.676	0.33
463.877	0.26
464.078	0.28
464.278	0.33
464.479	0.31
464.679	0.28
464.88	0.3
465.08	0.39
465.281	0.26
465.481	0.32
465.682	0.28
465.882	0.32
466.083	0.3
466.283	0.3
466.483	0.25
466.684	0.26
466.884	0.27
467.085	0.25
467.285	0.34
467.485	0.22
467.686	0.27
467.886	0.28
468.086	0.32
468.286	0.37
468.487	0.39
468.687	0.28
468.887	0.33
469.087	0.36
469.287	0.34
469.488	0.28
469.688	0.4
469.888	0.39
470.088	0.41
470.288	0.44
470.488	0.41
470.688	0.35
470.888	0.35
471.088	0.36
471.288	0.42
471.488	0.44
471.688	0.42
471.888	0.36
472.088	0.51
472.288	0.46
472.488	0.4
472.688	0.37
472.888	0.45
473.088	0.43
473.288	0.45
473.488	0.42
473.688	0.56
473.887	0.47
474.087	0.44
474.287	0.52
474.487	0.46
474.687	0.54
474.886	0.47
475.086	0.51
475.286	0.56
475.486	0.56
475.685	0.49
475.885	0.5
476.085	0.52
476.284	0.54
476.484	0.54
476.684	0.59
476.883	0.66
477.083	0.6
477.282	0.56
477.482	0.65
477.681	0.66
477.881	0.63
478.08	0.59
478.28	0.64
478.479	0.66
478.679	0.72
478.878	0.62
479.078	0.66
479.277	0.7
479.477	0.69
479.676	0.76
479.875	0.7
480.075	0.71
480.274	0.74
480.473	0.81
480.673	0.8
480.872	0.85
481.071	0.83
481.271	0.82
481.47	0.82
481.669	0.88
481.868	0.86
482.067	0.93
482.267	0.86
482.466	0.87
482.665	0.93
482.864	0.95
483.063	0.92
483.262	1.03
483.461	1.07
483.661	1.07
483.86	1.11
484.059	1.06
484.258	1.14
484.457	1.1
484.656	1.13
484.855	1.24
485.054	1.09
485.253	1.16
485.452	1.19
485.651	1.28
485.849	1.3
486.048	1.27
486.247	1.32
486.446	1.37
486.645	1.34
486.844	1.37
487.043	1.4
487.241	1.46
487.44	1.45
487.639	1.54
487.838	1.55
488.037	1.58
488.235	1.66
488.434	1.61
488.633	1.58
488.831	1.76
489.03	1.73
489.229	1.73
489.427	1.81
489.626	1.84
489.825	1.9
490.023	1.94
490.222	1.96
490.42	1.96
490.619	2.02
490.817	2.05
491.016	2.09
491.214	2.2
491.413	2.19
491.611	2.16
491.81	2.21
492.008	2.3
492.207	2.36
492.405	2.37
492.604	2.38
492.802	2.51
493	2.55
493.199	2.58
493.397	2.6
493.595	2.7
493.794	2.66
493.992	2.8
494.19	2.87
494.388	2.92
494.587	2.88
494.785	2.96
494.983	2.93
495.181	3.09
495.379	3.12
495.578	3.29
495.776	3.28
495.974	3.27
496.172	3.32
496.37	3.52
496.568	3.58
496.766	3.58
496.964	3.7
497.162	3.75
497.36	3.81
497.558	3.89
497.756	3.98
497.954	4.06
498.152	4.16
498.35	4.31
498.548	4.2
498.746	4.27
498.944	4.33
499.142	4.47
499.34	4.55
499.538	4.78
499.736	4.7
499.933	4.79
500.131	4.85
500.329	5.1
500.527	5.13
500.725	5.3
500.922	5.39
501.12	5.44
501.318	5.56
501.516	5.66
501.713	5.82
501.911	5.84
502.109	5.82
502.306	6.03
502.504	5.98
502.701	6.21
502.899	6.31
503.097	6.61
503.294	6.48
503.492	6.77
503.689	6.88
503.887	6.86
504.084	7.09
504.282	7.13
504.479	7.15
504.677	7.47
504.874	7.58
505.072	7.44
505.269	7.87
505.466	7.92
505.664	8.05
505.861	8.06
506.059	8.27
506.256	8.34
506.453	8.58
506.651	8.7
506.848	8.87
507.045	8.88
507.242	8.97
507.44	9.18
507.637	9.31
507.834	9.37
508.031	9.7
508.229	9.66
508.426	9.6
508.623	10.01
508.82	10.23
509.017	10.22
509.214	10.25
509.411	10.52
509.608	10.55
509.805	10.9
510.003	10.9
510.2	11.11
510.397	11.34
510.594	11.28
510.791	11.48
510.988	11.57
511.184	11.5
511.381	11.45
511.578	11.88
511.775	12.14
511.972	12.1
512.169	12.33
512.366	12.33
512.563	12.7
512.76	12.76
512.956	12.94
513.153	12.85
513.35	12.79
513.547	12.97
513.744	13.24
513.94	13.26
514.137	13.48
514.334	13.49
514.53	13.63
514.727	14.1
514.924	13.81
515.12	13.9
515.317	14.01
515.514	13.82
515.71	13.87
515.907	14.36
516.103	14.38
516.3	14.17
516.497	14.51
516.693	14.49
516.89	14.59
517.086	14.67
517.283	14.74
517.479	14.46
517.676	14.95
517.872	15.03
518.068	14.85
518.265	14.82
518.461	14.72
518.658	15.04
518.854	14.97
519.05	15.2
519.247	15.23
519.443	15.04
519.639	15.27
519.836	15
520.032	14.9
520.228	15.23
520.424	14.98
520.621	15.06
520.817	15.2
521.013	14.92
521.209	15.3
521.405	15.1
521.601	14.99
521.798	14.85
521.994	14.84
522.19	14.72
522.386	14.73
522.582	14.85
522.778	15.03
522.974	14.64
523.17	14.6
523.366	14.47
523.562	14.44
523.758	14.49
523.954	14.1
524.15	14.35
524.346	14.32
524.542	14.22
524.738	14.01
524.934	14.14
525.129	14.12
525.325	13.72
525.521	13.64
525.717	13.88
525.913	13.49
526.109	13.52
526.304	13.55
526.5	13.36
526.696	13.3
526.892	13.06
527.087	13.38
527.283	13.15
527.479	12.87
527.674	12.47
527.87	12.64
528.066	12.57
528.261	12.43
528.457	12.13
528.653	12.4
528.848	12.2
529.044	12.18
529.239	11.84
529.435	11.7
529.63	11.53
529.826	11.46
530.021	11.4
530.217	11.38
530.412	11.15
530.608	11.08
530.803	10.96
530.999	10.63
531.194	10.83
531.389	10.74
531.585	10.66
531.78	10.65
531.975	10.36
532.171	10.35
532.366	10.17
532.561	10.12
532.757	9.86
532.952	10.01
533.147	9.6
533.342	9.72
533.538	9.48
533.733	9.61
533.928	9.12
534.123	9.28
534.318	9.19
534.513	9
534.709	9.13
534.904	8.9
535.099	8.9
535.294	8.84
535.489	8.68
535.684	8.57
535.879	8.41
536.074	8.37
536.269	8.32
536.464	8.26
536.659	8.09
536.854	7.97
537.049	7.98
537.244	7.81
537.439	7.8
537.634	7.67
537.828	7.64
538.023	7.49
538.218	7.44
538.413	7.25
538.608	7.29
538.803	7.19
538.997	7.11
539.192	7.07
539.387	6.9
539.582	6.87
539.776	6.74
539.971	6.72
540.166	6.75
540.36	6.62
540.555	6.6
540.75	6.46
540.944	6.43
541.139	6.33
541.334	6.24
541.528	6.18
541.723	6.14
541.917	6.14
542.112	5.95
542.306	5.77
542.501	5.82
542.695	5.77
542.89	5.67
543.084	5.66
543.279	5.61
543.473	5.63
543.668	5.51
543.862	5.33
544.056	5.29
544.251	5.33
544.445	5.31
544.64	5.25
544.834	4.95
545.028	4.86
545.222	5.04
545.417	5.08
545.611	4.92
545.805	4.84
546	4.64
546.194	4.7
546.388	4.64
546.582	4.56
546.776	4.51
546.97	4.49
547.165	4.46
547.359	4.35
547.553	4.24
547.747	4.24
547.941	4.28
548.135	4.12
548.329	4.11
548.523	4.05
548.717	3.98
548.911	3.95
549.105	3.86
549.299	3.9
549.493	3.81
549.687	3.72
549.881	3.76
550.075	3.65
550.269	3.58
550.463	3.59
550.657	3.53
550.85	3.48
551.044	3.43
551.238	3.4
551.432	3.32
551.626	3.32
551.82	3.26
552.013	3.12
552.207	3.25
552.401	3.18
552.594	3.11
552.788	3.03
552.982	2.97
553.176	2.95
553.369	3.02
553.563	2.95
553.756	2.82
553.95	2.83
554.144	2.8
554.337	2.78
554.531	2.7
554.724	2.66
554.918	2.66
555.111	2.62
555.305	2.59
555.498	2.52
555.692	2.56
555.885	2.49
556.079	2.46
556.272	2.38
556.466	2.4
556.659	2.33
556.852	2.33
557.046	2.25
557.239	2.21
557.432	2.21
557.626	2.17
557.819	2.22
558.012	2.19
558.206	2.15
558.399	2.06
558.592	2.08
558.785	1.99
558.979	2.05
559.172	1.97
559.365	2
559.558	1.9
559.751	1.87
559.944	1.89
560.138	1.85
560.331	1.83
560.524	1.81
560.717	1.78
560.91	1.77
561.103	1.78
561.296	1.67
561.489	1.72
561.682	1.64
561.875	1.66
562.068	1.66
562.261	1.64
562.454	1.65
562.647	1.56
562.84	1.57
563.032	1.54
563.225	1.55
563.418	1.47
563.611	1.46
563.804	1.47
563.997	1.38
564.19	1.37
564.382	1.43
564.575	1.36
564.768	1.36
564.961	1.35
565.153	1.31
565.346	1.32
565.539	1.34
565.731	1.29
565.924	1.31
566.117	1.29
566.309	1.25
566.502	1.19
566.695	1.21
566.887	1.24
567.08	1.14
567.272	1.19
567.465	1.11
567.657	1.15
567.85	1.12
568.042	1.12
568.235	1.15
568.427	1.06
568.62	1.08
568.812	1.06
569.005	1.05
569.197	0.96
569.389	1.05
569.582	1.02
569.774	1.01
569.966	0.94
570.159	0.92
570.351	0.94
570.543	0.92
570.736	0.92
570.928	0.88
571.12	0.92
571.312	0.86
571.505	0.82
571.697	0.89
571.889	0.85
572.081	0.82
572.273	0.82
572.465	0.86
572.658	0.81
572.85	0.82
573.042	0.78
573.234	0.79
573.426	0.79
573.618	0.74
573.81	0.78
574.002	0.76
574.194	0.76
574.386	0.68
574.578	0.67
574.77	0.71
574.962	0.7
575.154	0.65
575.346	0.67
575.538	0.69
575.729	0.65
575.921	0.65
576.113	0.61
576.305	0.66
576.497	0.61
576.689	0.6
576.88	0.61
577.072	0.65
577.264	0.6
577.456	0.62
577.647	0.55
577.839	0.6
578.031	0.65
578.223	0.53
578.414	0.53
578.606	0.59
578.798	0.56
578.989	0.51
579.181	0.55
579.372	0.54
579.564	0.52
579.755	0.53
579.947	0.52
580.139	0.54
580.33	0.47
580.522	0.49
580.713	0.44
580.905	0.48
581.096	0.48
581.287	0.48
581.479	0.46
581.67	0.5
581.862	0.46
582.053	0.43
582.244	0.4
582.436	0.44
582.627	0.43
582.818	0.39
583.01	0.38
583.201	0.42
583.392	0.43
583.583	0.4
583.775	0.39
583.966	0.37
584.157	0.38
584.348	0.37
584.54	0.35
584.731	0.4
584.922	0.36
585.113	0.34
585.304	0.4
585.495	0.42
585.686	0.36
585.877	0.41
586.068	0.36
586.259	0.36
586.45	0.38
586.641	0.31
586.832	0.29
587.023	0.34
587.214	0.32
587.405	0.32
587.596	0.29
587.787	0.39
587.978	0.34
588.169	0.29
588.36	0.31
588.551	0.31
588.742	0.31
588.932	0.31
589.123	0.28
589.314	0.33
589.505	0.3
589.696	0.3
589.886	0.3
590.077	0.25
590.268	0.3
590.458	0.24
590.649	0.24
590.84	0.31
591.03	0.28
591.221	0.25
591.412	0.24
591.602	0.28
591.793	0.32
591.984	0.21
592.174	0.24
592.365	0.35
592.555	0.21
592.746	0.28
592.936	0.26
593.127	0.29
593.317	0.3
593.508	0.25
593.698	0.23
593.889	0.26
594.079	0.24
594.269	0.21
594.46	0.24
594.65	0.24
594.84	0.22
595.031	0.19
595.221	0.19
595.411	0.16
595.602	0.22
595.792	0.21
595.982	0.2
596.172	0.26
596.363	0.24
596.553	0.21
596.743	0.2
596.933	0.21
597.123	0.22
597.314	0.17
597.504	0.18
597.694	0.25
597.884	0.21
598.074	0.21
598.264	0.21
598.454	0.22
598.644	0.2
598.834	0.19
599.024	0.13
599.214	0.18
599.404	0.2
599.594	0.18
599.784	0.16
599.974	0.24
600.164	0.19
600.354	0.15
600.544	0.14
600.734	0.18
600.924	0.19
601.114	0.14
601.303	0.17
601.493	0.17
601.683	0.15
601.873	0.19
602.063	0.09
602.252	0.16
602.442	0.12
602.632	0.13
602.821	0.11
603.011	0.2
603.201	0.16
603.39	0.11
603.58	0.13
603.77	0.17
603.959	0.2
604.149	0.16
604.339	0.13
604.528	0.19
604.718	0.19
604.907	0.15
605.097	0.15
605.286	0.12
605.476	0.17
605.665	0.16
605.855	0.15
606.044	0.2
606.234	0.15
606.423	0.15
606.612	0.12
606.802	0.15
606.991	0.14
607.181	0.16
607.37	0.1
607.559	0.14
607.749	0.11
607.938	0.13
608.127	0.14
608.316	0.12
608.506	0.15
608.695	0.15
608.884	0.11
609.073	0.14
609.263	0.12
609.452	0.16
609.641	0.12
609.83	0.11
610.019	0.14
610.208	0.12
610.397	0.14
610.586	0.14
610.775	0.1
610.965	0.1
611.154	0.07
611.343	0.12
611.532	0.15
611.721	0.07
611.91	0.12
612.099	0.13
612.287	0.11
612.476	0.09
612.665	0.12
612.854	0.09
613.043	0.17
613.232	0.11
613.421	0.08
613.61	0.15
613.798	0.11
613.987	0.13
614.176	0.12
614.365	0.12
614.554	0.13
614.742	0.12
614.931	0.11
615.12	0.13
615.309	0.08
615.497	0.13
615.686	0.08
615.875	0.11
616.063	0.13
616.252	0.11
616.44	0.09
616.629	0.13
616.818	0.15
617.006	0.09
617.195	0.08
617.383	0.1
617.572	0.1
617.76	0.09
617.949	0.09
618.137	0.13
618.326	0.14
618.514	0.11
618.703	0.1
618.891	0.12
619.079	0.05
619.268	0.13
619.456	0.08
619.644	0.18
619.833	0.11
620.021	0.09
620.209	0.03
620.398	0.11
620.586	0.11
620.774	0.13
620.962	0.12
621.151	0.17
621.339	0.1
621.527	0.04
621.715	0.07
621.903	0.06
622.092	0.04
622.28	0.1
622.468	0.09
622.656	0.09
622.844	0.14
623.032	0.07
623.22	0.05
623.408	0.14
623.596	0.14
623.784	0.12
623.972	0.07
624.16	0.08
624.348	0.16
624.536	0.1
624.724	0.06
624.912	0.13
625.1	0.13
625.288	0.08
625.476	0.08
625.664	0.13
625.851	0.08
626.039	0.08
626.227	0.09
626.415	0.08
626.603	0.03
626.79	0.09
626.978	0.11
627.166	0.12
627.354	0.12
627.541	0.08
627.729	0.01
627.917	0.15
628.104	0.14
628.292	0.09
628.48	0.11
628.667	0.08
628.855	0.13
629.042	0.12
629.23	0.07
629.418	0.11
629.605	0.12
629.793	0.09
629.98	0.08
630.168	0.09
630.355	0.09
630.543	0.06
630.73	0.06
630.917	0.09
631.105	0.16
631.292	0.06
631.48	0.11
631.667	0.17
631.854	0.07
632.042	0.05
632.229	0.03
632.416	0.11
632.604	0.09
632.791	0.07
632.978	0.12
633.165	0.08
633.353	0.18
633.54	0.12
633.727	0.02
633.914	0.07
634.101	0.1
634.289	0.13
634.476	0.06
634.663	0.06
634.85	0.1
635.037	0.03
635.224	0.04
635.411	0.11
635.598	0.11
635.785	0.07
635.972	0.07
636.159	0.09
636.346	0.06
636.533	0.09
636.72	0.06
636.907	0.08
637.094	0.09
637.281	0.06
637.468	0.05
637.655	0.06
637.842	0.07
638.029	0.07
638.215	0.11
638.402	0.08
638.589	0.06
638.776	0.05
638.963	0.03
639.149	0.14
639.336	0.14
639.523	0.07
639.709	0.08
639.896	0.08
640.083	0.13
640.27	0.1
640.456	0.08
640.643	0.1
640.829	0.03
641.016	0.06
641.203	0.02
641.389	0.09
641.576	0.09
641.762	0.08
641.949	0.06
642.135	0.08
642.322	0.12
642.508	0.03
642.695	0.07
642.881	0.08
643.068	0.06
643.254	0.07
643.441	0.14
643.627	0.09
643.813	0.05
644	0.12
644.186	0.08
644.372	0.04
644.559	0.1
644.745	0.09
644.931	0.05
645.118	0.07
645.304	0.09
645.49	0.08
645.676	0.05
645.862	0.09
646.049	0.11
646.235	0.07
646.421	0.14
646.607	0.13
646.793	0.05
646.979	0.06
647.165	0.1
647.352	0.08
647.538	0.08
647.724	0.08
647.91	0.08
648.096	0.13
648.282	0.11
648.468	0.06
648.654	0.08
648.84	0.09
649.026	0.09
649.212	0.08
649.397	0.09
649.583	0.05
649.769	0.1
649.955	0.09
650.141	0.12
650.327	0.12
650.513	0.05
650.698	0.09
650.884	0.03
651.07	0.06
651.256	0.11
651.442	0.11
651.627	0.07
651.813	0.14
651.999	0.07
652.184	0.1
652.37	0.07
652.556	0.05
652.741	0.15
652.927	0.01
653.113	0.08
653.298	0.06
653.484	0.06
653.669	0.02
653.855	0.04
654.04	0.1
654.226	0.1
654.412	0.07
654.597	0.02
654.782	0.1
654.968	0.1
655.153	0.09
655.339	0.06
655.524	0.05
655.71	0.12
655.895	0.08
656.08	0.07
656.266	0.16
656.451	0.08
656.636	0.04
656.822	0.06
657.007	0.07
657.192	0.09
657.378	0
657.563	0.08
657.748	0.06
657.933	0.1
658.118	0.09
658.304	0.07
658.489	0.1
658.674	0.08
658.859	0.05
659.044	0.11
659.229	0.1
659.414	0.04
659.599	0.07
659.785	0.04
659.97	0.05
660.155	0.09
660.34	0.05
660.525	0.07
660.71	0.07
660.895	0.11
661.08	0.05
661.264	0.05
661.449	0.14
661.634	0.12
661.819	0.1
662.004	0.11
662.189	0.03
662.374	0.04
662.559	0.02
662.743	0.01
662.928	0.09
663.113	0.07
663.298	0.02
663.483	0.06
663.667	0.08
663.852	0.02
664.037	0.11
664.221	0.06
664.406	0.09
664.591	0.16
664.775	0.08
664.96	0.1
665.145	0.12
665.329	0.09
665.514	0.09
665.698	0.06
665.883	0.01
666.068	0.13
666.252	0.06
666.437	0.05
666.621	0.11
666.806	0.13
666.99	0.07
667.174	0.07
667.359	0.16
667.543	0.07
667.728	0.08
667.912	0.03
668.096	0.12
668.281	0.09
668.465	0.08
668.649	0.09
668.834	0.09
669.018	0.08
669.202	0.08
669.387	0.06
669.571	0.09
669.755	0.05
669.939	0.09
670.124	0.07
670.308	0.17
670.492	0.13
670.676	0.11
670.86	0.07
671.044	0.07
671.228	0.12
671.413	0.08
671.597	0.08
671.781	0.07
671.965	0.15
672.149	0.12
672.333	0.07
672.517	0.08
672.701	0.13
672.885	0.09
673.069	0.05
673.253	0.1
673.437	0.11
673.621	0.05
673.804	0.09
673.988	0.09
674.172	0.12
674.356	0.12
674.54	0.12
674.724	0.16
674.908	0.11
675.091	0.14
675.275	0.1
675.459	0.12
675.643	0.14
675.826	0.13
676.01	0.12
676.194	0.08
676.377	0.14
676.561	0.12
676.745	0.16
676.928	0.13
677.112	0.13
677.296	0.11
677.479	0.05
677.663	0.05
677.846	0.14
678.03	0.09
678.213	0.11
678.397	0.15
678.58	0.09
678.764	0.07
678.947	0.09
679.131	0.1
679.314	0.13
679.498	0.09
679.681	0.14
679.865	0.15
680.048	0.11
680.231	0.08
680.415	0.09
680.598	0.09
680.781	0.12
680.965	0.09
681.148	0.12
681.331	0.12
681.514	0.14
681.698	0.07
681.881	0.09
682.064	0.13
682.247	0.08
682.43	0.02
682.614	0.13
682.797	0.13
682.98	0.17
683.163	0.07
683.346	0.12
683.529	0.12
683.712	0.08
683.895	0.17
684.078	0.09
684.261	0.08
684.444	0.11
684.627	0.14
684.81	0.1
684.993	0.1
685.176	0.14
685.359	0.09
685.542	0.07
685.725	0.11
685.908	0.1
686.091	0.1
686.274	0.16
686.457	0.13
686.639	0.11
686.822	0.16
687.005	0.13
687.188	0.11
687.371	0.2
687.553	0.15
687.736	0.13
687.919	0.22
688.102	0.14
688.284	0.1
688.467	0.09
688.65	0.07
688.832	0.08
689.015	0.12
689.197	0.03
689.38	0.18
689.563	0.19
689.745	0.11
689.928	0.07
690.11	0.1
690.293	0.15
690.475	0.05
690.658	0.07
690.84	0.08
691.023	0.09
691.205	0.04
691.388	0.07
691.57	0.15
691.752	0.14
691.935	0.02
692.117	0.05
692.3	0.13
692.482	0.07
692.664	0.09
692.847	0.1
693.029	0.22
693.211	0.17
693.393	0.1
693.576	0.06
693.758	0.07
693.94	0.08
694.122	0.07
694.304	0.08
694.487	0.09
694.669	0.13
694.851	0.07
695.033	0.11
695.215	0.1
695.397	0.08
695.579	0.11
695.761	0.06
695.943	-0.02
696.125	0.17
696.308	0.11
696.49	0.02
696.671	0.19
696.853	0.11
697.035	0.26
697.217	0.1
697.399	0.12
697.581	0.04
697.763	0.14
697.945	0.05
698.127	0.12
698.309	0.06
698.491	0.12
698.672	0.17
698.854	0.11
699.036	0.19
699.218	0.07
699.399	0.14
699.581	0.13
699.763	0.15
699.945	0.06
700.126	0.04
700.308	0.13
700.49	0.08
700.671	0.03
700.853	0.04
701.035	0.13
701.216	0.08
701.398	0.09
701.579	0.11
701.761	0.16
701.943	0.05
702.124	0.09
702.306	0.11
702.487	0.18
702.669	0.1
702.85	0.09
703.031	0.04
703.213	0.21
703.394	0.1
703.576	0.06
703.757	0.16
703.938	0.14
704.12	0.29
704.301	0.06
704.483	0.1
704.664	0.12
704.845	0.12
705.026	0.18
705.208	0.08
705.389	0.09
705.57	0.13
705.751	0.08
705.933	0.17
706.114	0.13
706.295	0.15
706.476	0.04
706.657	0.21
706.838	0.07
707.02	0.18
707.201	0.06
707.382	0.08
707.563	0.17
707.744	0.03
707.925	0.03
708.106	0.04
708.287	0.11
708.468	0.21
708.649	0.11
708.83	0.15
709.011	0.11
709.192	0.11
709.373	0.05
709.554	0.08
709.734	0.14
709.915	0.17
710.096	0.07
710.277	0.04
710.458	0.09
710.639	0.15
710.819	-0.01
711	0.09
711.181	0.16
711.362	0.15
711.542	0.09
711.723	0.04
711.904	0.18
712.085	0.13
712.265	0.06
712.446	0.04
712.627	0.06
712.807	0.1
712.988	0.15
713.168	-0
713.349	0.16
713.53	-0.03
713.71	0.04
713.891	0.07
714.071	0.09
714.252	0.11
714.432	0.04
714.613	0.05
714.793	0.15
714.974	0.16
715.154	0.19
715.334	0.12
715.515	0.19
715.695	0.07
715.876	0.02
716.056	0.09
716.236	0.11
716.417	0.1
716.597	0.04
716.777	0.21
716.957	0.07
717.138	0.09
717.318	0.07
717.498	0.06
717.678	0.15
717.859	0.16
718.039	0.05
718.219	0.14
718.399	0.13
718.579	0.06
718.759	0.02
718.939	0.09
719.12	0.07
719.3	0.13
719.48	0.02
719.66	0.05
719.84	0.18
720.02	0.05
720.2	0.03
720.38	0.2
720.56	0.19
720.74	0.06
720.92	0.1
721.1	0.16
721.279	0.15
721.459	0.13
721.639	0.02
721.819	0.17
721.999	0.09
722.179	0.18
722.359	-0
722.538	0.08
722.718	0.2
722.898	0.08
723.078	0.06
723.257	0.06
723.437	0.12
723.617	0.08
723.797	0
723.976	0.1
724.156	0.14
724.336	0.21
724.515	0.23
724.695	0
724.874	0.07
725.054	0.16
725.234	0.03
725.413	0.1
725.593	0.14
725.772	0.08
725.952	0.12
726.131	0.02
726.311	0.2
726.49	0.05
726.67	0.08
726.849	-0.01
727.028	0.15
727.208	-0.01
727.387	0.05
727.567	0.06
727.746	0.08
727.925	0.15
728.105	0.04
728.284	0.1
728.463	0
728.643	0.16
728.822	-0.03
729.001	0.13
729.18	0.14
729.359	0.16
729.539	0.13
729.718	0.14
729.897	0.24
730.076	0.1
730.255	0.05
730.434	0.13
730.614	0.19
730.793	0.2
730.972	0.11
731.151	0.07
731.33	0.23
731.509	0.2
731.688	0.06
731.867	0.04
732.046	-0.03
732.225	0.31
732.404	-0.02
732.583	-0.01
732.762	0.09
732.941	0.25
733.12	0.17
733.298	0.02
733.477	0.18
733.656	0.09
733.835	-0
734.014	0.1
734.193	0.05
734.371	0.22
734.55	0.17
734.729	0.05
734.908	0.09
735.086	0.16
735.265	0.08
735.444	-0.02
735.623	0.04
735.801	0.02
735.98	0.12
736.159	0.11
736.337	0.2
736.516	0.21
736.694	0.11
736.873	0.09
737.052	0.33
737.23	0.28
737.409	0.06
737.587	0.32
737.766	-0
737.944	-0.01
738.123	0.14
738.301	0.17
738.479	0.14
738.658	0.25
738.836	-0.06
739.015	0.14
739.193	0.2
739.371	0.04
739.55	0.05
739.728	0.08
739.906	0.22
740.085	0.16
740.263	0.17
740.441	-0.22
740.62	0.3
740.798	0.26
740.976	-0.09
741.154	0
741.332	0.27
741.511	0.11
741.689	0.12
741.867	0.17
742.045	0.07
742.223	0.14
742.401	0.09
742.579	0.07
742.757	0.22
742.935	-0.08
743.114	0.06
743.292	0.06
743.47	0.15
743.648	0.15
743.826	0.24
744.004	0.2
744.181	0.15
744.359	0.1
744.537	0.21
744.715	0.08
744.893	0.14
745.071	0.01
745.249	0.06
745.427	0.11
745.605	0.21
745.782	0.12
745.96	0.15
746.138	0.14
746.316	0.13
746.493	0.05
746.671	0.1
746.849	0.13
747.027	0.15
747.204	0.08
747.382	0.25
747.56	-0.07
747.737	0.11
747.915	0.07
748.093	0.27
748.27	0.09
748.448	0.01
748.625	0.01
748.803	0.1
748.98	0.14
749.158	0.17
749.335	0.2
749.513	0
749.69	0.12
749.868	0.08
750.045	0.15
750.223	0.05
750.4	-0.07
750.578	0.39
750.755	0.04
750.932	-0.08
751.11	0.17
751.287	-0.01
751.464	0.28
751.642	-0.02
751.819	0.17
751.996	0.08
752.173	0.04
752.351	0.07
752.528	0.14
752.705	0.18
752.882	0.02
753.06	0.12
753.237	0.2
753.414	0.28
753.591	0.31
753.768	0.01
753.945	0.01
754.122	0.08
754.299	0.05
754.476	0.01
754.654	0.05
754.831	0.16
755.008	0.13
755.185	0.05
755.362	-0.11
755.539	0.22
755.716	0.07
755.892	0.07
756.069	0.07
756.246	0.15
756.423	0.1
756.6	0.23
756.777	0.04
756.954	0.17
757.131	0.07
757.307	0.08
757.484	-0.04
757.661	0.12
757.838	0.19
758.015	-0.01
758.191	0.15
758.368	0.19
758.545	0.38
758.721	0.13
758.898	0.1
759.075	0.16
759.251	0.15
759.428	0.21
759.605	-0.14
759.781	0.09
759.958	0.01
760.134	0.15
760.311	0.07
760.488	0.17
760.664	0.21
760.841	0.13
761.017	-0.05
761.194	0.15
761.37	0.24
761.547	0.14
761.723	0.09
761.899	0.26
762.076	-0.01
762.252	-0
762.429	0.09
762.605	0.17
762.781	0.01
762.958	0.15
763.134	0.03
763.31	0.08
763.486	0.23
763.663	-0.12
763.839	0.2
764.015	-0.04
764.191	0
764.368	-0.03
764.544	0.05
764.72	0.29
764.896	0.21
765.072	0.26
765.248	-0.01
765.425	0.14
765.601	0.17
765.777	0.07
765.953	-0.04
766.129	0.01
766.305	0.11
766.481	0.13
766.657	0.14
766.833	0.2
767.009	-0.11
767.185	-0.01
767.361	0.04
767.537	-0.02
767.713	0.38
767.889	0.09
768.065	0.05
768.24	-0.04
768.416	0.2
768.592	0.04
768.768	0.19
768.944	0.2
769.12	0.11
769.295	0.14
769.471	0.22
769.647	0.15
769.823	0.22
769.998	-0.03
770.174	0.02
770.35	0.34
770.525	0.43
770.701	0.1
770.877	0.27
771.052	-0.04
771.228	0.2
771.403	0.14
771.579	0.11
771.755	0.32
771.93	0.07
772.106	-0.03
772.281	-0
772.457	0.16
772.632	0.17
772.808	-0.08
772.983	0.04
773.159	-0.07
773.334	0.23
773.509	0.21
773.685	-0
773.86	0.46
774.036	0.31
774.211	0.05
774.386	0.16
774.562	0.04
774.737	0.18
774.912	-0.05
775.087	0.15
775.263	0.08
775.438	0.19
775.613	0.1
775.788	0.09
775.964	0.15
776.139	0.47
776.314	-0.02
776.489	0.13
776.664	0.01
776.839	0.06
777.014	0.14
777.19	0.11
777.365	0.38
777.54	0.28
777.715	-0.05
777.89	0.25
778.065	0.02
778.24	0.08
778.415	0.33
778.59	0.04
778.765	0.16
778.94	0.21
779.115	0.08
779.289	-0.02
779.464	-0.03
779.639	0.15
779.814	-0
779.989	-0.03
780.164	0.24
780.339	0.27
780.513	-0.07
780.688	-0.15
780.863	0.09
781.038	0.26
781.212	0.11
781.387	0.22
781.562	0.4
781.737	0.08
781.911	0.34
782.086	-0.09
782.261	0.08
782.435	0.34
782.61	0.22
782.784	0.11
782.959	0.28
783.134	0.01
783.308	-0.02
783.483	0.08
783.657	0.54
783.832	0.34
784.006	0.01
784.181	0.11
784.355	0.25
784.53	-0.07
784.704	-0.06
784.878	0.39
785.053	0.2
785.227	0.38
785.402	0.74
785.576	-0.18
785.75	0.01
785.925	0.15
786.099	0.07
786.273	0.16
786.448	0.37
786.622	0.36
786.796	0.07
786.97	0.19
787.145	0.66
787.319	-0.17
787.493	0.07
787.667	-0.29
787.841	0.04
788.015	0.39
788.19	0.19
788.364	0.18
788.538	0.43
788.712	0.19
788.886	0.07
789.06	0.37
789.234	0.21
789.408	-0.12
789.582	-0.05
789.756	0.08
789.93	-0.03
790.104	0.18
790.278	0.07
790.452	-0.04
790.626	0.29
790.8	0.04
790.973	0.31
791.147	0.23
791.321	0.73
791.495	0.33
791.669	0.17
791.843	0.02
792.016	0.23
792.19	0.56
792.364	-0.04
792.538	0.64
792.711	0.39
792.885	0.13
793.059	0.02
793.233	-0.4
793.406	0.23
793.58	0.19
793.754	0.13
793.927	-0.1
794.101	0.32
794.274	0.06
794.448	0.54
794.622	-0.07
794.795	0.41
794.969	-0.04
795.142	0.61
795.316	0
795.489	0.02
795.663	0.48
795.836	0.16
796.009	-0.03
796.183	0.54
796.356	0.29
796.53	0.03
796.703	0.08
796.876	0.84
797.05	0.07
797.223	0.21
797.396	0.26
797.57	0.33
797.743	0.61
797.916	0.19
798.09	0.07
798.263	0.58
798.436	0.19
798.609	0.14
798.782	-0.21
798.956	0.19
799.129	0.07
799.302	0.29
799.475	-0.15
799.648	-0.07
799.821	0.19
799.994	0.18
800.167	-0.13
800.34	0.09
800.514	0.45
800.687	0.05
800.86	0.22
801.033	0.12
801.206	0.1
801.379	0.09
801.551	0.33
801.724	0.36
801.897	0.37
802.07	0.15
802.243	-0.29
802.416	0.17
802.589	0.04
802.762	0.14
802.935	0.08
803.107	0.32
803.28	0.56
803.453	0.5
803.626	0.13
803.798	0.37
803.971	-0.05
804.144	0.3
804.317	0.24
804.489	0.26
804.662	-0.21
804.835	0.28
805.007	-0.19
805.18	0.46
805.353	0.33
805.525	-0.17
805.698	0.06
805.87	0.35
806.043	0.66
806.215	-0.22
806.388	0.07
806.56	0.3
806.733	0.52
806.905	0.36
807.078	-0.09
807.25	-0.06
807.423	0.23
807.595	0.18
807.768	0.16
807.94	0.4
808.112	0.27
808.285	0.07
808.457	0.08
808.629	-0.04
808.802	0.28
808.974	-0.08
809.146	-0.07
809.318	-0.3
809.491	0.22
809.663	0.41
809.835	-0.15
810.007	0.63
810.18	0.29
810.352	-0.17
810.524	0.01
810.696	0.4
810.868	0.43
811.04	0.08
811.212	0.16
811.384	0.67
811.556	0.29
811.728	0.4
811.901	0.75
812.073	0.11
812.245	0.67
812.417	0.49
812.589	-0.1
812.76	0.16
812.932	0.7
813.104	0.9
813.276	0.08
813.448	0.21
813.62	0.12
813.792	0.47
813.964	0.06
814.136	0.23
814.307	-0.23
814.479	-0.17
814.651	-0.12
814.823	0.92
814.995	-0.18
815.166	0.07
815.338	0.06
815.51	-0.29
815.681	0.91
815.853	0.2
816.025	0.32
816.196	1
816.368	0.57
816.54	-0.05
816.711	-0.16
816.883	0.28
817.054	0.83
817.226	-0.31
817.398	0.39
817.569	0.19
817.741	0.2
817.912	0.1
818.084	-0
818.255	-0
818.426	0.38
818.598	0.2
818.769	0.18
818.941	0.65
819.112	0.87
819.283	0.35
819.455	-0.33
819.626	0.3
819.798	0.64
819.969	0.72
820.14	-0.3
820.311	0.07
820.483	-0.02
820.654	0.5
820.825	0.32
820.996	0.03
821.168	-0.05
821.339	0.08
821.51	-0.58
821.681	0.18
821.852	0.44
822.023	0.39
822.195	-0.39
822.366	0.36
822.537	0.17
822.708	0.16
822.879	-0.12
823.05	0.48
823.221	0.03
823.392	0.23
823.563	-0.03
823.734	0.53
823.905	0.26
824.076	0.04
824.247	-0.06
824.418	-0.02
824.589	1.08
824.759	0.42
824.93	-0.12
825.101	-0.44
825.272	0.36
825.443	0.9
825.614	0.64
825.784	-0.53
825.955	1.25
826.126	0.91
826.297	0.43
826.467	0.78
826.638	0.86
826.809	-0.47
826.98	0.37
827.15	0.77
827.321	0.05
827.492	0.87
827.662	0.5
827.833	1.36
828.003	0.39
828.174	-0.31
828.345	-0.74
828.515	0.9
828.686	-0.13
828.856	-0.09
829.027	0.33
829.197	0.77
829.368	0.74
829.538	0.11
829.709	0.58
829.879	0.07
830.049	0.22
830.22	-0.62
830.39	0.38
830.56	0.53
830.731	0.43
830.901	0.01
831.072	0.62
831.242	0.41
831.412	0.86
831.582	0.28
831.753	-0.4
831.923	0.74
832.093	-0.18
832.263	-0.05
832.434	-0.1
832.604	-0.34
832.774	0.65
832.944	0.75
833.114	-0.16
833.284	0.92
833.454	-0.22
833.624	0.17
833.795	-0.4
833.965	0.68
834.135	0.92
834.305	-1.05
834.475	-0.71
834.645	0.25
834.815	0.07
834.985	-0.29
835.155	-0.14
835.325	0.9
835.494	0.36
835.664	0.44
835.834	-0.05
836.004	0.45
836.174	0.52
836.344	-0.26
836.514	-0.67
836.684	-0.2
836.853	0.19
837.023	0.57
837.193	-0.62
837.363	0.79
837.532	0.88
837.702	-0.14
837.872	0.03
838.041	0.93
838.211	0.98
838.381	-0.6
838.55	0.44
838.72	1.56
838.89	1.6
839.059	0.49
839.229	-0.37
839.398	1.23
839.568	1.19
839.738	-0.25
839.907	1.29
840.077	0.55
840.246	0.63
840.416	-0.37
840.585	-0.22
840.755	0.99
840.924	1.19
841.093	-0.28
841.263	0.47
841.432	-0.02
841.602	-0.01
841.771	0.09
841.94	0.72
842.11	1.43
842.279	1.99
842.448	-0.25
842.617	0.06
842.787	1.09
842.956	-0.25
843.125	0.56
843.294	0.94
843.464	1.84
843.633	0.11
843.802	-0.7
843.971	0.1
844.14	0.56
844.309	1.25
844.479	-0.42
844.648	-0.29
844.817	-0.36
844.986	0.08
845.155	0.02
845.324	0.95
845.493	0.15
845.662	-0.11
845.831	1.19
846	0.68
846.169	0.3
846.338	1.09
846.507	0.18
846.676	1.58
846.844	-0.33
847.013	1.21
847.182	0.65
847.351	-0.27
847.52	0.61
847.689	0.06
847.858	0.62
848.026	-0.29
848.195	-0.02
848.364	-0.7
848.533	-0.13
848.701	0.09
848.87	0.73
849.039	1.14
849.207	1.09
849.376	1.9
849.545	0.79
849.713	0.61
849.882	-0.56
850.051	0.62
850.219	0.08
850.388	1.16
850.556	-0.64
850.725	-0.81
850.893	-0.31
851.062	0.52
851.23	0.22
851.399	-0.45
851.567	0.84
851.736	-0.14
851.904	-0.05
852.073	0.6
852.241	1.23
852.41	0.69
852.578	-0.02
852.746	-0.56
852.915	0.61
853.083	0.38
853.251	-0.58
853.42	0.69
853.588	-0
853.756	2.25
853.924	0.83
854.093	0.28
854.261	-0.41
854.429	-0.29
854.597	1.49
854.765	-1.06
854.934	1.15
855.102	0.92
855.27	-0.2
855.438	0.24
855.606	1.82
855.774	1.66
855.942	-1.02
856.11	-1.92
856.278	1.32
856.446	1.53
856.614	0.18
856.782	0.1
856.95	1.35
857.118	0.06
857.286	0.73
857.454	-0.62
857.622	2.67
857.79	0.96
857.958	-0.58
858.126	0.17
858.294	-2.24
858.462	1.3
858.629	0.55
858.797	0.44
858.965	-0.54
859.133	0.82
859.301	0.76
859.468	0.12
859.636	-0.35
859.804	2.3
859.971	2.54
860.139	-0.47
860.307	1.43
860.474	1.07
860.642	0.77
860.81	-0.75
860.977	1.04
861.145	2.15
861.313	-0.05
861.48	-0.55
861.648	0.65
861.815	-0.66
861.983	-0.7
862.15	-0.26
862.318	1.48
862.485	0.52
862.653	0.2
862.82	-0.58
862.988	2.39
863.155	0.62
863.322	0.66
863.49	0.27
863.657	0.95
863.824	3.19
863.992	1.59
864.159	1.26
864.326	2.46
864.494	1.32
864.661	2.72
864.828	-0.19
864.996	1.81
865.163	2.57
865.33	-0.61
865.497	-1.4
865.664	0.04
865.832	-1.36
865.999	1.54
866.166	0.37
866.333	0.16
866.5	1.15
866.667	1.41
866.834	-0.04
867.001	0.73
867.168	0.57
867.335	1.6
867.502	-1.76
867.669	1.76
867.836	2.77
868.003	0.33
868.17	1.23
868.337	-1.62
868.504	2.35
868.671	-0.11
868.838	-0.75
869.005	-1.44
869.172	-0.39
869.339	-0.61
869.505	0.8
869.672	0.84
869.839	1.67
870.006	-0.52
870.173	-0.73
870.339	1.72
870.506	3.63
870.673	-0.76
870.84	1.89
871.006	0.75
871.173	0.76
871.34	1.13
871.506	-0.5
871.673	1.87
871.839	-0.16
872.006	1.06
872.173	0.26
872.339	0.66
872.506	3.36
872.672	-1.21
872.839	-0.63
873.005	1.17
873.172	4.07
873.338	1.3
873.505	-0.35
873.671	0.84
873.838	1.2
874.004	-1.28
874.171	1.35
874.337	1.58
874.503	1.08
874.67	-0.12
874.836	0.55
875.002	3.13
875.169	1.08
875.335	0.99
875.501	-0.3
875.668	2.54
875.834	-0.9
876	-0
876.166	1
876.332	0.88
876.499	5.05
876.665	-0.56
876.831	-0.24
876.997	2.6
877.163	0.31
877.329	-0.44
877.495	2.4
877.662	1.28
877.828	2.18
877.994	1.09
878.16	-2.55
878.326	0.26
878.492	0.33
878.658	0.52
878.824	1.36
878.99	2.25
879.156	-1.86
879.322	3.85
879.487	0.19
879.653	-0.65
879.819	0.37
879.985	-0.85
880.151	0.63
880.317	1.81
880.483	1.16
880.648	1.64
880.814	-1.75
880.98	0.13
881.146	-1.63
881.312	-0.51
881.477	2.12
881.643	0.53
881.809	2.79
881.974	2.88
882.14	-3.17
882.306	0.64
882.471	2.96
882.637	-0.77
882.803	1.99
882.968	2.75
883.134	4.17
883.299	0.95
883.465	0.37
883.63	1.53
883.796	1.58
883.961	1.11
884.127	2.05
884.292	-3.38
884.458	-1.86
884.623	-1.86
