Data from Apollo_Calib_20240827__AbsoluteIrradiance__430__06-19-01-382.txt Node

Date: Wed Aug 28 06:19:01 BST 2024
User: biology
Spectrometer: FLMT08252
Trigger mode: 0
Integration Time (sec): 5.000000E-1
Scans to average: 5
Electric dark correction enabled: true
Nonlinearity correction enabled: false
Boxcar width: 0
XAxis mode: Wavelengths
Number of Pixels in Spectrum: 3648
>>>>>Begin Spectral Data<<<<<
179.588	-0
179.809	-0
180.03	-0
180.251	-0
180.473	-0
180.694	0
180.915	0
181.136	-0
181.357	-0
181.578	-0
181.799	0
182.02	-0
182.241	0
182.462	-0
182.683	0
182.904	0
183.125	0
183.346	0
183.567	0
183.788	0
184.009	-0
184.23	0
184.451	0
184.672	0
184.892	0
185.113	0
185.334	0
185.555	0
185.776	0
185.996	0
186.217	0
186.438	0
186.659	0
186.879	0
187.1	0
187.321	0
187.541	0
187.762	0
187.983	0
188.203	0
188.424	0
188.644	0
188.865	0
189.086	0
189.306	0
189.527	0
189.747	0
189.968	0
190.188	0
190.409	0
190.629	0
190.849	0
191.07	0
191.29	0
191.511	0
191.731	0
191.951	0
192.172	0
192.392	0
192.612	0
192.833	0
193.053	0
193.273	0
193.493	0
193.714	0
193.934	0
194.154	0
194.374	0
194.594	0
194.815	0
195.035	0
195.255	0
195.475	0
195.695	0
195.915	0
196.135	0
196.355	0
196.575	0
196.795	0
197.015	0
197.235	0
197.455	0
197.675	0
197.895	0
198.115	0
198.335	0
198.555	0
198.775	0
198.995	0
199.214	0
199.434	0
199.654	0
199.874	0
200.094	1.73
200.313	1.12
200.533	0.32
200.753	0.28
200.973	1.53
201.192	1.73
201.412	-0.32
201.632	0.64
201.851	1.89
202.071	0.53
202.291	0.49
202.51	0.09
202.73	1.59
202.95	0.54
203.169	0.15
203.389	0.72
203.608	0.77
203.828	0.63
204.047	0.13
204.267	1.35
204.486	1.11
204.706	1.35
204.925	0.72
205.145	0.46
205.364	1.04
205.583	1.1
205.803	0.51
206.022	0.46
206.242	0.36
206.461	0.72
206.68	0.05
206.9	0.87
207.119	1.26
207.338	1.17
207.557	0.46
207.777	0.85
207.996	0.33
208.215	1.09
208.434	0.23
208.654	0.07
208.873	0.58
209.092	1.25
209.311	0.28
209.53	0.39
209.749	0.52
209.968	0.36
210.187	0.35
210.407	0.24
210.626	0.29
210.845	0.64
211.064	0.6
211.283	0.27
211.502	0.68
211.721	0.25
211.94	0.49
212.159	0.62
212.377	0.79
212.596	0.89
212.815	0.39
213.034	0.46
213.253	0.69
213.472	0.7
213.691	0.47
213.91	0.07
214.128	0.28
214.347	0.73
214.566	-0.05
214.785	-0.05
215.003	0.62
215.222	0.4
215.441	0.48
215.66	0.23
215.878	0.25
216.097	0.63
216.316	0.1
216.534	0.35
216.753	0.38
216.972	0.36
217.19	0.35
217.409	0.19
217.627	0.26
217.846	0.19
218.064	0.5
218.283	0.28
218.501	0.92
218.72	0.58
218.938	0.23
219.157	0.11
219.375	0.59
219.594	0.35
219.812	0.14
220.031	0.16
220.249	0.48
220.467	0.65
220.686	0.11
220.904	0.03
221.122	0.06
221.341	0.66
221.559	0.3
221.777	0.04
221.995	0.36
222.214	0.38
222.432	0.18
222.65	0.33
222.868	0.39
223.086	0.32
223.305	0.23
223.523	0.36
223.741	0.44
223.959	0.08
224.177	0.08
224.395	0.11
224.613	0.23
224.831	0.38
225.049	0.14
225.267	0.22
225.485	0.29
225.703	0.36
225.921	0.08
226.139	0.19
226.357	0.2
226.575	0.35
226.793	0.17
227.011	0.58
227.229	0.39
227.447	0.42
227.665	0.21
227.883	-0.09
228.1	0.24
228.318	0.33
228.536	0.03
228.754	0.12
228.972	0.37
229.189	0.37
229.407	-0.01
229.625	0.02
229.843	0.35
230.06	0.31
230.278	0.12
230.496	0.32
230.713	0.27
230.931	0.38
231.149	0.22
231.366	0.05
231.584	0.14
231.801	0.56
232.019	0.11
232.236	0.1
232.454	0.12
232.671	0.21
232.889	0.18
233.106	0.11
233.324	0.13
233.541	0.16
233.759	0.26
233.976	0.12
234.194	0.27
234.411	0.25
234.628	0.09
234.846	0.15
235.063	0.17
235.28	0.2
235.498	0.18
235.715	0.05
235.932	0.3
236.149	0.17
236.367	0.12
236.584	0.18
236.801	0.14
237.018	0.28
237.236	0.16
237.453	0.05
237.67	0.33
237.887	0.19
238.104	0.18
238.321	0
238.538	0.13
238.755	0.31
238.973	0
239.19	0.2
239.407	0.21
239.624	0.28
239.841	0.14
240.058	0.14
240.275	0.15
240.492	0.19
240.709	0.19
240.925	0.12
241.142	0.09
241.359	0.11
241.576	0.07
241.793	0.13
242.01	0.22
242.227	0.35
242.444	0.23
242.66	0.26
242.877	0.3
243.094	0.13
243.311	0.23
243.527	0.16
243.744	0.2
243.961	0.29
244.178	0.04
244.394	0.15
244.611	0.26
244.828	0.36
245.044	0
245.261	0.11
245.477	0.2
245.694	0.31
245.911	0.07
246.127	0.19
246.344	0.34
246.56	0.27
246.777	0.09
246.993	0.24
247.21	0.22
247.426	0.21
247.643	0.02
247.859	0.08
248.076	0.18
248.292	0.42
248.508	0.14
248.725	0.17
248.941	0.25
249.157	0.21
249.374	0.16
249.59	0.16
249.806	0.11
250.023	0.31
250.239	0.12
250.455	0.07
250.671	0.17
250.888	0.25
251.104	0.18
251.32	0.16
251.536	0.09
251.752	0.08
251.969	0.13
252.185	0.06
252.401	0.27
252.617	0.23
252.833	0.19
253.049	0.2
253.265	0.18
253.481	0.19
253.697	0.11
253.913	0.03
254.129	0.1
254.345	0.19
254.561	0.11
254.777	0.09
254.993	0.23
255.209	0.21
255.425	0.1
255.641	0.07
255.857	0.25
256.073	0.18
256.288	0.06
256.504	0.15
256.72	0.1
256.936	0.19
257.152	0.2
257.367	0.07
257.583	0.21
257.799	0.2
258.015	0.06
258.23	0.14
258.446	0.28
258.662	0.13
258.877	0.01
259.093	0.11
259.309	0.07
259.524	0.14
259.74	0.1
259.955	0.01
260.171	0.17
260.387	0.12
260.602	0.25
260.818	0.22
261.033	0.02
261.249	0.11
261.464	0.13
261.68	0.04
261.895	0.21
262.11	0.17
262.326	0.15
262.541	0.04
262.757	0.21
262.972	0.18
263.187	0.16
263.403	0.2
263.618	0.25
263.833	0.09
264.049	0.14
264.264	0.15
264.479	0.17
264.694	0.27
264.91	0.08
265.125	0.15
265.34	0.15
265.555	0.31
265.77	0.14
265.986	0.08
266.201	0.14
266.416	0.22
266.631	0.11
266.846	0.14
267.061	0.19
267.276	0.16
267.491	-0.05
267.706	0.15
267.921	0.22
268.136	0.16
268.351	0.09
268.566	0.06
268.781	0.23
268.996	0.14
269.211	0.15
269.426	0.04
269.641	0.07
269.856	0.21
270.071	0.02
270.285	0.01
270.5	0.18
270.715	0.19
270.93	0.16
271.145	0.15
271.359	0.23
271.574	0.11
271.789	0.11
272.004	0.04
272.218	0.14
272.433	0.14
272.648	0.12
272.862	0.21
273.077	0.09
273.292	0.18
273.506	0.08
273.721	0.17
273.936	0.22
274.15	0.17
274.365	0.13
274.579	0.23
274.794	0.17
275.008	0.2
275.223	-0.01
275.437	0.17
275.652	0.21
275.866	0.15
276.081	0.13
276.295	0.18
276.509	0.19
276.724	0.11
276.938	0.11
277.153	0.17
277.367	0.16
277.581	0.09
277.796	0.09
278.01	0.08
278.224	0.19
278.438	0.24
278.653	0.07
278.867	0.09
279.081	-0.05
279.295	0.11
279.51	0.18
279.724	0.01
279.938	0.15
280.152	0.15
280.366	0.06
280.58	0.11
280.794	0.21
281.008	0.19
281.222	0.19
281.437	0.16
281.651	0.16
281.865	0.17
282.079	0.09
282.293	-0.01
282.507	0.1
282.721	0.09
282.935	0.08
283.148	0.01
283.362	0.07
283.576	0.07
283.79	0.1
284.004	0.1
284.218	0.18
284.432	0.07
284.646	0.12
284.859	0.08
285.073	0.11
285.287	0.14
285.501	0.07
285.714	0.12
285.928	0.15
286.142	0.11
286.356	0.01
286.569	0.08
286.783	0.23
286.997	0.11
287.21	0.13
287.424	0.13
287.637	0.09
287.851	0.09
288.065	0.14
288.278	0.14
288.492	0.13
288.705	0.13
288.919	0.13
289.132	0.04
289.346	0.15
289.559	0.05
289.773	0.02
289.986	0.09
290.2	0.13
290.413	0.2
290.626	0.06
290.84	0.03
291.053	0.08
291.267	0.16
291.48	0.12
291.693	0.09
291.906	0.09
292.12	0.1
292.333	0.05
292.546	0.1
292.76	0.18
292.973	0.14
293.186	0.14
293.399	0.07
293.612	0.16
293.826	0.11
294.039	0.1
294.252	0.14
294.465	0.17
294.678	0.14
294.891	0.17
295.104	0.07
295.317	0.09
295.53	0.09
295.743	0.08
295.956	0.06
296.169	0.17
296.382	0.1
296.595	0.12
296.808	0.07
297.021	0.15
297.234	0.11
297.447	0.11
297.66	0.14
297.873	0.16
298.086	0.14
298.299	0.07
298.511	0.04
298.724	0.06
298.937	0.04
299.15	0.05
299.363	0.1
299.575	0.13
299.788	0.18
300.001	0.05
300.213	0.03
300.426	0.1
300.639	0.07
300.852	0.06
301.064	0.15
301.277	0.17
301.489	0.12
301.702	0.14
301.915	0.11
302.127	0.13
302.34	0.14
302.552	0.12
302.765	0.05
302.977	0.14
303.19	0.08
303.402	0.11
303.615	0.03
303.827	0.06
304.04	0.09
304.252	0.12
304.464	0.11
304.677	0.23
304.889	0.13
305.102	0.07
305.314	0.05
305.526	0.11
305.739	0.13
305.951	0.05
306.163	0.08
306.375	0.16
306.588	0.08
306.8	0.09
307.012	0.01
307.224	0.09
307.436	0.15
307.649	0.01
307.861	0.11
308.073	0.15
308.285	0.1
308.497	0.06
308.709	0.05
308.921	0.09
309.133	0.13
309.346	0.08
309.558	0.08
309.77	0.13
309.982	0.17
310.194	0.15
310.406	0.08
310.617	0.19
310.829	0.13
311.041	0.1
311.253	0.07
311.465	0.09
311.677	0.07
311.889	0.06
312.101	0.08
312.313	0.14
312.524	0.14
312.736	0.06
312.948	0.08
313.16	0.16
313.372	0.12
313.583	0.11
313.795	0.08
314.007	0.08
314.218	0.13
314.43	0.09
314.642	0.07
314.853	0.01
315.065	0.1
315.277	0.08
315.488	0.08
315.7	0.09
315.912	0.09
316.123	0.12
316.335	0.1
316.546	0.15
316.758	0.09
316.969	0.07
317.181	0.14
317.392	0.1
317.604	0.13
317.815	0.05
318.026	0.08
318.238	0.11
318.449	0.09
318.661	0.03
318.872	0.03
319.083	0.02
319.295	0.08
319.506	0.06
319.717	0.13
319.929	0.11
320.14	0.06
320.351	0.09
320.562	0.08
320.774	0.1
320.985	0.07
321.196	0.03
321.407	0.01
321.618	0.12
321.829	0.1
322.041	0.12
322.252	0.1
322.463	0.1
322.674	0.11
322.885	0.05
323.096	0.08
323.307	0.08
323.518	0.1
323.729	0.05
323.94	0.06
324.151	0.1
324.362	0.12
324.573	0.08
324.784	0.06
324.995	0.18
325.206	0.1
325.417	0.06
325.628	0.09
325.838	0.09
326.049	0.09
326.26	0.12
326.471	0.08
326.682	0.1
326.892	0.07
327.103	0.03
327.314	0.02
327.525	0.13
327.735	0.13
327.946	0.08
328.157	0.07
328.368	0.09
328.578	0.07
328.789	0.11
328.999	0.08
329.21	0.09
329.421	0.12
329.631	0.09
329.842	0.05
330.052	0.07
330.263	0.1
330.473	0.15
330.684	0.08
330.894	0.11
331.105	0.1
331.315	0.11
331.526	0.04
331.736	0.17
331.947	0.09
332.157	0.14
332.367	0
332.578	0.12
332.788	0.16
332.999	0.08
333.209	0.1
333.419	0.1
333.629	0.11
333.84	0.12
334.05	0.05
334.26	0.15
334.47	0.06
334.681	0.11
334.891	0.08
335.101	0.07
335.311	0.15
335.521	0.06
335.732	0.06
335.942	0.16
336.152	0.14
336.362	0.09
336.572	0.09
336.782	0.1
336.992	0.06
337.202	0.09
337.412	0.09
337.622	0.11
337.832	0.08
338.042	0.11
338.252	0.05
338.462	0.07
338.672	0.11
338.882	0.12
339.092	0.09
339.302	0.15
339.511	0.1
339.721	0.04
339.931	0.04
340.141	0.14
340.351	0.14
340.561	0.12
340.77	0.12
340.98	0.1
341.19	0.11
341.4	0.09
341.609	0.05
341.819	0.1
342.029	0.02
342.238	0.08
342.448	0.09
342.658	0.08
342.867	0.09
343.077	0.07
343.286	0.09
343.496	0.06
343.706	0.15
343.915	0.03
344.125	0.05
344.334	0.12
344.544	-0
344.753	0.06
344.963	0.11
345.172	0.08
345.381	0.09
345.591	0.05
345.8	0.09
346.01	0.16
346.219	0.14
346.428	0.1
346.638	0.05
346.847	0.08
347.056	0.15
347.266	0.07
347.475	0.08
347.684	0.12
347.893	0.12
348.103	0.11
348.312	0.07
348.521	0.08
348.73	0.09
348.94	0.08
349.149	0.08
349.358	0.1
349.567	0.09
349.776	0.02
349.985	0.06
350.194	0.15
350.403	0.13
350.612	0.01
350.821	0.07
351.03	0.07
351.239	0.02
351.448	0.12
351.657	0.05
351.866	0.15
352.075	0.11
352.284	0.16
352.493	0.07
352.702	0.12
352.911	0.08
353.12	0.13
353.329	0.09
353.538	0.1
353.746	0.12
353.955	0.05
354.164	0.15
354.373	0.07
354.582	0.14
354.79	0.1
354.999	0.14
355.208	0.03
355.416	0.16
355.625	0.03
355.834	0.07
356.042	0.11
356.251	0.1
356.46	0.06
356.668	0.1
356.877	0.19
357.085	0.14
357.294	0.03
357.503	0.13
357.711	0.07
357.92	0.22
358.128	0.09
358.337	0.06
358.545	0.08
358.754	0.07
358.962	0.11
359.17	0.11
359.379	0.1
359.587	0.09
359.796	0.09
360.004	0.17
360.212	0.08
360.421	0.2
360.629	0.11
360.837	0.08
361.046	0.13
361.254	0.2
361.462	0.1
361.67	0.08
361.879	0.09
362.087	0.13
362.295	0.09
362.503	0.07
362.711	0.03
362.92	0.07
363.128	0.06
363.336	0.06
363.544	0.04
363.752	0.11
363.96	0.06
364.168	0.05
364.376	0.13
364.584	0.06
364.792	0.14
365	0.1
365.208	0.11
365.416	0.15
365.624	0.11
365.832	0.06
366.04	0.15
366.248	0.1
366.456	0.14
366.664	0.11
366.872	0.09
367.079	0.07
367.287	0.12
367.495	0.11
367.703	0.1
367.911	0.07
368.118	0.09
368.326	0.1
368.534	0.08
368.742	0.15
368.949	0.06
369.157	0.06
369.365	0.15
369.572	0.07
369.78	0.06
369.988	0.12
370.195	0.14
370.403	0.14
370.61	0.08
370.818	0.11
371.026	0.19
371.233	0.04
371.441	0.13
371.648	0.06
371.856	0.09
372.063	0.11
372.271	0.07
372.478	0.1
372.685	0.07
372.893	0.16
373.1	0.09
373.308	0.09
373.515	0.16
373.722	0.14
373.93	0.07
374.137	0.14
374.344	0.14
374.552	0.14
374.759	0.12
374.966	0.12
375.173	0.06
375.381	0.12
375.588	0.07
375.795	0.05
376.002	0.07
376.209	0.02
376.417	0.09
376.624	0.07
376.831	0.09
377.038	0.11
377.245	0.04
377.452	0.1
377.659	0.1
377.866	0.05
378.073	0.09
378.28	0.11
378.487	0.15
378.694	0.13
378.901	0.1
379.108	0.12
379.315	0.15
379.522	0.18
379.729	0.11
379.936	0.11
380.143	0.11
380.35	0.12
380.557	0.11
380.763	0.12
380.97	0.1
381.177	0.09
381.384	0.11
381.591	0.08
381.797	0.12
382.004	0.12
382.211	0.14
382.418	0.14
382.624	0.15
382.831	0.12
383.038	0.08
383.244	0.08
383.451	0.1
383.658	0.11
383.864	0.06
384.071	0.08
384.277	0.17
384.484	0.08
384.69	0.16
384.897	0.09
385.103	0.08
385.31	0.07
385.516	0.05
385.723	0.04
385.929	0.1
386.136	0.1
386.342	0.09
386.549	0.07
386.755	0.16
386.961	0.09
387.168	0.07
387.374	0.12
387.58	0.11
387.787	0.07
387.993	0.11
388.199	0.11
388.406	0.05
388.612	0.09
388.818	0.09
389.024	0.06
389.231	0.11
389.437	0.17
389.643	0.13
389.849	0.08
390.055	0.14
390.261	0.16
390.467	0.13
390.674	0.06
390.88	0.06
391.086	0.08
391.292	0.06
391.498	0.17
391.704	0.13
391.91	0.11
392.116	0.1
392.322	0.03
392.528	0.12
392.734	0.06
392.94	0.14
393.146	0.09
393.352	0.1
393.557	0.09
393.763	0.14
393.969	0.13
394.175	0.14
394.381	0.1
394.587	0.06
394.792	0.09
394.998	0.14
395.204	0.1
395.41	0.1
395.615	0.12
395.821	0.12
396.027	0.13
396.233	0.06
396.438	0.13
396.644	0.22
396.85	0.12
397.055	0.1
397.261	0.15
397.466	0.2
397.672	0.12
397.878	0.16
398.083	0.12
398.289	0.13
398.494	0.15
398.7	0.16
398.905	0.02
399.111	0.15
399.316	0.04
399.522	0.1
399.727	0.12
399.932	0.12
400.138	0.08
400.343	0.17
400.549	0.11
400.754	0.15
400.959	0.12
401.165	0.1
401.37	0.14
401.575	0.07
401.78	0.12
401.986	0.06
402.191	0.13
402.396	0.12
402.601	0.13
402.807	0.12
403.012	0.11
403.217	0.16
403.422	0.15
403.627	0.09
403.832	0.09
404.037	0.16
404.243	0.15
404.448	0.11
404.653	0.12
404.858	0.14
405.063	0.16
405.268	0.1
405.473	0.1
405.678	0.04
405.883	0.26
406.088	0.19
406.293	0.08
406.498	0.09
406.703	0.2
406.907	0.13
407.112	0.15
407.317	0.12
407.522	0.17
407.727	0.11
407.932	0.15
408.136	0.24
408.341	0.13
408.546	0.17
408.751	0.14
408.956	0.12
409.16	0.19
409.365	0.17
409.57	0.1
409.774	0.13
409.979	0.12
410.184	0.12
410.388	0.12
410.593	0.17
410.798	0.15
411.002	0.13
411.207	0.16
411.411	0.19
411.616	0.08
411.82	0.15
412.025	0.18
412.229	0.11
412.434	0.24
412.638	0.16
412.843	0.1
413.047	0.15
413.252	0.1
413.456	0.12
413.66	0.18
413.865	0.11
414.069	0.18
414.273	0.15
414.478	0.13
414.682	0.14
414.886	0.09
415.091	0.07
415.295	0.08
415.499	0.13
415.703	0.16
415.908	0.19
416.112	0.08
416.316	0.19
416.52	0.14
416.724	0.07
416.929	0.13
417.133	0.25
417.337	0.11
417.541	0.11
417.745	0.13
417.949	0.14
418.153	0.12
418.357	0.09
418.561	0.21
418.765	0.13
418.969	0.21
419.173	0.17
419.377	0.1
419.581	0.26
419.785	0.17
419.989	0.15
420.193	0.16
420.397	0.2
420.601	0.26
420.804	0.23
421.008	0.18
421.212	0.21
421.416	0.23
421.62	0.09
421.823	0.17
422.027	0.24
422.231	0.17
422.435	0.17
422.638	0.19
422.842	0.17
423.046	0.12
423.249	0.17
423.453	0.22
423.657	0.18
423.86	0.14
424.064	0.18
424.268	0.22
424.471	0.15
424.675	0.24
424.878	0.24
425.082	0.15
425.285	0.21
425.489	0.18
425.692	0.16
425.896	0.16
426.099	0.17
426.303	0.14
426.506	0.09
426.71	0.18
426.913	0.21
427.116	0.25
427.32	0.15
427.523	0.21
427.726	0.23
427.93	0.13
428.133	0.16
428.336	0.09
428.54	0.15
428.743	0.19
428.946	0.22
429.149	0.17
429.353	0.2
429.556	0.17
429.759	0.19
429.962	0.16
430.165	0.13
430.368	0.2
430.571	0.11
430.775	0.18
430.978	0.17
431.181	0.2
431.384	0.19
431.587	0.15
431.79	0.15
431.993	0.17
432.196	0.15
432.399	0.15
432.602	0.22
432.805	0.18
433.008	0.15
433.211	0.12
433.414	0.21
433.616	0.18
433.819	0.16
434.022	0.08
434.225	0.22
434.428	0.21
434.631	0.26
434.833	0.18
435.036	0.15
435.239	0.18
435.442	0.18
435.645	0.17
435.847	0.17
436.05	0.25
436.253	0.13
436.455	0.15
436.658	0.2
436.861	0.25
437.063	0.1
437.266	0.14
437.468	0.21
437.671	0.31
437.874	0.2
438.076	0.1
438.279	0.09
438.481	0.17
438.684	0.17
438.886	0.18
439.089	0.09
439.291	0.16
439.494	0.21
439.696	0.16
439.899	0.19
440.101	0.22
440.303	0.1
440.506	0.23
440.708	0.17
440.91	0.25
441.113	0.14
441.315	0.25
441.517	0.14
441.72	0.24
441.922	0.16
442.124	0.13
442.326	0.23
442.529	0.26
442.731	0.21
442.933	0.28
443.135	0.16
443.337	0.12
443.539	0.22
443.742	0.18
443.944	0.2
444.146	0.14
444.348	0.18
444.55	0.18
444.752	0.19
444.954	0.12
445.156	0.22
445.358	0.17
445.56	0.23
445.762	0.22
445.964	0.17
446.166	0.16
446.368	0.16
446.57	0.22
446.772	0.19
446.974	0.17
447.175	0.23
447.377	0.14
447.579	0.16
447.781	0.13
447.983	0.26
448.184	0.19
448.386	0.22
448.588	0.11
448.79	0.2
448.991	0.17
449.193	0.21
449.395	0.17
449.597	0.22
449.798	0.21
450	0.23
450.202	0.21
450.403	0.22
450.605	0.22
450.806	0.19
451.008	0.16
451.21	0.21
451.411	0.19
451.613	0.18
451.814	0.22
452.016	0.28
452.217	0.23
452.419	0.22
452.62	0.2
452.821	0.19
453.023	0.24
453.224	0.26
453.426	0.19
453.627	0.26
453.828	0.22
454.03	0.19
454.231	0.19
454.432	0.19
454.634	0.3
454.835	0.18
455.036	0.18
455.238	0.29
455.439	0.24
455.64	0.18
455.841	0.18
456.042	0.27
456.244	0.25
456.445	0.25
456.646	0.17
456.847	0.19
457.048	0.29
457.249	0.26
457.45	0.46
457.651	0.21
457.852	0.32
458.054	0.28
458.255	0.22
458.456	0.2
458.657	0.23
458.858	0.2
459.058	0.27
459.259	0.3
459.46	0.25
459.661	0.2
459.862	0.38
460.063	0.25
460.264	0.29
460.465	0.23
460.666	0.35
460.866	0.22
461.067	0.21
461.268	0.27
461.469	0.21
461.67	0.25
461.87	0.2
462.071	0.26
462.272	0.22
462.473	0.27
462.673	0.3
462.874	0.25
463.075	0.32
463.275	0.25
463.476	0.28
463.676	0.31
463.877	0.28
464.078	0.27
464.278	0.34
464.479	0.32
464.679	0.29
464.88	0.29
465.08	0.43
465.281	0.23
465.481	0.27
465.682	0.27
465.882	0.37
466.083	0.31
466.283	0.3
466.483	0.3
466.684	0.23
466.884	0.3
467.085	0.32
467.285	0.37
467.485	0.3
467.686	0.33
467.886	0.28
468.086	0.27
468.286	0.34
468.487	0.4
468.687	0.29
468.887	0.32
469.087	0.36
469.287	0.33
469.488	0.31
469.688	0.38
469.888	0.41
470.088	0.39
470.288	0.42
470.488	0.42
470.688	0.37
470.888	0.37
471.088	0.29
471.288	0.42
471.488	0.42
471.688	0.43
471.888	0.37
472.088	0.47
472.288	0.44
472.488	0.4
472.688	0.4
472.888	0.44
473.088	0.46
473.288	0.45
473.488	0.46
473.688	0.55
473.887	0.47
474.087	0.44
474.287	0.53
474.487	0.48
474.687	0.57
474.886	0.46
475.086	0.52
475.286	0.54
475.486	0.52
475.685	0.54
475.885	0.53
476.085	0.56
476.284	0.58
476.484	0.57
476.684	0.57
476.883	0.65
477.083	0.62
477.282	0.56
477.482	0.69
477.681	0.65
477.881	0.64
478.08	0.58
478.28	0.59
478.479	0.69
478.679	0.74
478.878	0.67
479.078	0.64
479.277	0.7
479.477	0.67
479.676	0.74
479.875	0.7
480.075	0.66
480.274	0.74
480.473	0.8
480.673	0.77
480.872	0.83
481.071	0.85
481.271	0.83
481.47	0.83
481.669	0.91
481.868	0.84
482.067	0.89
482.267	0.86
482.466	0.89
482.665	0.9
482.864	0.91
483.063	0.93
483.262	1.02
483.461	1.04
483.661	1.07
483.86	1.04
484.059	1.09
484.258	1.11
484.457	1.14
484.656	1.13
484.855	1.24
485.054	1.12
485.253	1.14
485.452	1.18
485.651	1.26
485.849	1.28
486.048	1.29
486.247	1.3
486.446	1.38
486.645	1.35
486.844	1.4
487.043	1.4
487.241	1.46
487.44	1.45
487.639	1.55
487.838	1.52
488.037	1.55
488.235	1.68
488.434	1.65
488.633	1.55
488.831	1.75
489.03	1.72
489.229	1.75
489.427	1.78
489.626	1.86
489.825	1.89
490.023	1.9
490.222	1.94
490.42	1.96
490.619	2.04
490.817	2.07
491.016	2.11
491.214	2.16
491.413	2.16
491.611	2.12
491.81	2.2
492.008	2.22
492.207	2.36
492.405	2.39
492.604	2.37
492.802	2.48
493	2.51
493.199	2.52
493.397	2.6
493.595	2.72
493.794	2.68
493.992	2.85
494.19	2.83
494.388	2.93
494.587	2.89
494.785	2.94
494.983	2.95
495.181	3.06
495.379	3.13
495.578	3.25
495.776	3.28
495.974	3.28
496.172	3.37
496.37	3.5
496.568	3.55
496.766	3.58
496.964	3.67
497.162	3.74
497.36	3.83
497.558	3.91
497.756	3.97
497.954	4
498.152	4.11
498.35	4.23
498.548	4.23
498.746	4.3
498.944	4.34
499.142	4.43
499.34	4.57
499.538	4.75
499.736	4.65
499.933	4.81
500.131	4.89
500.329	5.12
500.527	5.13
500.725	5.31
500.922	5.39
501.12	5.43
501.318	5.59
501.516	5.62
501.713	5.77
501.911	5.81
502.109	5.82
502.306	6.03
502.504	5.99
502.701	6.17
502.899	6.34
503.097	6.67
503.294	6.49
503.492	6.81
503.689	6.86
503.887	6.94
504.084	7.05
504.282	7.12
504.479	7.19
504.677	7.49
504.874	7.56
505.072	7.45
505.269	7.9
505.466	7.91
505.664	8.08
505.861	8.02
506.059	8.3
506.256	8.38
506.453	8.5
506.651	8.8
506.848	8.92
507.045	8.92
507.242	9.02
507.44	9.23
507.637	9.4
507.834	9.38
508.031	9.75
508.229	9.73
508.426	9.63
508.623	10
508.82	10.2
509.017	10.22
509.214	10.3
509.411	10.59
509.608	10.52
509.805	10.93
510.003	10.96
510.2	11.1
510.397	11.44
510.594	11.34
510.791	11.54
510.988	11.61
511.184	11.61
511.381	11.48
511.578	11.94
511.775	12.25
511.972	12.08
512.169	12.35
512.366	12.48
512.563	12.72
512.76	12.84
512.956	12.97
513.153	12.9
513.35	12.8
513.547	13
513.744	13.29
513.94	13.34
514.137	13.53
514.334	13.51
514.53	13.68
514.727	14.07
514.924	13.83
515.12	14.02
515.317	14.08
515.514	13.97
515.71	14
515.907	14.43
516.103	14.47
516.3	14.28
516.497	14.6
516.693	14.55
516.89	14.66
517.086	14.71
517.283	14.7
517.479	14.41
517.676	14.93
517.872	14.95
518.068	14.96
518.265	14.96
518.461	14.81
518.658	15.2
518.854	14.96
519.05	15.29
519.247	15.27
519.443	15.08
519.639	15.29
519.836	15
520.032	14.91
520.228	15.24
520.424	14.97
520.621	15.08
520.817	15.25
521.013	14.99
521.209	15.34
521.405	15.22
521.601	15.14
521.798	14.97
521.994	14.8
522.19	14.8
522.386	14.81
522.582	14.92
522.778	15.04
522.974	14.67
523.17	14.64
523.366	14.42
523.562	14.5
523.758	14.41
523.954	14.15
524.15	14.35
524.346	14.26
524.542	14.28
524.738	14.03
524.934	14.21
525.129	14.01
525.325	13.75
525.521	13.67
525.717	13.97
525.913	13.46
526.109	13.46
526.304	13.6
526.5	13.37
526.696	13.32
526.892	13.08
527.087	13.45
527.283	13.05
527.479	12.93
527.674	12.47
527.87	12.64
528.066	12.54
528.261	12.51
528.457	12.23
528.653	12.41
528.848	12.21
529.044	12.17
529.239	11.82
529.435	11.71
529.63	11.58
529.826	11.42
530.021	11.37
530.217	11.32
530.412	11.13
530.608	11.07
530.803	10.98
530.999	10.76
531.194	10.79
531.389	10.8
531.585	10.62
531.78	10.66
531.975	10.4
532.171	10.36
532.366	10.24
532.561	10.06
532.757	9.98
532.952	10.06
533.147	9.65
533.342	9.71
533.538	9.45
533.733	9.61
533.928	9.08
534.123	9.23
534.318	9.2
534.513	9
534.709	9.16
534.904	8.93
535.099	8.91
535.294	8.73
535.489	8.72
535.684	8.52
535.879	8.41
536.074	8.42
536.269	8.34
536.464	8.22
536.659	8.09
536.854	8.01
537.049	7.95
537.244	7.83
537.439	7.74
537.634	7.72
537.828	7.64
538.023	7.57
538.218	7.39
538.413	7.28
538.608	7.26
538.803	7.17
538.997	7.06
539.192	7.04
539.387	6.93
539.582	6.84
539.776	6.72
539.971	6.77
540.166	6.7
540.36	6.54
540.555	6.54
540.75	6.51
540.944	6.42
541.139	6.3
541.334	6.22
541.528	6.18
541.723	6.15
541.917	6.07
542.112	5.96
542.306	5.79
542.501	5.76
542.695	5.76
542.89	5.61
543.084	5.65
543.279	5.59
543.473	5.56
543.668	5.51
543.862	5.32
544.056	5.31
544.251	5.31
544.445	5.26
544.64	5.24
544.834	4.93
545.028	4.85
545.222	5.02
545.417	5.07
545.611	4.91
545.805	4.84
546	4.64
546.194	4.7
546.388	4.64
546.582	4.53
546.776	4.52
546.97	4.46
547.165	4.42
547.359	4.35
547.553	4.3
547.747	4.26
547.941	4.27
548.135	4.14
548.329	4.12
548.523	4.07
548.717	4
548.911	3.92
549.105	3.9
549.299	3.89
549.493	3.86
549.687	3.77
549.881	3.76
550.075	3.68
550.269	3.58
550.463	3.66
550.657	3.52
550.85	3.48
551.044	3.45
551.238	3.41
551.432	3.28
551.626	3.32
551.82	3.3
552.013	3.17
552.207	3.23
552.401	3.2
552.594	3.08
552.788	3.05
552.982	2.99
553.176	2.96
553.369	3
553.563	2.93
553.756	2.81
553.95	2.82
554.144	2.8
554.337	2.81
554.531	2.65
554.724	2.73
554.918	2.62
555.111	2.64
555.305	2.56
555.498	2.56
555.692	2.51
555.885	2.46
556.079	2.46
556.272	2.41
556.466	2.37
556.659	2.34
556.852	2.32
557.046	2.26
557.239	2.22
557.432	2.18
557.626	2.18
557.819	2.21
558.012	2.16
558.206	2.14
558.399	2.12
558.592	2.06
558.785	2.01
558.979	2.03
559.172	1.98
559.365	1.96
559.558	1.94
559.751	1.87
559.944	1.93
560.138	1.83
560.331	1.85
560.524	1.82
560.717	1.8
560.91	1.76
561.103	1.73
561.296	1.71
561.489	1.74
561.682	1.69
561.875	1.65
562.068	1.69
562.261	1.65
562.454	1.65
562.647	1.58
562.84	1.55
563.032	1.55
563.225	1.49
563.418	1.47
563.611	1.5
563.804	1.47
563.997	1.39
564.19	1.33
564.382	1.44
564.575	1.39
564.768	1.36
564.961	1.38
565.153	1.31
565.346	1.3
565.539	1.35
565.731	1.26
565.924	1.31
566.117	1.29
566.309	1.26
566.502	1.22
566.695	1.18
566.887	1.22
567.08	1.16
567.272	1.13
567.465	1.13
567.657	1.13
567.85	1.11
568.042	1.14
568.235	1.1
568.427	1.04
568.62	1.08
568.812	1.09
569.005	1.07
569.197	1
569.389	1.04
569.582	1.02
569.774	1.02
569.966	0.95
570.159	0.93
570.351	0.97
570.543	0.93
570.736	0.95
570.928	0.87
571.12	0.89
571.312	0.86
571.505	0.83
571.697	0.9
571.889	0.84
572.081	0.84
572.273	0.78
572.465	0.87
572.658	0.85
572.85	0.79
573.042	0.78
573.234	0.75
573.426	0.8
573.618	0.74
573.81	0.77
574.002	0.76
574.194	0.78
574.386	0.7
574.578	0.64
574.77	0.72
574.962	0.7
575.154	0.63
575.346	0.69
575.538	0.67
575.729	0.64
575.921	0.67
576.113	0.67
576.305	0.71
576.497	0.63
576.689	0.64
576.88	0.6
577.072	0.65
577.264	0.59
577.456	0.61
577.647	0.51
577.839	0.59
578.031	0.58
578.223	0.53
578.414	0.53
578.606	0.58
578.798	0.56
578.989	0.55
579.181	0.54
579.372	0.53
579.564	0.52
579.755	0.54
579.947	0.52
580.139	0.51
580.33	0.45
580.522	0.45
580.713	0.38
580.905	0.51
581.096	0.47
581.287	0.47
581.479	0.48
581.67	0.48
581.862	0.47
582.053	0.43
582.244	0.41
582.436	0.45
582.627	0.42
582.818	0.4
583.01	0.39
583.201	0.45
583.392	0.43
583.583	0.4
583.775	0.38
583.966	0.38
584.157	0.4
584.348	0.39
584.54	0.36
584.731	0.38
584.922	0.38
585.113	0.37
585.304	0.38
585.495	0.38
585.686	0.38
585.877	0.39
586.068	0.39
586.259	0.39
586.45	0.35
586.641	0.34
586.832	0.29
587.023	0.35
587.214	0.35
587.405	0.34
587.596	0.26
587.787	0.35
587.978	0.32
588.169	0.32
588.36	0.31
588.551	0.3
588.742	0.29
588.932	0.34
589.123	0.3
589.314	0.33
589.505	0.29
589.696	0.33
589.886	0.26
590.077	0.29
590.268	0.3
590.458	0.24
590.649	0.23
590.84	0.32
591.03	0.24
591.221	0.22
591.412	0.22
591.602	0.3
591.793	0.29
591.984	0.24
592.174	0.24
592.365	0.31
592.555	0.22
592.746	0.25
592.936	0.26
593.127	0.25
593.317	0.28
593.508	0.23
593.698	0.23
593.889	0.22
594.079	0.24
594.269	0.22
594.46	0.25
594.65	0.23
594.84	0.22
595.031	0.2
595.221	0.2
595.411	0.19
595.602	0.25
595.792	0.23
595.982	0.17
596.172	0.26
596.363	0.23
596.553	0.22
596.743	0.22
596.933	0.23
597.123	0.24
597.314	0.19
597.504	0.17
597.694	0.21
597.884	0.24
598.074	0.18
598.264	0.18
598.454	0.2
598.644	0.2
598.834	0.2
599.024	0.11
599.214	0.17
599.404	0.22
599.594	0.19
599.784	0.15
599.974	0.23
600.164	0.22
600.354	0.14
600.544	0.12
600.734	0.19
600.924	0.19
601.114	0.16
601.303	0.17
601.493	0.18
601.683	0.16
601.873	0.14
602.063	0.11
602.252	0.18
602.442	0.1
602.632	0.14
602.821	0.15
603.011	0.18
603.201	0.14
603.39	0.14
603.58	0.13
603.77	0.14
603.959	0.19
604.149	0.16
604.339	0.15
604.528	0.18
604.718	0.18
604.907	0.15
605.097	0.15
605.286	0.12
605.476	0.18
605.665	0.16
605.855	0.14
606.044	0.2
606.234	0.16
606.423	0.15
606.612	0.1
606.802	0.16
606.991	0.2
607.181	0.18
607.37	0.12
607.559	0.14
607.749	0.12
607.938	0.13
608.127	0.13
608.316	0.09
608.506	0.16
608.695	0.13
608.884	0.11
609.073	0.13
609.263	0.14
609.452	0.15
609.641	0.16
609.83	0.14
610.019	0.14
610.208	0.1
610.397	0.11
610.586	0.15
610.775	0.11
610.965	0.08
611.154	0.08
611.343	0.14
611.532	0.13
611.721	0.1
611.91	0.09
612.099	0.15
612.287	0.12
612.476	0.09
612.665	0.12
612.854	0.11
613.043	0.14
613.232	0.08
613.421	0.09
613.61	0.14
613.798	0.1
613.987	0.14
614.176	0.12
614.365	0.14
614.554	0.13
614.742	0.13
614.931	0.07
615.12	0.13
615.309	0.11
615.497	0.13
615.686	0.08
615.875	0.09
616.063	0.14
616.252	0.11
616.44	0.13
616.629	0.12
616.818	0.15
617.006	0.11
617.195	0.09
617.383	0.13
617.572	0.13
617.76	0.1
617.949	0.09
618.137	0.13
618.326	0.15
618.514	0.09
618.703	0.09
618.891	0.12
619.079	0.05
619.268	0.15
619.456	0.06
619.644	0.12
619.833	0.09
620.021	0.08
620.209	0.07
620.398	0.13
620.586	0.11
620.774	0.11
620.962	0.09
621.151	0.17
621.339	0.11
621.527	0.07
621.715	0.04
621.903	0.07
622.092	0.07
622.28	0.1
622.468	0.1
622.656	0.09
622.844	0.12
623.032	0.07
623.22	0.05
623.408	0.14
623.596	0.13
623.784	0.14
623.972	0.07
624.16	0.09
624.348	0.17
624.536	0.09
624.724	0.07
624.912	0.12
625.1	0.12
625.288	0.08
625.476	0.06
625.664	0.17
625.851	0.07
626.039	0.12
626.227	0.11
626.415	0.1
626.603	0.05
626.79	0.12
626.978	0.09
627.166	0.12
627.354	0.1
627.541	0.09
627.729	0.03
627.917	0.09
628.104	0.13
628.292	0.12
628.48	0.09
628.667	0.09
628.855	0.11
629.042	0.1
629.23	0.08
629.418	0.1
629.605	0.09
629.793	0.06
629.98	0.08
630.168	0.05
630.355	0.09
630.543	0.09
630.73	0.07
630.917	0.12
631.105	0.16
631.292	0.09
631.48	0.09
631.667	0.12
631.854	0.1
632.042	0.09
632.229	0.02
632.416	0.09
632.604	0.07
632.791	0.05
632.978	0.14
633.165	0.11
633.353	0.16
633.54	0.12
633.727	0.01
633.914	0.05
634.101	0.02
634.289	0.12
634.476	0.07
634.663	0.08
634.85	0.09
635.037	0.04
635.224	0.06
635.411	0.13
635.598	0.14
635.785	0.07
635.972	0.07
636.159	0.1
636.346	0.06
636.533	0.08
636.72	0.09
636.907	0.06
637.094	0.13
637.281	0.08
637.468	0.11
637.655	0.08
637.842	0.08
638.029	0.07
638.215	0.12
638.402	0.09
638.589	0.05
638.776	0.07
638.963	0.07
639.149	0.12
639.336	0.11
639.523	0.09
639.709	0.05
639.896	0.06
640.083	0.16
640.27	0.1
640.456	0.07
640.643	0.11
640.829	0.06
641.016	0.09
641.203	0.03
641.389	0.12
641.576	0.1
641.762	0.09
641.949	0.03
642.135	0.12
642.322	0.1
642.508	0.06
642.695	0.1
642.881	0.09
643.068	0.08
643.254	0.09
643.441	0.15
643.627	0.09
643.813	0.04
644	0.13
644.186	0.08
644.372	0.04
644.559	0.11
644.745	0.1
644.931	0.06
645.118	0.08
645.304	0.05
645.49	0.06
645.676	0.1
645.862	0.07
646.049	0.13
646.235	0.09
646.421	0.14
646.607	0.15
646.793	0.08
646.979	0.04
647.165	0.11
647.352	0.07
647.538	0.1
647.724	0.07
647.91	0.08
648.096	0.11
648.282	0.12
648.468	0.06
648.654	0.08
648.84	0.08
649.026	0.08
649.212	0.07
649.397	0.08
649.583	0.05
649.769	0.08
649.955	0.1
650.141	0.11
650.327	0.14
650.513	0.03
650.698	0.1
650.884	0.04
651.07	0.09
651.256	0.05
651.442	0.07
651.627	0.07
651.813	0.1
651.999	0.07
652.184	0.13
652.37	0.08
652.556	0.06
652.741	0.11
652.927	0.03
653.113	0.06
653.298	0.08
653.484	0.07
653.669	0.03
653.855	0.07
654.04	0.08
654.226	0.08
654.412	0.06
654.597	0.01
654.782	0.11
654.968	0.12
655.153	0.1
655.339	0.06
655.524	0.04
655.71	0.13
655.895	0.06
656.08	0.08
656.266	0.11
656.451	0.1
656.636	0.06
656.822	0.08
657.007	0.05
657.192	0.06
657.378	0.03
657.563	0.08
657.748	0.1
657.933	0.1
658.118	0.04
658.304	0.07
658.489	0.12
658.674	0.1
658.859	0.05
659.044	0.09
659.229	0.07
659.414	0.05
659.599	0.07
659.785	0.04
659.97	0.09
660.155	0.13
660.34	0.09
660.525	0.08
660.71	0.09
660.895	0.1
661.08	0.06
661.264	0.06
661.449	0.1
661.634	0.13
661.819	0.12
662.004	0.13
662.189	0.03
662.374	0.07
662.559	0.05
662.743	0.05
662.928	0.1
663.113	0.02
663.298	0.02
663.483	0.08
663.667	0.08
663.852	0.03
664.037	0.11
664.221	0.09
664.406	0.11
664.591	0.08
664.775	0.08
664.96	0.11
665.145	0.12
665.329	0.11
665.514	0.09
665.698	0.11
665.883	0.01
666.068	0.14
666.252	0.1
666.437	0.07
666.621	0.11
666.806	0.14
666.99	0.1
667.174	0.02
667.359	0.16
667.543	0.09
667.728	0.07
667.912	0.02
668.096	0.11
668.281	0.07
668.465	0.09
668.649	0.11
668.834	0.03
669.018	0.1
669.202	0.09
669.387	0.08
669.571	0.13
669.755	0.04
669.939	0.11
670.124	0.11
670.308	0.16
670.492	0.17
670.676	0.11
670.86	0.1
671.044	0.04
671.228	0.14
671.413	0.05
671.597	0.08
671.781	0.08
671.965	0.12
672.149	0.08
672.333	0.11
672.517	0.08
672.701	0.13
672.885	0.13
673.069	0.07
673.253	0.2
673.437	0.09
673.621	0.07
673.804	0.11
673.988	0.09
674.172	0.08
674.356	0.05
674.54	0.12
674.724	0.19
674.908	0.11
675.091	0.13
675.275	0.1
675.459	0.15
675.643	0.16
675.826	0.15
676.01	0.11
676.194	0.14
676.377	0.17
676.561	0.16
676.745	0.09
676.928	0.12
677.112	0.15
677.296	0.09
677.479	0.07
677.663	0.11
677.846	0.15
678.03	0.11
678.213	0.11
678.397	0.12
678.58	0.1
678.764	0.1
678.947	0.07
679.131	0.1
679.314	0.17
679.498	0.09
679.681	0.1
679.865	0.17
680.048	0.09
680.231	0.09
680.415	0.11
680.598	0.11
680.781	0.09
680.965	0.09
681.148	0.15
681.331	0.13
681.514	0.11
681.698	0.1
681.881	0.09
682.064	0.1
682.247	0.09
682.43	0.07
682.614	0.13
682.797	0.15
682.98	0.14
683.163	0.07
683.346	0.15
683.529	0.07
683.712	0.07
683.895	0.13
684.078	0.07
684.261	0.07
684.444	0.17
684.627	0.13
684.81	0.08
684.993	0.08
685.176	0.13
685.359	0.04
685.542	0.1
685.725	0.18
685.908	0.11
686.091	0.09
686.274	0.17
686.457	0.13
686.639	0.13
686.822	0.17
687.005	0.1
687.188	0.15
687.371	0.19
687.553	0.1
687.736	0.11
687.919	0.17
688.102	0.19
688.284	0.07
688.467	0.11
688.65	0.13
688.832	0.08
689.015	0.09
689.197	0.06
689.38	0.15
689.563	0.21
689.745	0.08
689.928	0.08
690.11	0.07
690.293	0.17
690.475	0.02
690.658	0.14
690.84	0.09
691.023	0.1
691.205	0.06
691.388	0.11
691.57	0.11
691.752	0.11
691.935	0.06
692.117	0.08
692.3	0.12
692.482	0.15
692.664	0.08
692.847	0.08
693.029	0.2
693.211	0.13
693.393	0.06
693.576	0.1
693.758	0.1
693.94	0.1
694.122	0.03
694.304	0.06
694.487	0.08
694.669	0.19
694.851	0.06
695.033	0.11
695.215	0.07
695.397	0.08
695.579	0.12
695.761	0.08
695.943	0.06
696.125	0.18
696.308	0.13
696.49	-0.04
696.671	0.22
696.853	0.09
697.035	0.32
697.217	0.07
697.399	0.13
697.581	0.05
697.763	0.13
697.945	0.09
698.127	0.14
698.309	0.17
698.491	0.1
698.672	0.11
698.854	0.14
699.036	0.15
699.218	0.09
699.399	0.15
699.581	0.14
699.763	0.09
699.945	0.05
700.126	0.06
700.308	0.13
700.49	0.09
700.671	0.02
700.853	0.06
701.035	0.11
701.216	0.1
701.398	0.06
701.579	0.11
701.761	0.15
701.943	-0
702.124	0.16
702.306	0.06
702.487	0.19
702.669	0.11
702.85	0.07
703.031	0.03
703.213	0.25
703.394	0.16
703.576	0.03
703.757	0.21
703.938	0.25
704.12	0.29
704.301	0.12
704.483	0.07
704.664	0.11
704.845	0.21
705.026	0.2
705.208	0.08
705.389	0.11
705.57	0.14
705.751	0.09
705.933	0.09
706.114	0.19
706.295	0.12
706.476	0.08
706.657	0.22
706.838	0.13
707.02	0.15
707.201	0.01
707.382	0.08
707.563	0.17
707.744	0.11
707.925	0.01
708.106	0.1
708.287	0.13
708.468	0.21
708.649	0.13
708.83	0.11
709.011	0.04
709.192	0.13
709.373	0.07
709.554	0.1
709.734	0.15
709.915	0.14
710.096	0.08
710.277	0.02
710.458	0.13
710.639	0.16
710.819	0.03
711	0.16
711.181	0.18
711.362	0.16
711.542	0.14
711.723	0.15
711.904	0.14
712.085	0.12
712.265	0.13
712.446	0.04
712.627	0.08
712.807	0.05
712.988	0.14
713.168	0.02
713.349	0.12
713.53	-0
713.71	0.01
713.891	0.07
714.071	0.12
714.252	0.03
714.432	0.11
714.613	0.03
714.793	0.11
714.974	0.12
715.154	0.15
715.334	0.19
715.515	0.24
715.695	0.05
715.876	0.02
716.056	-0.02
716.236	0.07
716.417	0.13
716.597	0.05
716.777	0.25
716.957	0.05
717.138	0.12
717.318	0.09
717.498	0.02
717.678	0.1
717.859	0.1
718.039	0.01
718.219	0.17
718.399	0.2
718.579	0.02
718.759	0.06
718.939	0.18
719.12	0.14
719.3	0.11
719.48	0.02
719.66	0.01
719.84	0.26
720.02	0
720.2	0.13
720.38	0.15
720.56	0.23
720.74	0.07
720.92	0.11
721.1	0.18
721.279	0.15
721.459	0.13
721.639	-0.01
721.819	0.13
721.999	0.06
722.179	0.16
722.359	0.08
722.538	0.12
722.718	0.13
722.898	0.07
723.078	0.1
723.257	0.05
723.437	0.14
723.617	0.17
723.797	0.09
723.976	0.12
724.156	0.08
724.336	0.2
724.515	0.24
724.695	0.04
724.874	0.06
725.054	0.17
725.234	-0.01
725.413	0.15
725.593	0.04
725.772	0.19
725.952	0.13
726.131	0.04
726.311	0.05
726.49	0.13
726.67	0.05
726.849	0.1
727.028	0.13
727.208	0.11
727.387	0.13
727.567	0
727.746	0.09
727.925	0.13
728.105	-0.02
728.284	0.17
728.463	0.05
728.643	0.21
728.822	0.02
729.001	0.16
729.18	0.18
729.359	0.2
729.539	0.06
729.718	0.09
729.897	0.13
730.076	0.1
730.255	0
730.434	0.1
730.614	0.22
730.793	0.25
730.972	0.13
731.151	0.09
731.33	0.24
731.509	0.17
731.688	0.07
731.867	0.15
732.046	0.03
732.225	0.3
732.404	0.11
732.583	0.03
732.762	0.2
732.941	0.21
733.12	0.12
733.298	0.09
733.477	0.27
733.656	0.06
733.835	0.08
734.014	0.19
734.193	0.12
734.371	0.24
734.55	0.17
734.729	0.01
734.908	0.1
735.086	0.15
735.265	0.19
735.444	-0
735.623	-0.02
735.801	0.1
735.98	0.16
736.159	0.05
736.337	0.23
736.516	0.16
736.694	0.2
736.873	0.1
737.052	0.28
737.23	0.22
737.409	0
737.587	0.28
737.766	-0
737.944	0.08
738.123	0.22
738.301	0.2
738.479	0.1
738.658	0.11
738.836	-0.01
739.015	0.12
739.193	0.2
739.371	0.04
739.55	0.05
739.728	-0
739.906	0.17
740.085	0.27
740.263	0.14
740.441	-0
740.62	0.37
740.798	0.12
740.976	0.1
741.154	0.15
741.332	0.3
741.511	0.15
741.689	0.09
741.867	0.2
742.045	0.18
742.223	0.09
742.401	0.09
742.579	0.09
742.757	0.23
742.935	0.07
743.114	0.03
743.292	0.13
743.47	0.16
743.648	0.06
743.826	-0.04
744.004	0.18
744.181	0.11
744.359	0.05
744.537	0.16
744.715	0.02
744.893	0.1
745.071	0
745.249	0.16
745.427	0.11
745.605	0.25
745.782	0.12
745.96	0.28
746.138	0.12
746.316	0.15
746.493	0.04
746.671	0.08
746.849	0.11
747.027	0.23
747.204	-0.02
747.382	0.19
747.56	0.03
747.737	0.12
747.915	0.04
748.093	0.16
748.27	0.04
748.448	0.13
748.625	0.03
748.803	0
748.98	0.03
749.158	0.07
749.335	0.21
749.513	0.07
749.69	0.15
749.868	0.15
750.045	0.11
750.223	0.1
750.4	-0.06
750.578	0.2
750.755	0.14
750.932	-0.07
751.11	0.17
751.287	-0.11
751.464	0.26
751.642	0.06
751.819	0.14
751.996	0.21
752.173	0.13
752.351	-0.03
752.528	0.13
752.705	0.15
752.882	0.06
753.06	0.09
753.237	0.19
753.414	0.21
753.591	0.21
753.768	0.08
753.945	-0.07
754.122	0.11
754.299	0.16
754.476	0.07
754.654	0.11
754.831	0.17
755.008	0.25
755.185	0.02
755.362	0.05
755.539	0.08
755.716	0.09
755.892	-0.01
756.069	0.1
756.246	0.04
756.423	0.11
756.6	0.37
756.777	0.03
756.954	0.2
757.131	0.06
757.307	0.05
757.484	-0.06
757.661	0.12
757.838	0.09
758.015	0.07
758.191	0.14
758.368	0.09
758.545	0.3
758.721	0.22
758.898	0.01
759.075	0.14
759.251	0.13
759.428	0.1
759.605	0.03
759.781	0.1
759.958	0.13
760.134	0.09
760.311	0.08
760.488	0.2
760.664	0.27
760.841	0.17
761.017	0.14
761.194	0.21
761.37	0.24
761.547	0.14
761.723	0.16
761.899	0.22
762.076	0.05
762.252	0.04
762.429	0.19
762.605	0.17
762.781	0.12
762.958	0.18
763.134	0.1
763.31	0.09
763.486	0.34
763.663	-0.13
763.839	0.11
764.015	0.03
764.191	0.09
764.368	0.14
764.544	0
764.72	0.19
764.896	0.18
765.072	0.13
765.248	0.1
765.425	0.05
765.601	0.2
765.777	0.15
765.953	-0.14
766.129	0.09
766.305	0.04
766.481	0.14
766.657	0.22
766.833	0.37
767.009	-0.12
767.185	-0.04
767.361	0.02
767.537	-0.04
767.713	0.34
767.889	0.13
768.065	0.19
768.24	0.28
768.416	0.15
768.592	0.25
768.768	0.17
768.944	0.09
769.12	0.04
769.295	0.16
769.471	0.22
769.647	0.16
769.823	0.18
769.998	-0.16
770.174	0.06
770.35	0.43
770.525	0.39
770.701	0.33
770.877	0.17
771.052	0.16
771.228	0.16
771.403	0.11
771.579	0.15
771.755	0.27
771.93	0.26
772.106	-0
772.281	0.02
772.457	0.21
772.632	0.21
772.808	0.08
772.983	0.1
773.159	-0.02
773.334	0.29
773.509	0.04
773.685	0.09
773.86	0.45
774.036	0.31
774.211	0.16
774.386	0
774.562	0.02
774.737	0.11
774.912	-0
775.087	0.3
775.263	0.18
775.438	0.2
775.613	0.18
775.788	0.1
775.964	0.25
776.139	0.54
776.314	-0.09
776.489	0.18
776.664	0.22
776.839	-0.01
777.014	0.28
777.19	0.36
777.365	0.28
777.54	0.35
777.715	-0.01
777.89	0.06
778.065	-0.03
778.24	0.1
778.415	0.33
778.59	-0.01
778.765	0.08
778.94	0.09
779.115	0.05
779.289	0.1
779.464	0.15
779.639	0.23
779.814	-0.11
779.989	-0.01
780.164	0.25
780.339	0.25
780.513	0
780.688	-0.12
780.863	0.17
781.038	0.32
781.212	-0.01
781.387	0.1
781.562	0.31
781.737	0.06
781.911	0.21
782.086	0.04
782.261	0.06
782.435	0.34
782.61	-0.02
782.784	0.1
782.959	0.32
783.134	-0.01
783.308	-0.04
783.483	0.15
783.657	0.51
783.832	0.26
784.006	-0.36
784.181	0.08
784.355	0.11
784.53	-0.08
784.704	0.22
784.878	0.47
785.053	0.45
785.227	0.35
785.402	0.56
785.576	-0.28
785.75	0.09
785.925	-0
786.099	0.23
786.273	0.1
786.448	0.36
786.622	0.18
786.796	0.15
786.97	-0.13
787.145	0.75
787.319	-0.26
787.493	-0.04
787.667	-0.01
787.841	0.07
788.015	0.43
788.19	-0.03
788.364	0.23
788.538	0.31
788.712	0.35
788.886	0.08
789.06	0.27
789.234	0.42
789.408	-0.03
789.582	0.01
789.756	0.08
789.93	-0
790.104	0.18
790.278	-0.13
790.452	-0.01
790.626	0.12
790.8	0.08
790.973	0.23
791.147	0.42
791.321	0.39
791.495	0.36
791.669	0.4
791.843	0.33
792.016	0.22
792.19	0.21
792.364	-0.08
792.538	0.57
792.711	0.27
792.885	0.01
793.059	-0.03
793.233	-0.25
793.406	0.32
793.58	0.54
793.754	0.06
793.927	0.04
794.101	0.47
794.274	-0.04
794.448	0.53
794.622	-0.14
794.795	0.44
794.969	0.15
795.142	0.55
795.316	0.17
795.489	0.17
795.663	0.4
795.836	-0.09
796.009	0.06
796.183	0.47
796.356	0.44
796.53	0.15
796.703	0.16
796.876	0.9
797.05	0.12
797.223	0.04
797.396	0.47
797.57	0.16
797.743	0.6
797.916	0.24
798.09	0.09
798.263	0.37
798.436	0.25
798.609	0.18
798.782	0.17
798.956	0.25
799.129	0.44
799.302	0.12
799.475	0.12
799.648	0.11
799.821	-0.08
799.994	0.09
800.167	-0.21
800.34	0.09
800.514	0.3
800.687	-0.1
800.86	0.14
801.033	0.13
801.206	-0.14
801.379	-0.04
801.551	0.42
801.724	0.47
801.897	0.71
802.07	0.26
802.243	-0.21
802.416	0.31
802.589	0.01
802.762	0.3
802.935	0.08
803.107	0.63
803.28	0.57
803.453	0.61
803.626	-0.21
803.798	0.27
803.971	0.46
804.144	0.02
804.317	0.28
804.489	0.26
804.662	0.17
804.835	0.18
805.007	0.24
805.18	0.44
805.353	0.22
805.525	-0.09
805.698	0.28
805.87	0.37
806.043	0.41
806.215	-0.2
806.388	-0.07
806.56	0.2
806.733	0.54
806.905	0.47
807.078	-0.13
807.25	0.21
807.423	0.16
807.595	0.2
807.768	0.03
807.94	0.41
808.112	0.51
808.285	0.12
808.457	0.08
808.629	-0.07
808.802	0.21
808.974	0.43
809.146	0.06
809.318	0.1
809.491	0.41
809.663	0.06
809.835	-0.11
810.007	0.48
810.18	0.28
810.352	0.01
810.524	0.02
810.696	0.46
810.868	0.52
811.04	0.31
811.212	0.15
811.384	0.76
811.556	0.08
811.728	0.29
811.901	0.53
812.073	0.28
812.245	0.66
812.417	0.28
812.589	-0.6
812.76	0.27
812.932	0.55
813.104	0.43
813.276	0.04
813.448	0.68
813.62	0.08
813.792	0.4
813.964	-0.02
814.136	0.11
814.307	0.28
814.479	-0.18
814.651	0.31
814.823	0.93
814.995	0.19
815.166	0.16
815.338	0.32
815.51	-0.21
815.681	0.86
815.853	0.02
816.025	0.25
816.196	0.89
816.368	1.02
816.54	0.01
816.711	0.07
816.883	-0.02
817.054	1.13
817.226	-0.22
817.398	0.2
817.569	0.31
817.741	0.15
817.912	0.39
818.084	-0.17
818.255	0.17
818.426	-0.02
818.598	0.2
818.769	-0.18
818.941	0.62
819.112	0.49
819.283	0.31
819.455	-0.24
819.626	0.2
819.798	0.44
819.969	0.41
820.14	-0.18
820.311	0.16
820.483	0.59
820.654	0.55
820.825	0.25
820.996	-0.07
821.168	-0.25
821.339	0
821.51	-0.03
821.681	0.33
821.852	0.78
822.023	0.37
822.195	-0.6
822.366	0.5
822.537	0.47
822.708	0.43
822.879	0.06
823.05	0.99
823.221	0.03
823.392	0.56
823.563	0.19
823.734	0.5
823.905	0.47
824.076	0.12
824.247	-0.31
824.418	0.29
824.589	0.59
824.759	0.18
824.93	0.06
825.101	-0.23
825.272	0.81
825.443	0.75
825.614	0.41
825.784	-0.61
825.955	1.46
826.126	1.17
826.297	-0.26
826.467	0.87
826.638	1.13
826.809	-0.52
826.98	0.19
827.15	0.7
827.321	0.55
827.492	1.2
827.662	0.44
827.833	1.19
828.003	0.4
828.174	-0.79
828.345	-0.3
828.515	1.24
828.686	0.23
828.856	0.19
829.027	0.61
829.197	0.43
829.368	0.46
829.538	0.07
829.709	0.26
829.879	0.14
830.049	0.55
830.22	0.42
830.39	0.02
830.56	0.78
830.731	0.39
830.901	-0.09
831.072	0.57
831.242	1.11
831.412	0.46
831.582	0.23
831.753	-0.28
831.923	0.77
832.093	0.08
832.263	-0.04
832.434	-0.67
832.604	0
832.774	0.32
832.944	0.23
833.114	-0.33
833.284	0.12
833.454	-0.38
833.624	0.26
833.795	-0.19
833.965	1.19
834.135	1.4
834.305	-0.56
834.475	-0.48
834.645	-0.03
834.815	-0.39
834.985	-0.28
835.155	0.1
835.325	0.57
835.494	0.55
835.664	0.08
835.834	-0.24
836.004	0.9
836.174	0.98
836.344	-0.03
836.514	-0.22
836.684	0.18
836.853	0.38
837.023	0.76
837.193	0.02
837.363	1.29
837.532	0.97
837.702	0.11
837.872	0.5
838.041	0.84
838.211	1.23
838.381	-0.01
838.55	0
838.72	2.16
838.89	2.05
839.059	-0.71
839.229	0.29
839.398	1.7
839.568	0.93
839.738	0.21
839.907	1.35
840.077	0.7
840.246	-0.91
840.416	-0.01
840.585	-0.26
840.755	1.44
840.924	1.64
841.093	-0.07
841.263	0.01
841.432	0.29
841.602	-0.76
841.771	0.11
841.94	0.27
842.11	3
842.279	1.83
842.448	-0.4
842.617	-0.59
842.787	1.47
842.956	-0.28
843.125	-0.41
843.294	0.52
843.464	1.26
843.633	0.94
843.802	-0.75
843.971	0.4
844.14	0.71
844.309	1.22
844.479	-0.63
844.648	-0.15
844.817	0.33
844.986	0.18
845.155	-0.04
845.324	-0.59
845.493	1.1
845.662	-0.74
845.831	0.32
846	0.8
846.169	-0.39
846.338	1.19
846.507	0.65
846.676	0.4
846.844	0.23
847.013	0.92
847.182	0.41
847.351	-0.09
847.52	-0.24
847.689	1.04
847.858	-0.01
848.026	-0.05
848.195	-0.18
848.364	-0.25
848.533	-0.8
848.701	-0.31
848.87	0.58
849.039	2
849.207	1.21
849.376	1.48
849.545	1.89
849.713	0.28
849.882	0.38
850.051	-0.03
850.219	1.24
850.388	0.03
850.556	0.02
850.725	0.37
850.893	1.02
851.062	0.55
851.23	0.66
851.399	-1.09
851.567	0.12
851.736	0.47
851.904	-0.62
852.073	1.54
852.241	1.44
852.41	0.95
852.578	0.02
852.746	0.68
852.915	0.91
853.083	1.39
853.251	-0.34
853.42	0.24
853.588	0.89
853.756	2.13
853.924	0.47
854.093	0.48
854.261	-0.35
854.429	-0.82
854.597	1.01
854.765	0.01
854.934	0.89
855.102	2.03
855.27	0.61
855.438	0.99
855.606	0.81
855.774	1
855.942	-0.26
856.11	-0.93
856.278	0.27
856.446	1.2
856.614	0.06
856.782	0.32
856.95	1.39
857.118	-0.09
857.286	-0.25
857.454	-0.19
857.622	1.58
857.79	1.27
857.958	-0.17
858.126	1.09
858.294	-2.21
858.462	0.55
858.629	-0.18
858.797	-1.1
858.965	0.73
859.133	0.34
859.301	0.6
859.468	0.89
859.636	0.08
859.804	2.3
859.971	0.82
860.139	-0.35
860.307	1.45
860.474	1.18
860.642	0.34
860.81	0.04
860.977	0.47
861.145	1.28
861.313	0.35
861.48	0.65
861.648	1.68
861.815	0.2
861.983	-0.46
862.15	-0.17
862.318	1.28
862.485	2.22
862.653	0.24
862.82	-0.67
862.988	2.5
863.155	-0.17
863.322	0.48
863.49	-0.58
863.657	-0.1
863.824	2.31
863.992	0.65
864.159	0.53
864.326	2.06
864.494	-0.44
864.661	3.98
864.828	-0.04
864.996	0.97
865.163	2.4
865.33	-0.35
865.497	-1.49
865.664	-1.09
865.832	-1.03
865.999	1.17
866.166	-0.9
866.333	0.28
866.5	0.94
866.667	-0.8
866.834	0.73
867.001	2.52
867.168	-0.52
867.335	0.3
867.502	-1.39
867.669	0.86
867.836	3.13
868.003	-0.07
868.17	0.85
868.337	-1.5
868.504	2.44
868.671	-1.5
868.838	0.12
869.005	1.82
869.172	1.23
869.339	0.22
869.505	-0.57
869.672	1.01
869.839	1.18
870.006	-0.6
870.173	-1.78
870.339	1.42
870.506	2.18
870.673	0.44
870.84	1.26
871.006	-0.9
871.173	0.65
871.34	1.45
871.506	0.47
871.673	0.63
871.839	-0.9
872.006	1.06
872.173	1.69
872.339	2.38
872.506	2.42
872.672	-0.07
872.839	-1.6
873.005	1.57
873.172	3.47
873.338	2.65
873.505	0.08
873.671	-0.1
873.838	1
874.004	-1.51
874.171	0.21
874.337	1.59
874.503	3.71
874.67	0.36
874.836	-0.47
875.002	2.51
875.169	2.02
875.335	0.94
875.501	0.28
875.668	1.23
875.834	-0.35
876	-0.76
876.166	0.63
876.332	0.92
876.499	2.24
876.665	0.62
876.831	-0.73
876.997	2.51
877.163	3.14
877.329	1.1
877.495	0.51
877.662	1.76
877.828	1.25
877.994	0.85
878.16	-0.98
878.326	-0.09
878.492	-0.3
878.658	-0.61
878.824	0.61
878.99	0.8
879.156	-1.69
879.322	2.58
879.487	2.13
879.653	-0.06
879.819	1.43
879.985	-0.91
880.151	1.1
880.317	1.74
880.483	-0.35
880.648	3.23
880.814	-2.82
880.98	2.06
881.146	-1.82
881.312	-0.54
881.477	-0.26
881.643	-0.23
881.809	3.45
881.974	4.68
882.14	-1.01
882.306	0.83
882.471	4.07
882.637	-1.07
882.803	1.5
882.968	4.36
883.134	2.45
883.299	3.1
883.465	0.73
883.63	3.23
883.796	3.91
883.961	2
884.127	1.45
884.292	-4.27
884.458	-0.26
884.623	-0.26
