Data from Apollo_Calib_20240827__AbsoluteIrradiance__412__06-01-03-024.txt Node

Date: Wed Aug 28 06:01:03 BST 2024
User: biology
Spectrometer: FLMT08252
Trigger mode: 0
Integration Time (sec): 5.000000E-1
Scans to average: 5
Electric dark correction enabled: true
Nonlinearity correction enabled: false
Boxcar width: 0
XAxis mode: Wavelengths
Number of Pixels in Spectrum: 3648
>>>>>Begin Spectral Data<<<<<
179.588	-0
179.809	-0
180.03	-0
180.251	-0
180.473	-0
180.694	0
180.915	0
181.136	-0
181.357	0
181.578	-0
181.799	0
182.02	-0
182.241	0
182.462	-0
182.683	0
182.904	-0
183.125	-0
183.346	0
183.567	0
183.788	0
184.009	-0
184.23	-0
184.451	0
184.672	0
184.892	-0
185.113	0
185.334	0
185.555	0
185.776	-0
185.996	0
186.217	0
186.438	0
186.659	-0
186.879	0
187.1	0
187.321	-0
187.541	0
187.762	0
187.983	0
188.203	0
188.424	0
188.644	0
188.865	0
189.086	0
189.306	0
189.527	0
189.747	0
189.968	0
190.188	0
190.409	0
190.629	0
190.849	0
191.07	0
191.29	0
191.511	0
191.731	0
191.951	0
192.172	0
192.392	0
192.612	-0
192.833	0
193.053	0
193.273	0
193.493	0
193.714	0
193.934	0
194.154	0
194.374	0
194.594	0
194.815	0
195.035	0
195.255	0
195.475	-0
195.695	0
195.915	0
196.135	0
196.355	0
196.575	0
196.795	0
197.015	-0
197.235	0
197.455	0
197.675	0
197.895	-0
198.115	-0
198.335	0
198.555	0
198.775	0
198.995	0
199.214	0
199.434	0
199.654	0
199.874	0
200.094	1.12
200.313	0.45
200.533	0.33
200.753	-0.47
200.973	1.82
201.192	0.89
201.412	-0.83
201.632	0.24
201.851	1.69
202.071	-0.13
202.291	0.11
202.51	0.08
202.73	0.86
202.95	0.36
203.169	-0.08
203.389	-0.02
203.608	0.27
203.828	0.06
204.047	0.15
204.267	0.89
204.486	0.74
204.706	0.52
204.925	0.21
205.145	0.36
205.364	0.53
205.583	1.31
205.803	0.11
206.022	0.11
206.242	0.38
206.461	0.34
206.68	0.04
206.9	0.63
207.119	0.61
207.338	1.15
207.557	0.11
207.777	-0.01
207.996	0.36
208.215	0.69
208.434	0.1
208.654	-0.14
208.873	0.39
209.092	0.72
209.311	0.02
209.53	0.12
209.749	0.03
209.968	0.15
210.187	0.08
210.407	-0
210.626	0
210.845	0.54
211.064	0.29
211.283	0.01
211.502	0.54
211.721	0.39
211.94	0.18
212.159	0.55
212.377	0.4
212.596	0.86
212.815	0.46
213.034	0.53
213.253	0.41
213.472	0.41
213.691	0.14
213.91	-0.03
214.128	0.1
214.347	0.52
214.566	-0.01
214.785	-0.02
215.003	0.35
215.222	0.35
215.441	0.18
215.66	-0.13
215.878	0.21
216.097	0.4
216.316	0.01
216.534	-0.06
216.753	0.17
216.972	0.38
217.19	0
217.409	0.03
217.627	0.14
217.846	0.13
218.064	0.18
218.283	0.12
218.501	0.7
218.72	0.49
218.938	-0.01
219.157	0.04
219.375	0.25
219.594	0.36
219.812	-0.11
220.031	0.03
220.249	0.71
220.467	0.42
220.686	0.17
220.904	-0.06
221.122	0
221.341	0.6
221.559	0.26
221.777	-0.06
221.995	0.13
222.214	0.33
222.432	0.05
222.65	0.33
222.868	0.18
223.086	0.25
223.305	0.34
223.523	0.13
223.741	0.39
223.959	0.01
224.177	-0.11
224.395	0.07
224.613	0.24
224.831	0.39
225.049	0.06
225.267	0.03
225.485	0.3
225.703	0.16
225.921	0.16
226.139	0.13
226.357	0.32
226.575	0.24
226.793	0.03
227.011	0.72
227.229	0.17
227.447	0.28
227.665	0.11
227.883	0.11
228.1	0.07
228.318	0.28
228.536	-0.08
228.754	-0.07
228.972	0.27
229.189	0.32
229.407	0
229.625	0.12
229.843	0.22
230.06	0.21
230.278	0.11
230.496	0.14
230.713	0.18
230.931	0.3
231.149	-0
231.366	-0.05
231.584	0.1
231.801	0.45
232.019	0.09
232.236	-0.1
232.454	-0.12
232.671	0.19
232.889	0.18
233.106	-0.06
233.324	0.09
233.541	0.1
233.759	0.17
233.976	0.03
234.194	0.17
234.411	0.11
234.628	-0
234.846	0.07
235.063	0.11
235.28	0.06
235.498	0.17
235.715	-0.02
235.932	0.2
236.149	0.07
236.367	0.03
236.584	0.11
236.801	0.08
237.018	0.22
237.236	0.19
237.453	-0.07
237.67	0.19
237.887	0.14
238.104	0.13
238.321	0.02
238.538	-0.04
238.755	0.28
238.973	-0
239.19	0.18
239.407	0.15
239.624	0.13
239.841	0.05
240.058	-0.09
240.275	0.06
240.492	0.13
240.709	0.19
240.925	0.08
241.142	0.11
241.359	0.03
241.576	0.02
241.793	0.08
242.01	0.07
242.227	0.14
242.444	0.18
242.66	0.16
242.877	0.09
243.094	0.02
243.311	0.21
243.527	0.04
243.744	0.13
243.961	0.13
244.178	0.04
244.394	0.03
244.611	0.26
244.828	0.3
245.044	0.02
245.261	0.14
245.477	0.08
245.694	0.23
245.911	0.07
246.127	0.07
246.344	0.25
246.56	0.19
246.777	0.05
246.993	0.14
247.21	0.18
247.426	0.2
247.643	0.12
247.859	0.01
248.076	0.03
248.292	0.29
248.508	0.07
248.725	0.17
248.941	0.1
249.157	0.2
249.374	0.12
249.59	0.07
249.806	0.11
250.023	0.3
250.239	0.06
250.455	0.06
250.671	0.11
250.888	0.13
251.104	0.22
251.32	0.03
251.536	0.08
251.752	0.03
251.969	0.03
252.185	0.11
252.401	0.23
252.617	0.11
252.833	0.04
253.049	0.13
253.265	0.17
253.481	0.17
253.697	0.09
253.913	0.01
254.129	0.06
254.345	0.15
254.561	0.11
254.777	0.09
254.993	0.11
255.209	0.1
255.425	0.1
255.641	0.04
255.857	0.2
256.073	0.12
256.288	-0.04
256.504	0.02
256.72	0.08
256.936	0.25
257.152	0.04
257.367	0.05
257.583	0.11
257.799	0.11
258.015	0.06
258.23	0.09
258.446	0.21
258.662	0.04
258.877	0.03
259.093	0.06
259.309	0.07
259.524	0.16
259.74	0.06
259.955	-0.02
260.171	0.1
260.387	0.07
260.602	0.2
260.818	0.15
261.033	0
261.249	0.05
261.464	0.03
261.68	-0.01
261.895	0.08
262.11	0.19
262.326	0.03
262.541	0.02
262.757	0.12
262.972	0.12
263.187	0.08
263.403	0.06
263.618	0.22
263.833	0.11
264.049	0.03
264.264	0.1
264.479	0.16
264.694	0.17
264.91	-0.02
265.125	0.05
265.34	0.15
265.555	0.2
265.77	0.12
265.986	0.09
266.201	0.14
266.416	0.16
266.631	0.05
266.846	0.08
267.061	0.11
267.276	0.1
267.491	-0.05
267.706	0.07
267.921	0.13
268.136	0.11
268.351	0.09
268.566	-0.01
268.781	0.2
268.996	0.12
269.211	0.13
269.426	-0.02
269.641	0.06
269.856	0.1
270.071	0.03
270.285	-0.06
270.5	0.14
270.715	0.19
270.93	0.08
271.145	0.13
271.359	0.15
271.574	0.07
271.789	0.07
272.004	0.02
272.218	0.06
272.433	0.14
272.648	0.05
272.862	0.2
273.077	0.11
273.292	0.12
273.506	0.08
273.721	0.1
273.936	0.14
274.15	0.17
274.365	0.06
274.579	0.08
274.794	0.13
275.008	0.12
275.223	-0.02
275.437	0.05
275.652	0.12
275.866	0.11
276.081	0.05
276.295	0.14
276.509	0.07
276.724	0.12
276.938	0.1
277.153	0.15
277.367	0.12
277.581	0.02
277.796	-0.02
278.01	0.02
278.224	0.22
278.438	0.23
278.653	-0
278.867	0.07
279.081	-0.09
279.295	0.02
279.51	0.12
279.724	-0.01
279.938	0.13
280.152	0.08
280.366	0.05
280.58	0.1
280.794	0.15
281.008	0.1
281.222	0.15
281.437	0.19
281.651	0.08
281.865	0.16
282.079	0.1
282.293	-0.05
282.507	0
282.721	0.08
282.935	0.08
283.148	0.04
283.362	0.01
283.576	-0.02
283.79	0.06
284.004	-0.01
284.218	0.13
284.432	0.05
284.646	0.08
284.859	0.04
285.073	0.05
285.287	0.04
285.501	0.03
285.714	0.07
285.928	0.07
286.142	0.1
286.356	0.1
286.569	0.04
286.783	0.15
286.997	0.08
287.21	0.11
287.424	0.1
287.637	0.06
287.851	0.06
288.065	0.09
288.278	0.05
288.492	0.07
288.705	0.03
288.919	0.1
289.132	0.03
289.346	0.13
289.559	0.02
289.773	0.03
289.986	0.07
290.2	0.09
290.413	0.16
290.626	0.01
290.84	-0
291.053	0.07
291.267	0.14
291.48	0.09
291.693	0.08
291.906	0.04
292.12	0.06
292.333	0.05
292.546	0.04
292.76	0.11
292.973	0.07
293.186	0.12
293.399	0.02
293.612	0.11
293.826	0.03
294.039	0.12
294.252	0.04
294.465	0.14
294.678	0.15
294.891	0.06
295.104	-0.02
295.317	0.1
295.53	0.04
295.743	0.07
295.956	0.04
296.169	0.11
296.382	0.12
296.595	0.06
296.808	-0.01
297.021	0.14
297.234	0.14
297.447	0.08
297.66	0.11
297.873	0.12
298.086	0.1
298.299	0.01
298.511	-0.01
298.724	0.05
298.937	0.07
299.15	0.07
299.363	0.07
299.575	0.06
299.788	0.09
300.001	0.03
300.213	0.04
300.426	0.04
300.639	0.01
300.852	0.03
301.064	0.11
301.277	0.12
301.489	0.11
301.702	0.15
301.915	0.07
302.127	0.07
302.34	0.11
302.552	0.11
302.765	0.03
302.977	0.1
303.19	0.07
303.402	0.04
303.615	0.05
303.827	0.05
304.04	0.06
304.252	0.09
304.464	0.07
304.677	0.16
304.889	0.08
305.102	0.05
305.314	0.03
305.526	0.13
305.739	0.11
305.951	0.02
306.163	0.07
306.375	0.15
306.588	0.01
306.8	0.05
307.012	0.05
307.224	0.08
307.436	0.1
307.649	-0.02
307.861	0.05
308.073	0.12
308.285	0.05
308.497	0.03
308.709	0.06
308.921	0.07
309.133	0.13
309.346	0.03
309.558	0.05
309.77	0.11
309.982	0.14
310.194	0.1
310.406	0.06
310.617	0.13
310.829	0.09
311.041	0.1
311.253	0.05
311.465	0.07
311.677	0.05
311.889	0.08
312.101	0.04
312.313	0.11
312.524	0.13
312.736	0.02
312.948	0.07
313.16	0.14
313.372	0.13
313.583	0.07
313.795	0.07
314.007	0.02
314.218	0.08
314.43	0.09
314.642	0.04
314.853	-0
315.065	0.1
315.277	0.06
315.488	0.09
315.7	0.07
315.912	0.09
316.123	0.08
316.335	0.09
316.546	0.16
316.758	0.02
316.969	0.03
317.181	0.08
317.392	0.04
317.604	0.1
317.815	0.01
318.026	0.03
318.238	0.04
318.449	0.09
318.661	-0.03
318.872	0
319.083	-0.01
319.295	0.13
319.506	0.04
319.717	0.1
319.929	0.11
320.14	0.07
320.351	0.08
320.562	0.06
320.774	0.09
320.985	0.07
321.196	0.03
321.407	-0.02
321.618	0.09
321.829	0.07
322.041	0.07
322.252	0.07
322.463	0.09
322.674	0.07
322.885	0
323.096	0.06
323.307	0.06
323.518	0.08
323.729	0.06
323.94	0.07
324.151	-0
324.362	0.08
324.573	0.1
324.784	0.03
324.995	0.13
325.206	0.09
325.417	0.02
325.628	0.05
325.838	0.03
326.049	0.07
326.26	0.14
326.471	0.01
326.682	0.06
326.892	0.05
327.103	0.02
327.314	-0.05
327.525	0.11
327.735	0.06
327.946	0.1
328.157	0.02
328.368	0.09
328.578	0.05
328.789	0.13
328.999	0.07
329.21	0.09
329.421	0.1
329.631	0.02
329.842	0.01
330.052	0.07
330.263	0.09
330.473	0.11
330.684	0.04
330.894	0.04
331.105	0.04
331.315	0.05
331.526	0.01
331.736	0.13
331.947	0.06
332.157	0.08
332.367	0.02
332.578	0.12
332.788	0.1
332.999	0.08
333.209	0.09
333.419	0.06
333.629	0.08
333.84	0.09
334.05	0.08
334.26	0.13
334.47	0.09
334.681	0.13
334.891	0.05
335.101	0.07
335.311	0.16
335.521	0.08
335.732	0.01
335.942	0.11
336.152	0.11
336.362	0.05
336.572	0.09
336.782	0.09
336.992	0.07
337.202	0.04
337.412	0.03
337.622	0.05
337.832	0.07
338.042	0.05
338.252	0.08
338.462	0.01
338.672	0.08
338.882	-0.01
339.092	0.05
339.302	0.14
339.511	0.08
339.721	0
339.931	0.07
340.141	0.09
340.351	0.09
340.561	0.05
340.77	0.06
340.98	0.09
341.19	0.08
341.4	0.04
341.609	0.05
341.819	0.05
342.029	0.02
342.238	0.08
342.448	0.03
342.658	0.11
342.867	0.04
343.077	0.09
343.286	0.07
343.496	0.07
343.706	0.13
343.915	-0.01
344.125	0.03
344.334	0.09
344.544	-0.03
344.753	0.05
344.963	0.04
345.172	0.05
345.381	0.03
345.591	0.01
345.8	0.09
346.01	0.14
346.219	0.13
346.428	-0.11
346.638	0.03
346.847	0.05
347.056	0.12
347.266	0
347.475	0.05
347.684	0.06
347.893	0.1
348.103	0.09
348.312	0.08
348.521	0.03
348.73	0.09
348.94	0.07
349.149	0.02
349.358	0.07
349.567	0.04
349.776	0
349.985	0.06
350.194	0.06
350.403	0.1
350.612	-0.01
350.821	0.05
351.03	0.04
351.239	0.04
351.448	0.07
351.657	0.06
351.866	0.13
352.075	0.05
352.284	0.11
352.493	0.03
352.702	0.11
352.911	0.1
353.12	0.1
353.329	0.02
353.538	0.07
353.746	0.06
353.955	0.02
354.164	0.11
354.373	0.03
354.582	0.08
354.79	0.06
354.999	0.1
355.208	0.04
355.416	0.12
355.625	-0.01
355.834	0.03
356.042	0.04
356.251	0.05
356.46	0.03
356.668	0.1
356.877	0.13
357.085	0.07
357.294	-0.01
357.503	0.08
357.711	0.04
357.92	0.18
358.128	0.07
358.337	0.05
358.545	0.13
358.754	0.04
358.962	0.09
359.17	0.06
359.379	0.08
359.587	0.11
359.796	0.07
360.004	0.07
360.212	0.09
360.421	0.12
360.629	0.04
360.837	0.08
361.046	0.07
361.254	0.21
361.462	0.12
361.67	0.07
361.879	0.07
362.087	0.13
362.295	0.08
362.503	0.07
362.711	-0
362.92	0.04
363.128	0.05
363.336	-0.01
363.544	0
363.752	0.05
363.96	0.02
364.168	0.02
364.376	0.08
364.584	0.09
364.792	0.1
365	0.04
365.208	0.04
365.416	0.02
365.624	0.07
365.832	0.06
366.04	0.12
366.248	0.06
366.456	0.09
366.664	0.07
366.872	0.06
367.079	0.05
367.287	0.03
367.495	0.08
367.703	0.04
367.911	0.01
368.118	0.02
368.326	0.05
368.534	0.01
368.742	0.09
368.949	0.03
369.157	0.04
369.365	0.09
369.572	0.04
369.78	0.02
369.988	0.1
370.195	0.07
370.403	0.13
370.61	0.05
370.818	0.08
371.026	0.13
371.233	0.07
371.441	0.06
371.648	0
371.856	0.05
372.063	0.07
372.271	0.05
372.478	0.01
372.685	0.02
372.893	0.11
373.1	0.03
373.308	0.02
373.515	0.13
373.722	0.06
373.93	0.08
374.137	0.05
374.344	0.13
374.552	0.12
374.759	0.08
374.966	0.11
375.173	0.03
375.381	0.14
375.588	0.07
375.795	0.02
376.002	0.07
376.209	0.01
376.417	0.05
376.624	0.03
376.831	0.09
377.038	0.05
377.245	-0.01
377.452	0.02
377.659	0.1
377.866	0.05
378.073	0.05
378.28	0.05
378.487	0.09
378.694	0.09
378.901	0.09
379.108	0.07
379.315	0.08
379.522	0.1
379.729	0.09
379.936	0.06
380.143	0.08
380.35	0.06
380.557	0.07
380.763	0.07
380.97	0.08
381.177	0.11
381.384	0.14
381.591	0.02
381.797	0.12
382.004	0.07
382.211	0.05
382.418	0.08
382.624	0.07
382.831	0.11
383.038	0.04
383.244	0.09
383.451	0.08
383.658	0.1
383.864	0.03
384.071	0.06
384.277	0.11
384.484	0.03
384.69	0.1
384.897	0
385.103	0.05
385.31	0.06
385.516	0.03
385.723	0.03
385.929	0.04
386.136	0.06
386.342	0.06
386.549	0.05
386.755	0.14
386.961	0.04
387.168	0.03
387.374	0.06
387.58	0.1
387.787	0.03
387.993	0.07
388.199	0.07
388.406	0.07
388.612	0.09
388.818	0.07
389.024	0.05
389.231	0.1
389.437	0.13
389.643	0.08
389.849	0.08
390.055	0.11
390.261	0.07
390.467	0.08
390.674	0.03
390.88	0.07
391.086	0.07
391.292	0.02
391.498	0.11
391.704	0.06
391.91	0.07
392.116	0.03
392.322	-0.04
392.528	0.11
392.734	0.08
392.94	0.04
393.146	0.04
393.352	0.09
393.557	0.05
393.763	0.07
393.969	0.06
394.175	0.08
394.381	0.08
394.587	-0.02
394.792	0.06
394.998	0.14
395.204	0.1
395.41	0.06
395.615	0.09
395.821	0.09
396.027	0.09
396.233	0.09
396.438	0.1
396.644	0.16
396.85	0.08
397.055	0.06
397.261	0.16
397.466	0.06
397.672	0.12
397.878	0.11
398.083	0.09
398.289	0.05
398.494	0.08
398.7	0.07
398.905	0.01
399.111	0.12
399.316	0.03
399.522	0.1
399.727	0.05
399.932	0.08
400.138	0.03
400.343	0.13
400.549	0.08
400.754	0.08
400.959	0.05
401.165	0.06
401.37	0.07
401.575	0.06
401.78	0.07
401.986	0.04
402.191	0.05
402.396	0.07
402.601	0.11
402.807	0.11
403.012	0.13
403.217	0.11
403.422	0.08
403.627	0.04
403.832	0.08
404.037	0.07
404.243	0.07
404.448	0.02
404.653	0.08
404.858	0.08
405.063	0.09
405.268	0.05
405.473	0.02
405.678	0.09
405.883	0.2
406.088	0.12
406.293	0.05
406.498	0.04
406.703	0.12
406.907	0.06
407.112	0.07
407.317	0.13
407.522	0.16
407.727	0.02
407.932	0.08
408.136	0.14
408.341	0.09
408.546	0.1
408.751	0.09
408.956	0.07
409.16	0.14
409.365	0.06
409.57	0.06
409.774	0.1
409.979	0.14
410.184	0.12
410.388	0.03
410.593	0.13
410.798	0.12
411.002	0.08
411.207	0.11
411.411	0.09
411.616	0.04
411.82	0.05
412.025	0.15
412.229	0.08
412.434	0.14
412.638	0.1
412.843	0.05
413.047	0.1
413.252	0.05
413.456	0.05
413.66	0.13
413.865	0.08
414.069	0.16
414.273	0.04
414.478	0.07
414.682	0.09
414.886	0.02
415.091	0.04
415.295	0.01
415.499	0.13
415.703	0.03
415.908	0.1
416.112	0.02
416.316	0.14
416.52	0.07
416.724	0.04
416.929	0.05
417.133	0.17
417.337	0.07
417.541	0.04
417.745	0.08
417.949	0.16
418.153	0.09
418.357	0.03
418.561	0.13
418.765	0.11
418.969	0.2
419.173	0.13
419.377	0.09
419.581	0.19
419.785	0.11
419.989	0.04
420.193	0.05
420.397	0.09
420.601	0.18
420.804	0.13
421.008	0.1
421.212	0.09
421.416	0.14
421.62	0.05
421.823	0.11
422.027	0.15
422.231	0.12
422.435	0.09
422.638	0.12
422.842	0.09
423.046	0.07
423.249	0.11
423.453	0.12
423.657	0.11
423.86	0.1
424.064	0.11
424.268	0.18
424.471	0.1
424.675	0.19
424.878	0.19
425.082	0.11
425.285	0.17
425.489	0.13
425.692	0.11
425.896	0.09
426.099	0.12
426.303	0.08
426.506	0.04
426.71	0.15
426.913	0.17
427.116	0.2
427.32	0.07
427.523	0.1
427.726	0.2
427.93	0.05
428.133	0.12
428.336	0.04
428.54	0.02
428.743	0.1
428.946	0.17
429.149	0.09
429.353	0.14
429.556	0.09
429.759	0.13
429.962	0.05
430.165	0.14
430.368	0.09
430.571	0.06
430.775	0.12
430.978	0.09
431.181	0.17
431.384	0.11
431.587	0.05
431.79	0.13
431.993	0.14
432.196	0.04
432.399	0.13
432.602	0.17
432.805	0.07
433.008	0.08
433.211	0.05
433.414	0.16
433.616	0.16
433.819	0.09
434.022	0.02
434.225	0.17
434.428	0.17
434.631	0.23
434.833	0.13
435.036	0.1
435.239	0.13
435.442	0.12
435.645	0.08
435.847	0.14
436.05	0.14
436.253	0.14
436.455	0.03
436.658	0.09
436.861	0.18
437.063	0.08
437.266	0.12
437.468	0.15
437.671	0.24
437.874	0.11
438.076	0.01
438.279	0.13
438.481	0.1
438.684	0.06
438.886	0.12
439.089	0.01
439.291	0.16
439.494	0.13
439.696	0.05
439.899	0.14
440.101	0.14
440.303	0.05
440.506	0.16
440.708	0.13
440.91	0.14
441.113	0.08
441.315	0.17
441.517	0.09
441.72	0.16
441.922	0.09
442.124	0.04
442.326	0.16
442.529	0.22
442.731	0.06
442.933	0.24
443.135	0.09
443.337	0.08
443.539	0.1
443.742	0.07
443.944	0.12
444.146	0.09
444.348	0.1
444.55	0.11
444.752	0.14
444.954	0.06
445.156	0.14
445.358	0.13
445.56	0.25
445.762	0.12
445.964	0.12
446.166	0.1
446.368	0.07
446.57	0.16
446.772	0.12
446.974	0.14
447.175	0.13
447.377	0.07
447.579	0.1
447.781	0.08
447.983	0.2
448.184	0.12
448.386	0.11
448.588	0.05
448.79	0.12
448.991	0.08
449.193	0.13
449.395	0.07
449.597	0.2
449.798	0.13
450	0.11
450.202	0.1
450.403	0.13
450.605	0.15
450.806	0.11
451.008	0.04
451.21	0.12
451.411	0.19
451.613	0.1
451.814	0.16
452.016	0.13
452.217	0.15
452.419	0.16
452.62	0.1
452.821	0.17
453.023	0.11
453.224	0.18
453.426	0.12
453.627	0.14
453.828	0.17
454.03	0.12
454.231	0.17
454.432	0.09
454.634	0.25
454.835	0.15
455.036	0.09
455.238	0.18
455.439	0.21
455.64	0.1
455.841	0.13
456.042	0.17
456.244	0.13
456.445	0.17
456.646	0.1
456.847	0.14
457.048	0.22
457.249	0.15
457.45	0.34
457.651	0.1
457.852	0.2
458.054	0.16
458.255	0.13
458.456	0.16
458.657	0.16
458.858	0.15
459.058	0.17
459.259	0.23
459.46	0.09
459.661	0.17
459.862	0.24
460.063	0.14
460.264	0.2
460.465	0.11
460.666	0.25
460.866	0.15
461.067	0.17
461.268	0.11
461.469	0.15
461.67	0.12
461.87	0.13
462.071	0.14
462.272	0.16
462.473	0.16
462.673	0.17
462.874	0.12
463.075	0.19
463.275	0.13
463.476	0.17
463.676	0.2
463.877	0.13
464.078	0.11
464.278	0.21
464.479	0.12
464.679	0.16
464.88	0.13
465.08	0.24
465.281	0.18
465.481	0.14
465.682	0.13
465.882	0.22
466.083	0.19
466.283	0.17
466.483	0.16
466.684	0.14
466.884	0.12
467.085	0.16
467.285	0.26
467.485	0.12
467.686	0.16
467.886	0.12
468.086	0.17
468.286	0.2
468.487	0.19
468.687	0.1
468.887	0.16
469.087	0.22
469.287	0.2
469.488	0.12
469.688	0.24
469.888	0.2
470.088	0.23
470.288	0.28
470.488	0.21
470.688	0.17
470.888	0.18
471.088	0.19
471.288	0.23
471.488	0.21
471.688	0.19
471.888	0.21
472.088	0.27
472.288	0.23
472.488	0.21
472.688	0.2
472.888	0.24
473.088	0.22
473.288	0.22
473.488	0.24
473.688	0.31
473.887	0.24
474.087	0.22
474.287	0.28
474.487	0.22
474.687	0.28
474.886	0.22
475.086	0.24
475.286	0.27
475.486	0.24
475.685	0.28
475.885	0.28
476.085	0.3
476.284	0.29
476.484	0.29
476.684	0.29
476.883	0.33
477.083	0.32
477.282	0.25
477.482	0.34
477.681	0.34
477.881	0.32
478.08	0.29
478.28	0.29
478.479	0.34
478.679	0.37
478.878	0.28
479.078	0.32
479.277	0.33
479.477	0.34
479.676	0.38
479.875	0.36
480.075	0.3
480.274	0.39
480.473	0.4
480.673	0.38
480.872	0.44
481.071	0.41
481.271	0.45
481.47	0.41
481.669	0.42
481.868	0.4
482.067	0.44
482.267	0.42
482.466	0.42
482.665	0.41
482.864	0.43
483.063	0.43
483.262	0.46
483.461	0.52
483.661	0.52
483.86	0.51
484.059	0.51
484.258	0.56
484.457	0.5
484.656	0.56
484.855	0.59
485.054	0.51
485.253	0.55
485.452	0.52
485.651	0.61
485.849	0.62
486.048	0.64
486.247	0.62
486.446	0.68
486.645	0.62
486.844	0.66
487.043	0.68
487.241	0.73
487.44	0.7
487.639	0.75
487.838	0.76
488.037	0.75
488.235	0.83
488.434	0.83
488.633	0.74
488.831	0.86
489.03	0.88
489.229	0.89
489.427	0.85
489.626	0.92
489.825	0.92
490.023	0.94
490.222	0.95
490.42	1
490.619	1.02
490.817	0.98
491.016	1
491.214	1.09
491.413	1.08
491.611	1.08
491.81	1.07
492.008	1.14
492.207	1.21
492.405	1.22
492.604	1.15
492.802	1.27
493	1.26
493.199	1.27
493.397	1.29
493.595	1.37
493.794	1.33
493.992	1.43
494.19	1.43
494.388	1.47
494.587	1.44
494.785	1.5
494.983	1.49
495.181	1.56
495.379	1.63
495.578	1.63
495.776	1.7
495.974	1.69
496.172	1.7
496.37	1.78
496.568	1.8
496.766	1.86
496.964	1.93
497.162	1.94
497.36	1.97
497.558	1.99
497.756	2.07
497.954	2.1
498.152	2.16
498.35	2.23
498.548	2.19
498.746	2.23
498.944	2.27
499.142	2.31
499.34	2.39
499.538	2.53
499.736	2.45
499.933	2.58
500.131	2.6
500.329	2.72
500.527	2.71
500.725	2.86
500.922	2.84
501.12	2.93
501.318	3
501.516	3.05
501.713	3.12
501.911	3.1
502.109	3.12
502.306	3.3
502.504	3.22
502.701	3.35
502.899	3.45
503.097	3.6
503.294	3.52
503.492	3.73
503.689	3.77
503.887	3.79
504.084	3.91
504.282	3.93
504.479	3.95
504.677	4.18
504.874	4.16
505.072	4.12
505.269	4.35
505.466	4.47
505.664	4.53
505.861	4.5
506.059	4.67
506.256	4.74
506.453	4.8
506.651	4.96
506.848	5.08
507.045	5.08
507.242	5.13
507.44	5.28
507.637	5.38
507.834	5.38
508.031	5.61
508.229	5.62
508.426	5.56
508.623	5.82
508.82	5.96
509.017	5.94
509.214	6
509.411	6.26
509.608	6.23
509.805	6.44
510.003	6.52
510.2	6.6
510.397	6.8
510.594	6.73
510.791	6.9
510.988	7
511.184	7
511.381	6.93
511.578	7.19
511.775	7.42
511.972	7.38
512.169	7.44
512.366	7.57
512.563	7.84
512.76	7.88
512.956	7.92
513.153	7.97
513.35	7.93
513.547	8.06
513.744	8.26
513.94	8.33
514.137	8.52
514.334	8.47
514.53	8.67
514.727	8.92
514.924	8.86
515.12	8.91
515.317	9.02
515.514	8.93
515.71	8.91
515.907	9.33
516.103	9.31
516.3	9.23
516.497	9.43
516.693	9.42
516.89	9.51
517.086	9.61
517.283	9.69
517.479	9.49
517.676	9.84
517.872	9.85
518.068	9.85
518.265	9.97
518.461	9.86
518.658	10.08
518.854	10.08
519.05	10.17
519.247	10.34
519.443	10.2
519.639	10.4
519.836	10.19
520.032	10.17
520.228	10.38
520.424	10.26
520.621	10.42
520.817	10.49
521.013	10.32
521.209	10.57
521.405	10.49
521.601	10.48
521.798	10.41
521.994	10.29
522.19	10.29
522.386	10.3
522.582	10.4
522.778	10.56
522.974	10.35
523.17	10.36
523.366	10.26
523.562	10.27
523.758	10.2
523.954	10.04
524.15	10.25
524.346	10.2
524.542	10.18
524.738	10.14
524.934	10.18
525.129	10.06
525.325	9.96
525.521	9.85
525.717	10.09
525.913	9.77
526.109	9.79
526.304	9.89
526.5	9.71
526.696	9.71
526.892	9.51
527.087	9.75
527.283	9.53
527.479	9.43
527.674	9.13
527.87	9.28
528.066	9.24
528.261	9.21
528.457	8.96
528.653	9.1
528.848	8.98
529.044	9.03
529.239	8.74
529.435	8.66
529.63	8.55
529.826	8.52
530.021	8.45
530.217	8.42
530.412	8.26
530.608	8.28
530.803	8.18
530.999	8
531.194	7.98
531.389	8.01
531.585	7.88
531.78	7.89
531.975	7.75
532.171	7.65
532.366	7.63
532.561	7.53
532.757	7.39
532.952	7.44
533.147	7.13
533.342	7.23
533.538	7.03
533.733	7.12
533.928	6.77
534.123	6.87
534.318	6.8
534.513	6.72
534.709	6.79
534.904	6.65
535.099	6.66
535.294	6.51
535.489	6.48
535.684	6.34
535.879	6.26
536.074	6.28
536.269	6.23
536.464	6.18
536.659	6.01
536.854	5.96
537.049	5.94
537.244	5.86
537.439	5.79
537.634	5.73
537.828	5.73
538.023	5.59
538.218	5.51
538.413	5.38
538.608	5.41
538.803	5.32
538.997	5.24
539.192	5.24
539.387	5.14
539.582	5.09
539.776	5
539.971	5.06
540.166	4.99
540.36	4.86
540.555	4.91
540.75	4.81
540.944	4.74
541.139	4.66
541.334	4.63
541.528	4.61
541.723	4.6
541.917	4.57
542.112	4.44
542.306	4.34
542.501	4.31
542.695	4.3
542.89	4.21
543.084	4.19
543.279	4.18
543.473	4.12
543.668	4.1
543.862	3.95
544.056	3.96
544.251	3.97
544.445	3.96
544.64	3.87
544.834	3.67
545.028	3.62
545.222	3.7
545.417	3.79
545.611	3.69
545.805	3.59
546	3.46
546.194	3.54
546.388	3.5
546.582	3.44
546.776	3.41
546.97	3.35
547.165	3.32
547.359	3.26
547.553	3.18
547.747	3.2
547.941	3.22
548.135	3.11
548.329	3.12
548.523	3.05
548.717	2.98
548.911	2.95
549.105	2.94
549.299	2.93
549.493	2.92
549.687	2.79
549.881	2.83
550.075	2.74
550.269	2.69
550.463	2.71
550.657	2.67
550.85	2.62
551.044	2.55
551.238	2.59
551.432	2.51
551.626	2.54
551.82	2.46
552.013	2.39
552.207	2.4
552.401	2.4
552.594	2.31
552.788	2.26
552.982	2.26
553.176	2.21
553.369	2.25
553.563	2.2
553.756	2.14
553.95	2.11
554.144	2.09
554.337	2.1
554.531	1.98
554.724	2.03
554.918	1.97
555.111	1.98
555.305	1.92
555.498	1.92
555.692	1.93
555.885	1.88
556.079	1.78
556.272	1.82
556.466	1.8
556.659	1.76
556.852	1.75
557.046	1.72
557.239	1.68
557.432	1.66
557.626	1.62
557.819	1.7
558.012	1.64
558.206	1.63
558.399	1.55
558.592	1.54
558.785	1.48
558.979	1.52
559.172	1.44
559.365	1.49
559.558	1.41
559.751	1.39
559.944	1.43
560.138	1.38
560.331	1.34
560.524	1.35
560.717	1.34
560.91	1.31
561.103	1.3
561.296	1.25
561.489	1.25
561.682	1.25
561.875	1.26
562.068	1.23
562.261	1.2
562.454	1.22
562.647	1.12
562.84	1.15
563.032	1.16
563.225	1.11
563.418	1.12
563.611	1.11
563.804	1.07
563.997	1.02
564.19	0.99
564.382	1.07
564.575	1.03
564.768	1.01
564.961	1.02
565.153	0.97
565.346	0.94
565.539	1
565.731	0.98
565.924	0.94
566.117	0.96
566.309	0.94
566.502	0.88
566.695	0.86
566.887	0.87
567.08	0.86
567.272	0.86
567.465	0.81
567.657	0.84
567.85	0.82
568.042	0.83
568.235	0.85
568.427	0.79
568.62	0.77
568.812	0.78
569.005	0.79
569.197	0.71
569.389	0.75
569.582	0.75
569.774	0.74
569.966	0.66
570.159	0.65
570.351	0.68
570.543	0.67
570.736	0.67
570.928	0.63
571.12	0.61
571.312	0.65
571.505	0.61
571.697	0.67
571.889	0.6
572.081	0.6
572.273	0.59
572.465	0.64
572.658	0.6
572.85	0.61
573.042	0.59
573.234	0.58
573.426	0.61
573.618	0.52
573.81	0.58
574.002	0.58
574.194	0.55
574.386	0.52
574.578	0.43
574.77	0.5
574.962	0.54
575.154	0.49
575.346	0.49
575.538	0.51
575.729	0.48
575.921	0.47
576.113	0.45
576.305	0.49
576.497	0.46
576.689	0.47
576.88	0.43
577.072	0.48
577.264	0.43
577.456	0.44
577.647	0.37
577.839	0.42
578.031	0.45
578.223	0.39
578.414	0.38
578.606	0.42
578.798	0.37
578.989	0.38
579.181	0.36
579.372	0.38
579.564	0.38
579.755	0.38
579.947	0.36
580.139	0.39
580.33	0.28
580.522	0.34
580.713	0.26
580.905	0.36
581.096	0.37
581.287	0.34
581.479	0.35
581.67	0.35
581.862	0.32
582.053	0.3
582.244	0.28
582.436	0.29
582.627	0.29
582.818	0.28
583.01	0.25
583.201	0.33
583.392	0.33
583.583	0.3
583.775	0.29
583.966	0.26
584.157	0.28
584.348	0.29
584.54	0.25
584.731	0.29
584.922	0.26
585.113	0.23
585.304	0.28
585.495	0.29
585.686	0.29
585.877	0.28
586.068	0.26
586.259	0.26
586.45	0.25
586.641	0.22
586.832	0.19
587.023	0.24
587.214	0.23
587.405	0.26
587.596	0.23
587.787	0.28
587.978	0.24
588.169	0.21
588.36	0.21
588.551	0.23
588.742	0.18
588.932	0.23
589.123	0.21
589.314	0.23
589.505	0.24
589.696	0.23
589.886	0.17
590.077	0.17
590.268	0.2
590.458	0.13
590.649	0.16
590.84	0.25
591.03	0.17
591.221	0.16
591.412	0.14
591.602	0.22
591.793	0.22
591.984	0.13
592.174	0.15
592.365	0.27
592.555	0.15
592.746	0.19
592.936	0.17
593.127	0.18
593.317	0.25
593.508	0.17
593.698	0.18
593.889	0.2
594.079	0.17
594.269	0.14
594.46	0.16
594.65	0.15
594.84	0.17
595.031	0.13
595.221	0.15
595.411	0.11
595.602	0.16
595.792	0.16
595.982	0.15
596.172	0.18
596.363	0.16
596.553	0.18
596.743	0.15
596.933	0.12
597.123	0.19
597.314	0.1
597.504	0.13
597.694	0.18
597.884	0.16
598.074	0.11
598.264	0.1
598.454	0.14
598.644	0.16
598.834	0.15
599.024	0.08
599.214	0.13
599.404	0.18
599.594	0.13
599.784	0.11
599.974	0.15
600.164	0.13
600.354	0.09
600.544	0.08
600.734	0.12
600.924	0.14
601.114	0.1
601.303	0.11
601.493	0.12
601.683	0.11
601.873	0.14
602.063	0.07
602.252	0.15
602.442	0.07
602.632	0.1
602.821	0.08
603.011	0.12
603.201	0.08
603.39	0.1
603.58	0.07
603.77	0.13
603.959	0.14
604.149	0.11
604.339	0.07
604.528	0.12
604.718	0.1
604.907	0.11
605.097	0.1
605.286	0.07
605.476	0.1
605.665	0.12
605.855	0.1
606.044	0.17
606.234	0.13
606.423	0.09
606.612	0.07
606.802	0.11
606.991	0.12
607.181	0.11
607.37	0.06
607.559	0.11
607.749	0.07
607.938	0.1
608.127	0.09
608.316	0.08
608.506	0.12
608.695	0.1
608.884	0.07
609.073	0.08
609.263	0.11
609.452	0.12
609.641	0.1
609.83	0.06
610.019	0.08
610.208	0.07
610.397	0.12
610.586	0.12
610.775	0.08
610.965	0.1
611.154	0.07
611.343	0.09
611.532	0.09
611.721	0.07
611.91	0.06
612.099	0.13
612.287	0.08
612.476	0.04
612.665	0.09
612.854	0.05
613.043	0.13
613.232	0.06
613.421	0.05
613.61	0.06
613.798	0.06
613.987	0.1
614.176	0.09
614.365	0.1
614.554	0.1
614.742	0.1
614.931	0.07
615.12	0.14
615.309	0.07
615.497	0.09
615.686	0.04
615.875	0.06
616.063	0.09
616.252	0.05
616.44	0.04
616.629	0.11
616.818	0.09
617.006	0.06
617.195	0.07
617.383	0.11
617.572	0.1
617.76	0.04
617.949	0.04
618.137	0.08
618.326	0.08
618.514	0.1
618.703	0.07
618.891	0.16
619.079	0.03
619.268	0.11
619.456	0.06
619.644	0.09
619.833	0.06
620.021	0.06
620.209	0.05
620.398	0.06
620.586	0.07
620.774	0.11
620.962	0.05
621.151	0.16
621.339	0.08
621.527	0.04
621.715	0.04
621.903	0.03
622.092	0.04
622.28	0.06
622.468	0.06
622.656	0.07
622.844	0.09
623.032	0.05
623.22	0.02
623.408	0.1
623.596	0.07
623.784	0.1
623.972	0.07
624.16	0.03
624.348	0.14
624.536	0.06
624.724	0.01
624.912	0.12
625.1	0.1
625.288	0.03
625.476	0.06
625.664	0.09
625.851	0.06
626.039	0.06
626.227	0.07
626.415	0.07
626.603	0.01
626.79	0.06
626.978	0.05
627.166	0.1
627.354	0.08
627.541	0.03
627.729	-0
627.917	0.11
628.104	0.12
628.292	0.11
628.48	0.08
628.667	0.08
628.855	0.06
629.042	0.08
629.23	0.05
629.418	0.08
629.605	0.07
629.793	0.04
629.98	0.03
630.168	0.05
630.355	0.01
630.543	0.08
630.73	0.05
630.917	0.1
631.105	0.14
631.292	0.06
631.48	0.07
631.667	0.13
631.854	0.08
632.042	0.05
632.229	0.01
632.416	0.03
632.604	0.06
632.791	0.03
632.978	0.08
633.165	0.08
633.353	0.09
633.54	0.09
633.727	-0.01
633.914	0.04
634.101	-0.01
634.289	0.09
634.476	0.04
634.663	0.03
634.85	0.09
635.037	-0.01
635.224	0.02
635.411	0.11
635.598	0.09
635.785	0.03
635.972	0.03
636.159	0.08
636.346	0.02
636.533	0.06
636.72	0.08
636.907	0.04
637.094	0.13
637.281	0.06
637.468	0.07
637.655	0.05
637.842	0.07
638.029	0.07
638.215	0.06
638.402	0.07
638.589	0.01
638.776	0.03
638.963	0.04
639.149	0.13
639.336	0.15
639.523	0.05
639.709	0.07
639.896	0.03
640.083	0.09
640.27	0.05
640.456	-0
640.643	0.09
640.829	0.01
641.016	0.06
641.203	0.03
641.389	0.08
641.576	0.1
641.762	0.05
641.949	0.02
642.135	0.06
642.322	0.07
642.508	-0
642.695	0.05
642.881	0.05
643.068	0.04
643.254	0.04
643.441	0.1
643.627	0.06
643.813	0.04
644	0.09
644.186	0.03
644.372	0.02
644.559	0.1
644.745	0.04
644.931	0.02
645.118	0.03
645.304	0.07
645.49	0.02
645.676	0.06
645.862	0.04
646.049	0.12
646.235	0.07
646.421	0.11
646.607	0.1
646.793	0.04
646.979	0.05
647.165	0.08
647.352	0.07
647.538	0.12
647.724	0.01
647.91	0.07
648.096	0.07
648.282	0.13
648.468	0.04
648.654	0.06
648.84	0.08
649.026	0.06
649.212	0.03
649.397	0.05
649.583	0.02
649.769	0.08
649.955	0.04
650.141	0.09
650.327	0.12
650.513	0.04
650.698	0.06
650.884	-0.01
651.07	0.09
651.256	0.1
651.442	0.05
651.627	0
651.813	0.05
651.999	0.04
652.184	0.07
652.37	0.04
652.556	0.03
652.741	0.1
652.927	-0.01
653.113	0.07
653.298	0.06
653.484	0.05
653.669	-0
653.855	0.06
654.04	0.07
654.226	0.08
654.412	0.05
654.597	0.04
654.782	0.05
654.968	0.09
655.153	0.04
655.339	0.04
655.524	0
655.71	0.11
655.895	0.03
656.08	0.03
656.266	0.11
656.451	0.08
656.636	0.03
656.822	0.07
657.007	0.01
657.192	0.03
657.378	0.02
657.563	0.05
657.748	0.08
657.933	0.08
658.118	0.02
658.304	0.05
658.489	0.1
658.674	0.09
658.859	0.01
659.044	0.06
659.229	0.07
659.414	0.04
659.599	0.05
659.785	0.02
659.97	0.07
660.155	0.1
660.34	0.06
660.525	0.03
660.71	0.04
660.895	0.09
661.08	0.01
661.264	0.02
661.449	0.13
661.634	0.11
661.819	0.04
662.004	0.08
662.189	0.02
662.374	0.03
662.559	0.03
662.743	-0.01
662.928	0.02
663.113	0.05
663.298	-0.02
663.483	0.02
663.667	0.1
663.852	0.03
664.037	0.09
664.221	0.03
664.406	0.1
664.591	0.08
664.775	0.08
664.96	0.06
665.145	0.05
665.329	0.07
665.514	-0.01
665.698	0.02
665.883	-0
666.068	0.17
666.252	0.06
666.437	0.04
666.621	0.08
666.806	0.1
666.99	0.02
667.174	0.01
667.359	0.1
667.543	0.03
667.728	0.05
667.912	-0.01
668.096	0.07
668.281	0.02
668.465	0.05
668.649	0.05
668.834	0.02
669.018	0.07
669.202	0.05
669.387	0.05
669.571	0.08
669.755	0.01
669.939	0.06
670.124	0.06
670.308	0.13
670.492	0.1
670.676	0.06
670.86	0.08
671.044	0.01
671.228	0.12
671.413	0.02
671.597	0.03
671.781	0.05
671.965	0.11
672.149	0.05
672.333	0.07
672.517	0.01
672.701	0.08
672.885	0.08
673.069	0.01
673.253	0.1
673.437	0.06
673.621	0.05
673.804	0.01
673.988	0.06
674.172	0.11
674.356	0.03
674.54	0.02
674.724	0.14
674.908	0.08
675.091	0.11
675.275	0.1
675.459	0.14
675.643	0.11
675.826	0.07
676.01	0.06
676.194	0.08
676.377	0.11
676.561	0.1
676.745	0.06
676.928	0.09
677.112	0.13
677.296	0.05
677.479	0.06
677.663	0.08
677.846	0.11
678.03	0.1
678.213	-0
678.397	0.09
678.58	0.06
678.764	0.09
678.947	0.08
679.131	-0.01
679.314	0.14
679.498	0.05
679.681	0.09
679.865	0.08
680.048	0.05
680.231	0.09
680.415	0.06
680.598	0.05
680.781	0.05
680.965	0.05
681.148	0.07
681.331	0.04
681.514	0.06
681.698	0.05
681.881	0.05
682.064	0.06
682.247	0.07
682.43	0.04
682.614	0.12
682.797	0.1
682.98	0.09
683.163	0.02
683.346	0.11
683.529	0.09
683.712	0.04
683.895	0.1
684.078	0
684.261	0.06
684.444	0.07
684.627	0.03
684.81	0.05
684.993	0.03
685.176	0.11
685.359	0
685.542	0.01
685.725	0.12
685.908	0.13
686.091	0.06
686.274	0.13
686.457	0.09
686.639	0.06
686.822	0.11
687.005	0.05
687.188	0.13
687.371	0.14
687.553	0.08
687.736	0.07
687.919	0.14
688.102	0.17
688.284	0.07
688.467	0.04
688.65	0.06
688.832	0.03
689.015	0.05
689.197	0.04
689.38	0.18
689.563	0.12
689.745	0.06
689.928	0.03
690.11	0.09
690.293	0.1
690.475	-0
690.658	0.13
690.84	0.05
691.023	0.05
691.205	0.03
691.388	0.07
691.57	0.08
691.752	0.12
691.935	0.02
692.117	0.04
692.3	0.11
692.482	0.07
692.664	0.04
692.847	0.12
693.029	0.17
693.211	0.12
693.393	0.04
693.576	0.11
693.758	0.09
693.94	0.03
694.122	0.07
694.304	0.06
694.487	0.03
694.669	0.12
694.851	0.02
695.033	0.15
695.215	0.02
695.397	0.03
695.579	0.05
695.761	0.04
695.943	-0.03
696.125	0.12
696.308	0.08
696.49	-0.02
696.671	0.18
696.853	0.12
697.035	0.17
697.217	0.06
697.399	0.14
697.581	0.01
697.763	0.09
697.945	0.02
698.127	0.13
698.309	0.14
698.491	0.09
698.672	0.15
698.854	0.12
699.036	0.13
699.218	0.06
699.399	0.18
699.581	0.13
699.763	0.14
699.945	0.01
700.126	0.03
700.308	0.12
700.49	0.07
700.671	-0
700.853	0.01
701.035	0.03
701.216	0.03
701.398	0.03
701.579	0.07
701.761	0.13
701.943	0.05
702.124	0.03
702.306	0.06
702.487	0.2
702.669	0.07
702.85	0.02
703.031	0.04
703.213	0.18
703.394	0.12
703.576	0.05
703.757	0.17
703.938	0.15
704.12	0.27
704.301	0.05
704.483	0.04
704.664	0.07
704.845	0.18
705.026	0.07
705.208	0.1
705.389	0.12
705.57	0.09
705.751	0.04
705.933	0.11
706.114	0.18
706.295	0.04
706.476	-0.02
706.657	0.15
706.838	0.12
707.02	0.08
707.201	0.02
707.382	0.03
707.563	0.09
707.744	0.07
707.925	-0
708.106	0.05
708.287	0.08
708.468	0.21
708.649	0.05
708.83	0.11
709.011	0.07
709.192	0.14
709.373	-0.02
709.554	0.03
709.734	0.12
709.915	0.12
710.096	0.09
710.277	0.01
710.458	0.05
710.639	0.09
710.819	-0.02
711	0.06
711.181	0.12
711.362	0.13
711.542	0.09
711.723	0.1
711.904	0.07
712.085	0.15
712.265	0.09
712.446	0.01
712.627	0.03
712.807	0.04
712.988	0.09
713.168	0.03
713.349	0.06
713.53	-0.06
713.71	0.02
713.891	0.02
714.071	0.14
714.252	0.03
714.432	0.06
714.613	-0.03
714.793	0.02
714.974	0.16
715.154	0.15
715.334	0.18
715.515	0.14
715.695	0.07
715.876	0.04
716.056	0.07
716.236	0.02
716.417	0.08
716.597	0.03
716.777	0.2
716.957	0.08
717.138	0.04
717.318	0.13
717.498	-0.01
717.678	0.12
717.859	0.17
718.039	0.04
718.219	0.11
718.399	0.15
718.579	-0.01
718.759	-0.04
718.939	0.11
719.12	0.1
719.3	0.07
719.48	-0.03
719.66	-0.03
719.84	0.14
720.02	0.08
720.2	0.04
720.38	0.12
720.56	0.14
720.74	0.03
720.92	0.09
721.1	0.22
721.279	0.11
721.459	0.13
721.639	-0.03
721.819	0.06
721.999	0.07
722.179	0.16
722.359	-0.03
722.538	0.09
722.718	0.12
722.898	0.04
723.078	0.04
723.257	-0
723.437	0.18
723.617	0.13
723.797	0.04
723.976	0.08
724.156	0.15
724.336	0.18
724.515	0.19
724.695	-0.02
724.874	0.12
725.054	0.06
725.234	-0.01
725.413	0.09
725.593	0.03
725.772	0.08
725.952	0.02
726.131	0.15
726.311	0.03
726.49	0.07
726.67	0.01
726.849	0.02
727.028	0.13
727.208	0.1
727.387	0.15
727.567	-0.05
727.746	0.02
727.925	0.06
728.105	0
728.284	0.04
728.463	0.06
728.643	0.12
728.822	0
729.001	0.02
729.18	0.19
729.359	0.16
729.539	0.09
729.718	0.11
729.897	0.15
730.076	0.1
730.255	-0
730.434	0.03
730.614	0.18
730.793	0.16
730.972	0.07
731.151	0.12
731.33	0.14
731.509	0.19
731.688	0.05
731.867	0.1
732.046	0.01
732.225	0.23
732.404	0
732.583	0.06
732.762	0.02
732.941	0.13
733.12	0.13
733.298	0.03
733.477	0.1
733.656	0.11
733.835	-0.04
734.014	0.13
734.193	0.11
734.371	0.18
734.55	0.07
734.729	-0.06
734.908	0.15
735.086	0.2
735.265	0.1
735.444	0.02
735.623	0.02
735.801	-0.04
735.98	0.08
736.159	0.06
736.337	0.15
736.516	0.21
736.694	0.14
736.873	0.06
737.052	0.22
737.23	0.21
737.409	-0.02
737.587	0.2
737.766	-0.04
737.944	0.1
738.123	0.15
738.301	0.13
738.479	0.07
738.658	0.17
738.836	-0.02
739.015	0.05
739.193	0.14
739.371	0.01
739.55	-0
739.728	-0.06
739.906	0.16
740.085	0.24
740.263	0.01
740.441	-0.12
740.62	0.24
740.798	0.2
740.976	-0.1
741.154	0.04
741.332	0.21
741.511	0.01
741.689	0.04
741.867	0.2
742.045	0.05
742.223	0.2
742.401	0.08
742.579	0.09
742.757	0.05
742.935	-0.06
743.114	0.1
743.292	0
743.47	0.09
743.648	0.19
743.826	0.01
744.004	0.13
744.181	0.23
744.359	0.12
744.537	0.05
744.715	0.01
744.893	-0.04
745.071	0.01
745.249	-0.03
745.427	0.07
745.605	0.21
745.782	0.19
745.96	0.15
746.138	0.18
746.316	0.18
746.493	0.1
746.671	0.12
746.849	0.07
747.027	0.2
747.204	-0.02
747.382	0.09
747.56	-0.04
747.737	0.09
747.915	-0.02
748.093	0.14
748.27	0.03
748.448	0.13
748.625	-0.02
748.803	0
748.98	0.02
749.158	0.06
749.335	0.07
749.513	0.03
749.69	0.06
749.868	0.01
750.045	0.09
750.223	0.06
750.4	-0.07
750.578	0.26
750.755	0.14
750.932	-0
751.11	0.16
751.287	-0.04
751.464	0.16
751.642	-0.02
751.819	0.19
751.996	-0.01
752.173	-0.03
752.351	0.06
752.528	0.03
752.705	-0.02
752.882	0.02
753.06	0.05
753.237	0.18
753.414	0.11
753.591	0.21
753.768	0.08
753.945	0.02
754.122	0.09
754.299	0.12
754.476	0.09
754.654	0.08
754.831	0.08
755.008	0.1
755.185	0.1
755.362	-0.03
755.539	0.09
755.716	-0.01
755.892	0.1
756.069	0.01
756.246	-0.01
756.423	0.05
756.6	0.24
756.777	0.08
756.954	0.21
757.131	0.1
757.307	0.05
757.484	-0.05
757.661	0.11
757.838	0.1
758.015	-0.05
758.191	0.2
758.368	0.16
758.545	0.26
758.721	0.19
758.898	-0.05
759.075	0.19
759.251	0.21
759.428	0.22
759.605	-0.08
759.781	0.06
759.958	0.11
760.134	0.14
760.311	0.03
760.488	0.21
760.664	0.31
760.841	0.17
761.017	-0.09
761.194	0.09
761.37	0.18
761.547	0.05
761.723	0.11
761.899	0.23
762.076	-0.07
762.252	-0.07
762.429	0.01
762.605	0.15
762.781	0.02
762.958	0.16
763.134	0.07
763.31	0.07
763.486	0.24
763.663	-0.05
763.839	0.11
764.015	-0.06
764.191	-0.07
764.368	0.15
764.544	0.04
764.72	0.01
764.896	0.05
765.072	0.11
765.248	0.22
765.425	0.02
765.601	0.11
765.777	0.22
765.953	-0.12
766.129	-0.06
766.305	0.05
766.481	0.23
766.657	0.09
766.833	0.34
767.009	0.07
767.185	0.08
767.361	-0
767.537	0.09
767.713	0.02
767.889	0.22
768.065	0.06
768.24	0.11
768.416	0.22
768.592	0
768.768	0.1
768.944	-0.05
769.12	0.11
769.295	0.02
769.471	0.04
769.647	0.1
769.823	0.11
769.998	0.07
770.174	0.02
770.35	0.43
770.525	0.36
770.701	0.13
770.877	0.02
771.052	0.03
771.228	0.23
771.403	0.2
771.579	0.15
771.755	0.42
771.93	-0.01
772.106	0.01
772.281	-0.1
772.457	0.09
772.632	0.14
772.808	-0.08
772.983	-0.02
773.159	-0
773.334	0.18
773.509	0.06
773.685	-0.11
773.86	0.54
774.036	0.37
774.211	0.09
774.386	0.02
774.562	0.06
774.737	0.18
774.912	-0.07
775.087	0.15
775.263	0.11
775.438	-0
775.613	0.03
775.788	-0.02
775.964	0.31
776.139	0.35
776.314	0.03
776.489	-0.05
776.664	0.15
776.839	-0.13
777.014	0.25
777.19	0.26
777.365	0.32
777.54	0.31
777.715	0.03
777.89	0.13
778.065	-0.12
778.24	0.16
778.415	0.22
778.59	-0.17
778.765	-0
778.94	0.15
779.115	0
779.289	0.17
779.464	0.12
779.639	0.1
779.814	-0.05
779.989	-0.13
780.164	0.11
780.339	0.19
780.513	-0.16
780.688	-0
780.863	0.08
781.038	0.21
781.212	-0.1
781.387	0.13
781.562	0.3
781.737	-0.04
781.911	0.27
782.086	-0.05
782.261	0.06
782.435	0.42
782.61	0.07
782.784	0.17
782.959	0.26
783.134	-0.02
783.308	-0.01
783.483	0.02
783.657	0.35
783.832	0.35
784.006	-0.13
784.181	0.14
784.355	0.18
784.53	-0.03
784.704	-0.04
784.878	0.39
785.053	0.08
785.227	0.11
785.402	0.38
785.576	-0.25
785.75	0.1
785.925	0.05
786.099	0.04
786.273	0.08
786.448	0.28
786.622	0.18
786.796	0.15
786.97	-0.04
787.145	0.64
787.319	-0.18
787.493	0.15
787.667	-0.42
787.841	0.23
788.015	0.24
788.19	-0
788.364	0.16
788.538	0.22
788.712	0.4
788.886	0.21
789.06	0.34
789.234	0.35
789.408	-0.14
789.582	0.05
789.756	0.02
789.93	-0.14
790.104	0.18
790.278	0.18
790.452	-0.11
790.626	0.13
790.8	0.21
790.973	0.01
791.147	0.23
791.321	0.3
791.495	0.28
791.669	0.2
791.843	0.15
792.016	0.14
792.19	0.65
792.364	0.02
792.538	0.62
792.711	0.28
792.885	0.19
793.059	-0.01
793.233	-0.26
793.406	0.43
793.58	0.27
793.754	0.04
793.927	0.19
794.101	0.48
794.274	0.19
794.448	0.24
794.622	-0.01
794.795	0.49
794.969	0.07
795.142	0.34
795.316	-0.05
795.489	0.04
795.663	0.5
795.836	0.1
796.009	-0.14
796.183	0.33
796.356	0.4
796.53	0.17
796.703	0.03
796.876	0.71
797.05	0.06
797.223	-0.04
797.396	0.16
797.57	0.31
797.743	0.35
797.916	0.26
798.09	0.04
798.263	0.21
798.436	0.14
798.609	-0.24
798.782	-0.01
798.956	0.05
799.129	0.07
799.302	0.04
799.475	-0.04
799.648	-0.23
799.821	0.03
799.994	0.13
800.167	-0.19
800.34	0.23
800.514	0.31
800.687	-0.04
800.86	0.24
801.033	0.2
801.206	0.3
801.379	-0.21
801.551	0.46
801.724	0.46
801.897	0.63
802.07	0.18
802.243	-0.32
802.416	0.22
802.589	0.01
802.762	-0.13
802.935	0.07
803.107	0.49
803.28	0.23
803.453	0.15
803.626	-0.12
803.798	-0.11
803.971	-0.08
804.144	0.2
804.317	0.5
804.489	0.63
804.662	0.19
804.835	0.14
805.007	-0.34
805.18	0.47
805.353	0.25
805.525	0.03
805.698	0.04
805.87	0.27
806.043	0.22
806.215	-0.13
806.388	-0.03
806.56	0.24
806.733	0.36
806.905	0.16
807.078	0.17
807.25	-0.01
807.423	0.52
807.595	0.04
807.768	0.05
807.94	0.54
808.112	0.62
808.285	0.24
808.457	-0.41
808.629	0.25
808.802	0.39
808.974	0.16
809.146	0.06
809.318	0.06
809.491	0.21
809.663	0.51
809.835	-0.13
810.007	0.48
810.18	0.12
810.352	-0.31
810.524	-0.09
810.696	0.14
810.868	0.25
811.04	0.22
811.212	-0.15
811.384	0.57
811.556	0.32
811.728	0.29
811.901	0.73
812.073	0.05
812.245	0.58
812.417	0.11
812.589	-0.47
812.76	0.1
812.932	0.34
813.104	0.68
813.276	0.01
813.448	0.65
813.62	0.36
813.792	0.13
813.964	0.21
814.136	0.42
814.307	-0.11
814.479	0.08
814.651	-0.02
814.823	1.04
814.995	-0.01
815.166	0.15
815.338	-0.36
815.51	-0.24
815.681	0.94
815.853	0.25
816.025	0.25
816.196	0.85
816.368	0.73
816.54	-0.79
816.711	0.09
816.883	0.44
817.054	0.86
817.226	-0.32
817.398	0.33
817.569	0.11
817.741	-0.11
817.912	0.4
818.084	-0.12
818.255	0.02
818.426	0.02
818.598	0.12
818.769	0.14
818.941	0.11
819.112	0.68
819.283	0.46
819.455	-0.18
819.626	0.03
819.798	0.22
819.969	0.24
820.14	0.17
820.311	0.07
820.483	0.05
820.654	0.42
820.825	0.16
820.996	0.21
821.168	0.19
821.339	-0.01
821.51	-0.48
821.681	-0.21
821.852	-0.08
822.023	-0.34
822.195	-0.3
822.366	0.31
822.537	0.19
822.708	-0.01
822.879	-0.33
823.05	0.57
823.221	0.16
823.392	0.44
823.563	0.46
823.734	0.26
823.905	0.05
824.076	-0.19
824.247	-0.17
824.418	-0.26
824.589	1.48
824.759	0.14
824.93	0.25
825.101	-0.41
825.272	0.35
825.443	0.23
825.614	0.03
825.784	-0.68
825.955	0.63
826.126	0.66
826.297	0.16
826.467	0.98
826.638	1.42
826.809	-0.63
826.98	0.26
827.15	0.12
827.321	0.15
827.492	0.99
827.662	-0.04
827.833	0.88
828.003	0.46
828.174	0.19
828.345	-0.4
828.515	0.3
828.686	0.67
828.856	-0.02
829.027	0.13
829.197	0.51
829.368	-0.01
829.538	-0
829.709	-0.01
829.879	0.41
830.049	0.3
830.22	0.01
830.39	-0.09
830.56	0.5
830.731	-0.05
830.901	-0.09
831.072	0.2
831.242	-0.05
831.412	0.14
831.582	0.3
831.753	-0.93
831.923	0.45
832.093	0.32
832.263	-0.28
832.434	-0.6
832.604	-0.39
832.774	0.57
832.944	-0.09
833.114	-0.32
833.284	0.17
833.454	-0.49
833.624	-0.47
833.795	-0.07
833.965	0.96
834.135	0.75
834.305	-0.37
834.475	-0.43
834.645	0.55
834.815	-0.41
834.985	-0.57
835.155	-0.2
835.325	0.4
835.494	0.51
835.664	-0.03
835.834	-0.57
836.004	0.45
836.174	0.09
836.344	0.39
836.514	-0.56
836.684	0.23
836.853	0.62
837.023	0.56
837.193	0.38
837.363	0.84
837.532	1.1
837.702	0.02
837.872	0.41
838.041	0.67
838.211	1.19
838.381	0.11
838.55	0.25
838.72	1.93
838.89	1.17
839.059	0.6
839.229	-0.33
839.398	1.2
839.568	0.23
839.738	0.44
839.907	0.7
840.077	0.62
840.246	-0.26
840.416	0.31
840.585	-0.66
840.755	1.42
840.924	0.95
841.093	-0.06
841.263	-0.27
841.432	0.18
841.602	-0.65
841.771	0.02
841.94	0.86
842.11	1.95
842.279	1.04
842.448	-0.08
842.617	-1.02
842.787	0.92
842.956	-0.6
843.125	0.55
843.294	1.09
843.464	1.44
843.633	0.35
843.802	-0.57
843.971	-0.22
844.14	1.12
844.309	0.95
844.479	-0.07
844.648	-0.67
844.817	-0.15
844.986	0.09
845.155	-0.15
845.324	-0.4
845.493	0.33
845.662	-1.02
845.831	0.63
846	0.15
846.169	0.13
846.338	1.42
846.507	0.5
846.676	0.8
846.844	0.43
847.013	1.54
847.182	-0.04
847.351	-0.01
847.52	0.64
847.689	1.14
847.858	0.13
848.026	-0.18
848.195	0.09
848.364	0.12
848.533	-0.59
848.701	-0.13
848.87	0.63
849.039	0.85
849.207	1.57
849.376	0.32
849.545	2.13
849.713	0.02
849.882	0.17
850.051	1.03
850.219	0.43
850.388	1.55
850.556	-0.84
850.725	0.11
850.893	0.58
851.062	0.82
851.23	0.98
851.399	-0.98
851.567	0.15
851.736	-0.31
851.904	-0.53
852.073	1.06
852.241	1.52
852.41	-0.24
852.578	0.79
852.746	-0.21
852.915	0.64
853.083	0.09
853.251	-0.29
853.42	0.3
853.588	0.85
853.756	0.59
853.924	0.75
854.093	0.17
854.261	-0.86
854.429	-0.94
854.597	1.11
854.765	-0.46
854.934	1.06
855.102	1.41
855.27	0.85
855.438	0.81
855.606	1.78
855.774	1.11
855.942	-2.29
856.11	-1.18
856.278	0.58
856.446	0.53
856.614	0.92
856.782	-0.07
856.95	2.04
857.118	2.12
857.286	-0.15
857.454	0.22
857.622	1.69
857.79	0.68
857.958	-1
858.126	0.21
858.294	-2.11
858.462	1.09
858.629	0.04
858.797	-0.75
858.965	0.83
859.133	1.74
859.301	-0.23
859.468	1.56
859.636	-0.72
859.804	2.97
859.971	0.55
860.139	-0.38
860.307	0.79
860.474	-0.89
860.642	-0.25
860.81	-0.64
860.977	0.42
861.145	1.08
861.313	-0.18
861.48	1.15
861.648	0.79
861.815	-1.04
861.983	-1.47
862.15	-0.21
862.318	0.25
862.485	3.01
862.653	-0.28
862.82	-0.89
862.988	2.52
863.155	2.53
863.322	0.23
863.49	-0.54
863.657	0.79
863.824	2.14
863.992	0.8
864.159	0.23
864.326	1.19
864.494	-0.89
864.661	2.61
864.828	0.75
864.996	1.52
865.163	3
865.33	-0.9
865.497	-0.82
865.664	-0.53
865.832	-1.97
865.999	0.1
866.166	-0.82
866.333	0.95
866.5	0.36
866.667	-0.44
866.834	0.7
867.001	2.07
867.168	-1.68
867.335	0.59
867.502	-0.59
867.669	1.05
867.836	2.67
868.003	0.6
868.17	1.32
868.337	-0.29
868.504	2.48
868.671	-1.15
868.838	0.29
869.005	1.45
869.172	0.64
869.339	2.33
869.505	1.64
869.672	0.52
869.839	1.96
870.006	1.49
870.173	-2.59
870.339	1.37
870.506	1.96
870.673	0.12
870.84	1.12
871.006	1.58
871.173	-0.67
871.34	0.05
871.506	-1.59
871.673	2.89
871.839	-0.44
872.006	-0.3
872.173	-0.38
872.339	-0.3
872.506	-0.02
872.672	0.96
872.839	-2.17
873.005	0.81
873.172	4.25
873.338	1.08
873.505	1.46
873.671	2.35
873.838	1.52
874.004	-0.56
874.171	-0.86
874.337	1.56
874.503	1.9
874.67	0.74
874.836	0.26
875.002	2.64
875.169	2.43
875.335	0.78
875.501	-0.86
875.668	2.36
875.834	0.67
876	-0.93
876.166	0.82
876.332	1.54
876.499	2.65
876.665	-0.6
876.831	1.2
876.997	4.43
877.163	1.7
877.329	-0.77
877.495	2.49
877.662	1.48
877.828	1.04
877.994	-0.3
878.16	-2.24
878.326	-1.74
878.492	0.2
878.658	-2.1
878.824	2.19
878.99	2.43
879.156	-0.36
879.322	4.16
879.487	0.45
879.653	0.52
879.819	0.5
879.985	0.24
880.151	1.15
880.317	2.05
880.483	1.36
880.648	1.68
880.814	-1.63
880.98	0.73
881.146	-2.05
881.312	-0.25
881.477	0.26
881.643	0.02
881.809	1.9
881.974	2.97
882.14	-1.51
882.306	0.05
882.471	2.73
882.637	-1.34
882.803	2.08
882.968	3.44
883.134	2.65
883.299	0.52
883.465	1.51
883.63	1.56
883.796	1.58
883.961	1.01
884.127	-0.17
884.292	-2.81
884.458	-1.44
884.623	-1.44
