Data from Apollo_Calib_20240827__AbsoluteIrradiance__286__03-55-01-712.txt Node

Date: Wed Aug 28 03:55:01 BST 2024
User: biology
Spectrometer: FLMT08252
Trigger mode: 0
Integration Time (sec): 5.000000E-1
Scans to average: 5
Electric dark correction enabled: true
Nonlinearity correction enabled: false
Boxcar width: 0
XAxis mode: Wavelengths
Number of Pixels in Spectrum: 3648
>>>>>Begin Spectral Data<<<<<
179.588	-0
179.809	-0
180.03	-0
180.251	-0
180.473	-0
180.694	0
180.915	0
181.136	-0
181.357	0
181.578	-0
181.799	-0
182.02	-0
182.241	-0
182.462	-0
182.683	0
182.904	-0
183.125	-0
183.346	0
183.567	0
183.788	-0
184.009	-0
184.23	0
184.451	0
184.672	-0
184.892	-0
185.113	0
185.334	0
185.555	-0
185.776	-0
185.996	0
186.217	0
186.438	0
186.659	-0
186.879	0
187.1	-0
187.321	-0
187.541	0
187.762	0
187.983	0
188.203	0
188.424	0
188.644	0
188.865	0
189.086	0
189.306	-0
189.527	0
189.747	0
189.968	0
190.188	0
190.409	0
190.629	0
190.849	0
191.07	0
191.29	0
191.511	0
191.731	-0
191.951	-0
192.172	0
192.392	0
192.612	-0
192.833	0
193.053	0
193.273	0
193.493	0
193.714	-0
193.934	0
194.154	0
194.374	0
194.594	0
194.815	0
195.035	0
195.255	0
195.475	-0
195.695	0
195.915	0
196.135	0
196.355	0
196.575	0
196.795	0
197.015	-0
197.235	0
197.455	0
197.675	0
197.895	-0
198.115	-0
198.335	0
198.555	0
198.775	0
198.995	0
199.214	0
199.434	0
199.654	0
199.874	0
200.094	1.4
200.313	0.4
200.533	0.02
200.753	-0.13
200.973	1.27
201.192	0.98
201.412	-0.06
201.632	-0.29
201.851	1.71
202.071	0.12
202.291	0.2
202.51	-0.67
202.73	0.95
202.95	0.28
203.169	0.12
203.389	0.51
203.608	0.46
203.828	0.42
204.047	0.04
204.267	1.09
204.486	0.31
204.706	0.53
204.925	0.56
205.145	0.05
205.364	0.71
205.583	1.09
205.803	-0.28
206.022	-0.1
206.242	0.09
206.461	0.3
206.68	-0.01
206.9	0.38
207.119	1.03
207.338	0.8
207.557	-0.05
207.777	0.1
207.996	-0.06
208.215	0.55
208.434	0.03
208.654	-0
208.873	0.33
209.092	1.1
209.311	-0.08
209.53	0.04
209.749	0.25
209.968	0.02
210.187	0.09
210.407	-0.38
210.626	0.13
210.845	0.5
211.064	0.14
211.283	-0.13
211.502	0.64
211.721	0.16
211.94	0.16
212.159	0.62
212.377	0.58
212.596	0.66
212.815	0.33
213.034	0.19
213.253	0.39
213.472	0.22
213.691	-0.08
213.91	0.18
214.128	0.03
214.347	0.56
214.566	-0.25
214.785	-0.18
215.003	0.24
215.222	0.24
215.441	0.14
215.66	-0.2
215.878	0.15
216.097	0.38
216.316	0.09
216.534	0.01
216.753	0.13
216.972	0.17
217.19	0.1
217.409	0.01
217.627	0.18
217.846	0.05
218.064	0.38
218.283	0
218.501	0.59
218.72	0.5
218.938	-0.29
219.157	-0
219.375	0.27
219.594	0.36
219.812	-0.03
220.031	-0.02
220.249	0.53
220.467	0.53
220.686	-0.06
220.904	-0.09
221.122	0.07
221.341	0.57
221.559	0.06
221.777	-0.2
221.995	0.19
222.214	0.31
222.432	0.02
222.65	0.12
222.868	0.24
223.086	0.24
223.305	0.34
223.523	0.07
223.741	0.44
223.959	0.09
224.177	-0.25
224.395	-0.06
224.613	0.2
224.831	0.37
225.049	0.11
225.267	-0.07
225.485	0.16
225.703	0.12
225.921	0.1
226.139	0.09
226.357	0.23
226.575	0.28
226.793	0.16
227.011	0.76
227.229	0.14
227.447	0.29
227.665	0.03
227.883	-0.06
228.1	0.16
228.318	0.18
228.536	-0.09
228.754	0.19
228.972	0.17
229.189	0.22
229.407	0.01
229.625	0.05
229.843	0.41
230.06	0.18
230.278	0.06
230.496	0.11
230.713	0.13
230.931	0.33
231.149	0.07
231.366	-0.16
231.584	0.1
231.801	0.48
232.019	-0.03
232.236	-0.06
232.454	-0.07
232.671	0.28
232.889	0.21
233.106	-0
233.324	0.11
233.541	-0.01
233.759	0.08
233.976	0.01
234.194	0.14
234.411	0.06
234.628	-0.03
234.846	0.03
235.063	0.14
235.28	0.15
235.498	0.09
235.715	0.01
235.932	0.13
236.149	0.03
236.367	0
236.584	0.11
236.801	0.07
237.018	0.16
237.236	0.04
237.453	-0.08
237.67	0.3
237.887	0.12
238.104	0.07
238.321	-0.04
238.538	0.05
238.755	0.21
238.973	-0.05
239.19	0.11
239.407	0.12
239.624	0.17
239.841	-0.08
240.058	0
240.275	0.07
240.492	0.15
240.709	0.1
240.925	-0.02
241.142	0.02
241.359	0.01
241.576	-0.04
241.793	-0
242.01	0.12
242.227	0.2
242.444	0.25
242.66	0.13
242.877	0.13
243.094	0.05
243.311	0.15
243.527	0.09
243.744	0.09
243.961	0.21
244.178	-0.11
244.394	0.05
244.611	0.23
244.828	0.29
245.044	0
245.261	0.11
245.477	0.13
245.694	0.08
245.911	-0
246.127	0.18
246.344	0.17
246.56	0.18
246.777	0.07
246.993	0.18
247.21	0.15
247.426	0.13
247.643	0.01
247.859	-0.1
248.076	0.06
248.292	0.22
248.508	0.05
248.725	0.08
248.941	0.14
249.157	0.21
249.374	-0.06
249.59	0.04
249.806	0.13
250.023	0.11
250.239	0.02
250.455	0.05
250.671	0.08
250.888	0.16
251.104	0.15
251.32	0.07
251.536	0.11
251.752	0.04
251.969	0.1
252.185	0.05
252.401	0.22
252.617	0.16
252.833	0.04
253.049	0.1
253.265	0.15
253.481	0.08
253.697	0.06
253.913	-0.05
254.129	0.09
254.345	0.14
254.561	0.03
254.777	0.1
254.993	0.15
255.209	-0
255.425	-0.03
255.641	-0.04
255.857	0.14
256.073	0.14
256.288	-0.02
256.504	-0.03
256.72	0.17
256.936	0.17
257.152	0.07
257.367	0.04
257.583	0.09
257.799	0.16
258.015	0.05
258.23	0.06
258.446	0.2
258.662	0.05
258.877	-0.03
259.093	-0.05
259.309	0.01
259.524	0.16
259.74	0
259.955	0.03
260.171	0.18
260.387	0.08
260.602	0.07
260.818	0.02
261.033	-0.03
261.249	0.07
261.464	0.1
261.68	-0.02
261.895	0.06
262.11	0.15
262.326	0.02
262.541	-0.05
262.757	0.15
262.972	0.08
263.187	0.06
263.403	0.06
263.618	0.13
263.833	0.01
264.049	0.05
264.264	0.02
264.479	0.18
264.694	0.14
264.91	0.04
265.125	0.04
265.34	0.15
265.555	0.21
265.77	0.14
265.986	0.04
266.201	0.14
266.416	0.18
266.631	0.07
266.846	0.06
267.061	0.11
267.276	0.14
267.491	-0.11
267.706	0.12
267.921	0.15
268.136	0.11
268.351	0.08
268.566	-0
268.781	0.19
268.996	0.13
269.211	0.05
269.426	-0.02
269.641	0.05
269.856	0.12
270.071	-0.01
270.285	0.02
270.5	0.02
270.715	0.15
270.93	0.11
271.145	0.03
271.359	0.13
271.574	0.06
271.789	0.09
272.004	0.07
272.218	0.03
272.433	0.11
272.648	0.02
272.862	0.1
273.077	0.12
273.292	0.04
273.506	0.02
273.721	0.04
273.936	0.12
274.15	0.12
274.365	0.06
274.579	0.12
274.794	0.11
275.008	0.06
275.223	-0.08
275.437	0.05
275.652	0.15
275.866	0.09
276.081	0.07
276.295	0.16
276.509	0.08
276.724	0.04
276.938	0.01
277.153	0.09
277.367	0.01
277.581	-0.03
277.796	0.04
278.01	0.03
278.224	0.1
278.438	0.12
278.653	-0.06
278.867	0.03
279.081	0.16
279.295	0.03
279.51	0.09
279.724	-0.01
279.938	0.09
280.152	0.04
280.366	0.03
280.58	0.04
280.794	0.14
281.008	0.1
281.222	0.13
281.437	0.17
281.651	0.06
281.865	0.16
282.079	-0.01
282.293	-0.02
282.507	0.02
282.721	0.03
282.935	0.06
283.148	-0.04
283.362	0
283.576	0.06
283.79	0.09
284.004	0.01
284.218	0.18
284.432	0.06
284.646	0.04
284.859	0.03
285.073	0.08
285.287	0.05
285.501	0.04
285.714	0.05
285.928	0.07
286.142	0.09
286.356	0.02
286.569	-0.01
286.783	0.18
286.997	0.09
287.21	0.07
287.424	0.03
287.637	0.08
287.851	0.1
288.065	0.08
288.278	0.03
288.492	0.03
288.705	0.07
288.919	0.12
289.132	-0.02
289.346	0.12
289.559	-0.02
289.773	-0.01
289.986	0.06
290.2	0.05
290.413	0.16
290.626	-0
290.84	0.01
291.053	0.06
291.267	0.11
291.48	0.1
291.693	0.01
291.906	0.04
292.12	0.03
292.333	0.01
292.546	0.08
292.76	0.16
292.973	0.04
293.186	0.12
293.399	-0.02
293.612	0.13
293.826	0.08
294.039	0.09
294.252	-0.02
294.465	0.09
294.678	0.11
294.891	0.06
295.104	-0.02
295.317	0.05
295.53	0.08
295.743	0.06
295.956	0.05
296.169	0.12
296.382	0.09
296.595	0.02
296.808	-0.02
297.021	0.09
297.234	0.1
297.447	0.05
297.66	0.05
297.873	0.17
298.086	0.12
298.299	0.01
298.511	0
298.724	0.04
298.937	0
299.15	0.02
299.363	0.03
299.575	0.1
299.788	0.11
300.001	0.06
300.213	0.01
300.426	0.05
300.639	0.07
300.852	0
301.064	0.1
301.277	0.12
301.489	0.1
301.702	0.08
301.915	0.04
302.127	0.05
302.34	0.06
302.552	0.1
302.765	0.02
302.977	0.08
303.19	0.04
303.402	0.05
303.615	0.04
303.827	0.05
304.04	0.05
304.252	0.06
304.464	0.05
304.677	0.17
304.889	0.11
305.102	0.03
305.314	0.04
305.526	0.09
305.739	0.11
305.951	0.01
306.163	0.01
306.375	0.11
306.588	0.06
306.8	0.04
307.012	0.01
307.224	0.07
307.436	0.1
307.649	0.01
307.861	0.08
308.073	0.13
308.285	0.05
308.497	0.02
308.709	0.04
308.921	0.08
309.133	0.08
309.346	0.04
309.558	0
309.77	0.14
309.982	0.13
310.194	0.08
310.406	0.01
310.617	0.17
310.829	0.06
311.041	0.09
311.253	-0
311.465	0.03
311.677	0.07
311.889	0.04
312.101	0.01
312.313	0.11
312.524	0.14
312.736	-0.01
312.948	0.05
313.16	0.11
313.372	0.09
313.583	0.08
313.795	0.02
314.007	0.03
314.218	0.1
314.43	0.09
314.642	0.05
314.853	-0.04
315.065	0.07
315.277	0.05
315.488	0.07
315.7	0.1
315.912	0.08
316.123	0.01
316.335	0.05
316.546	0.18
316.758	0.05
316.969	0.06
317.181	0.07
317.392	0.06
317.604	0.14
317.815	0.02
318.026	0.04
318.238	0.05
318.449	0.08
318.661	0.01
318.872	0.03
319.083	-0.03
319.295	0.09
319.506	0.02
319.717	0.06
319.929	0.16
320.14	0.01
320.351	0.04
320.562	0.05
320.774	0.07
320.985	0.05
321.196	0.03
321.407	0.01
321.618	0.06
321.829	0.08
322.041	0.08
322.252	0.06
322.463	0.06
322.674	0.06
322.885	-0.03
323.096	0.03
323.307	0.03
323.518	0.06
323.729	0.03
323.94	0.01
324.151	0.05
324.362	0.13
324.573	0.07
324.784	0.05
324.995	0.1
325.206	0.01
325.417	0.04
325.628	0.03
325.838	0.05
326.049	0.01
326.26	0.08
326.471	0.06
326.682	0.13
326.892	0.05
327.103	-0.01
327.314	0
327.525	0.15
327.735	0.03
327.946	0.03
328.157	0.01
328.368	0.07
328.578	0.03
328.789	0.1
328.999	0.06
329.21	0.01
329.421	0.14
329.631	0.04
329.842	0
330.052	0.08
330.263	0.09
330.473	0.09
330.684	0.01
330.894	0.07
331.105	0.08
331.315	0.05
331.526	0.02
331.736	0.15
331.947	0.08
332.157	0.06
332.367	0.04
332.578	0.08
332.788	0.13
332.999	0.11
333.209	0.07
333.419	0.04
333.629	0.15
333.84	0.07
334.05	0.04
334.26	0.1
334.47	0.12
334.681	0.1
334.891	0.01
335.101	0.07
335.311	0.14
335.521	0.05
335.732	0.01
335.942	0.09
336.152	0.09
336.362	0.09
336.572	0.11
336.782	0.12
336.992	0.05
337.202	0.07
337.412	0.08
337.622	0.08
337.832	0.03
338.042	0.07
338.252	0.06
338.462	0.07
338.672	0.09
338.882	0.08
339.092	0.06
339.302	0.16
339.511	0.1
339.721	0.03
339.931	0.04
340.141	0.14
340.351	0.17
340.561	0.1
340.77	0.04
340.98	0.06
341.19	0.08
341.4	0.03
341.609	-0.02
341.819	0.04
342.029	0
342.238	0.12
342.448	0
342.658	0.12
342.867	0.08
343.077	0.07
343.286	0.08
343.496	0.07
343.706	0.08
343.915	0.04
344.125	0.12
344.334	0.08
344.544	0.03
344.753	0.07
344.963	0.02
345.172	0.05
345.381	0.08
345.591	0.03
345.8	0.07
346.01	0.14
346.219	0.12
346.428	-0.07
346.638	0.04
346.847	0.05
347.056	0.14
347.266	0.04
347.475	0.1
347.684	0.11
347.893	0.11
348.103	0.07
348.312	0.05
348.521	0.05
348.73	0.07
348.94	0.07
349.149	0.05
349.358	0.03
349.567	0.05
349.776	0.01
349.985	0.06
350.194	0.11
350.403	0.1
350.612	0.01
350.821	0.04
351.03	0.09
351.239	0.02
351.448	0.06
351.657	0.05
351.866	0.11
352.075	0.08
352.284	0.09
352.493	-0
352.702	0.11
352.911	0.09
353.12	0.07
353.329	0.07
353.538	0.08
353.746	0.05
353.955	0.06
354.164	0.1
354.373	0.04
354.582	0.12
354.79	0.07
354.999	0.1
355.208	0.06
355.416	0.18
355.625	-0.01
355.834	0.06
356.042	0.06
356.251	0.04
356.46	0.03
356.668	0.1
356.877	0.12
357.085	0.16
357.294	-0.05
357.503	0.08
357.711	0.08
357.92	0.23
358.128	0.05
358.337	0.04
358.545	0.09
358.754	0.02
358.962	0.08
359.17	0.04
359.379	0.07
359.587	0.13
359.796	0.08
360.004	0.13
360.212	0.1
360.421	0.14
360.629	0.02
360.837	0.07
361.046	0.11
361.254	0.12
361.462	0.06
361.67	0.04
361.879	0.09
362.087	0.12
362.295	0.09
362.503	0.07
362.711	0.03
362.92	0.07
363.128	0.08
363.336	0.04
363.544	0
363.752	0.03
363.96	0.04
364.168	0.06
364.376	0.08
364.584	0.07
364.792	0.12
365	0.1
365.208	0.06
365.416	0.09
365.624	0.09
365.832	0.06
366.04	0.14
366.248	0.09
366.456	0.11
366.664	0.08
366.872	0.07
367.079	0.05
367.287	0.07
367.495	0.08
367.703	0.05
367.911	0.08
368.118	0.09
368.326	0.07
368.534	0.04
368.742	0.17
368.949	0.01
369.157	0.06
369.365	0.09
369.572	0.09
369.78	0.07
369.988	0.1
370.195	0.08
370.403	0.13
370.61	0.03
370.818	0.07
371.026	0.12
371.233	0.05
371.441	0.09
371.648	0.05
371.856	0.1
372.063	0.08
372.271	0.05
372.478	0.09
372.685	0.04
372.893	0.14
373.1	0.06
373.308	0.04
373.515	0.16
373.722	0.07
373.93	0.04
374.137	0.11
374.344	0.15
374.552	0.11
374.759	0.14
374.966	0.13
375.173	0.08
375.381	0.14
375.588	0.08
375.795	-0
376.002	0.08
376.209	0.08
376.417	0.11
376.624	0.1
376.831	0.13
377.038	0.09
377.245	-0.01
377.452	0.06
377.659	0.11
377.866	0.08
378.073	0.08
378.28	0.05
378.487	0.14
378.694	0.13
378.901	0.09
379.108	0.11
379.315	0.15
379.522	0.18
379.729	0.12
379.936	0.08
380.143	0.1
380.35	0.11
380.557	0.06
380.763	0.08
380.97	0.12
381.177	0.11
381.384	0.1
381.591	0.07
381.797	0.1
382.004	0.11
382.211	0.12
382.418	0.13
382.624	0.13
382.831	0.12
383.038	0.05
383.244	0.1
383.451	0.09
383.658	0.13
383.864	0.09
384.071	0.1
384.277	0.2
384.484	0.08
384.69	0.17
384.897	0.07
385.103	0.14
385.31	0.08
385.516	0.06
385.723	0.12
385.929	0.12
386.136	0.11
386.342	0.11
386.549	0.1
386.755	0.17
386.961	0.15
387.168	0.11
387.374	0.08
387.58	0.16
387.787	0.15
387.993	0.14
388.199	0.09
388.406	0.11
388.612	0.11
388.818	0.09
389.024	0.11
389.231	0.11
389.437	0.22
389.643	0.18
389.849	0.15
390.055	0.15
390.261	0.2
390.467	0.2
390.674	0.15
390.88	0.15
391.086	0.19
391.292	0.1
391.498	0.17
391.704	0.19
391.91	0.18
392.116	0.17
392.322	0.07
392.528	0.22
392.734	0.2
392.94	0.24
393.146	0.2
393.352	0.23
393.557	0.22
393.763	0.21
393.969	0.25
394.175	0.22
394.381	0.22
394.587	0.23
394.792	0.24
394.998	0.29
395.204	0.34
395.41	0.21
395.615	0.29
395.821	0.33
396.027	0.27
396.233	0.27
396.438	0.35
396.644	0.44
396.85	0.34
397.055	0.34
397.261	0.39
397.466	0.38
397.672	0.38
397.878	0.43
398.083	0.48
398.289	0.4
398.494	0.56
398.7	0.48
398.905	0.35
399.111	0.55
399.316	0.43
399.522	0.51
399.727	0.54
399.932	0.56
400.138	0.57
400.343	0.65
400.549	0.63
400.754	0.63
400.959	0.68
401.165	0.72
401.37	0.75
401.575	0.8
401.78	0.78
401.986	0.86
402.191	0.91
402.396	0.94
402.601	1.01
402.807	1.1
403.012	1.11
403.217	1.21
403.422	1.19
403.627	1.22
403.832	1.3
404.037	1.43
404.243	1.43
404.448	1.45
404.653	1.66
404.858	1.67
405.063	1.6
405.268	1.73
405.473	1.72
405.678	1.85
405.883	2.12
406.088	2.04
406.293	2.05
406.498	2.18
406.703	2.27
406.907	2.45
407.112	2.51
407.317	2.65
407.522	2.76
407.727	2.88
407.932	3.08
408.136	3.22
408.341	3.24
408.546	3.43
408.751	3.51
408.956	3.66
409.16	3.94
409.365	4.05
409.57	4.11
409.774	4.31
409.979	4.45
410.184	4.59
410.388	4.72
410.593	5.05
410.798	5.19
411.002	5.47
411.207	5.68
411.411	5.9
411.616	5.93
411.82	6.38
412.025	6.46
412.229	6.81
412.434	7.05
412.638	7.18
412.843	7.44
413.047	7.7
413.252	7.83
413.456	8.35
413.66	8.55
413.865	8.68
414.069	8.96
414.273	9.3
414.478	9.55
414.682	9.74
414.886	10.09
415.091	10.2
415.295	10.66
415.499	11.06
415.703	11.15
415.908	11.7
416.112	11.86
416.316	12.43
416.52	12.75
416.724	12.97
416.929	13.23
417.133	13.87
417.337	14.01
417.541	14.46
417.745	14.67
417.949	15.13
418.153	15.51
418.357	15.79
418.561	16.48
418.765	16.48
418.969	16.78
419.173	17.55
419.377	17.74
419.581	18.32
419.785	18.76
419.989	18.95
420.193	19.59
420.397	19.73
420.601	20.18
420.804	20.57
421.008	20.31
421.212	20.74
421.416	20.5
421.62	20.67
421.823	20.6
422.027	20.65
422.231	20.49
422.435	20.19
422.638	20.11
422.842	20.34
423.046	20.53
423.249	20.74
423.453	20.35
423.657	20.48
423.86	20.81
424.064	20.76
424.268	20.58
424.471	20.47
424.675	20.42
424.878	20.24
425.082	20.36
425.285	20.84
425.489	19.97
425.692	19.79
425.896	19.41
426.099	19.32
426.303	19.33
426.506	19.32
426.71	19.23
426.913	18.96
427.116	18.83
427.32	18.17
427.523	17.95
427.726	17.83
427.93	17.66
428.133	17.77
428.336	17.53
428.54	17.25
428.743	17.01
428.946	16.96
429.149	16.21
429.353	15.49
429.556	15.17
429.759	14.66
429.962	14.39
430.165	14.24
430.368	12.79
430.571	12.68
430.775	12.36
430.978	11.66
431.181	11.27
431.384	11.07
431.587	10.67
431.79	10.79
431.993	10.28
432.196	10.22
432.399	10.28
432.602	9.98
432.805	9.9
433.008	9.97
433.211	9.56
433.414	9.47
433.616	9.16
433.819	8.89
434.022	8.72
434.225	8.47
434.428	8.22
434.631	8.29
434.833	7.76
435.036	7.69
435.239	7.56
435.442	7.34
435.645	7.19
435.847	7.09
436.05	7.08
436.253	6.87
436.455	6.61
436.658	6.4
436.861	6.36
437.063	6.16
437.266	6
437.468	5.98
437.671	5.98
437.874	5.76
438.076	5.47
438.279	5.42
438.481	5.27
438.684	5.33
438.886	5.12
439.089	4.94
439.291	4.88
439.494	4.83
439.696	4.61
439.899	4.75
440.101	4.63
440.303	4.56
440.506	4.61
440.708	4.38
440.91	4.35
441.113	4.21
441.315	4.11
441.517	3.87
441.72	3.9
441.922	3.7
442.124	3.55
442.326	3.5
442.529	3.53
442.731	3.38
442.933	3.41
443.135	3.15
443.337	2.92
443.539	3.07
443.742	2.91
443.944	2.95
444.146	2.72
444.348	2.65
444.55	2.52
444.752	2.55
444.954	2.37
445.156	2.4
445.358	2.34
445.56	2.28
445.762	2.15
445.964	2.21
446.166	2.08
446.368	2.07
446.57	2.09
446.772	1.97
446.974	1.88
447.175	1.85
447.377	1.77
447.579	1.81
447.781	1.69
447.983	1.73
448.184	1.67
448.386	1.64
448.588	1.49
448.79	1.47
448.991	1.48
449.193	1.44
449.395	1.4
449.597	1.45
449.798	1.41
450	1.39
450.202	1.32
450.403	1.28
450.605	1.29
450.806	1.22
451.008	1.18
451.21	1.12
451.411	1.17
451.613	1.13
451.814	1.15
452.016	1.11
452.217	1.05
452.419	1.09
452.62	0.95
452.821	0.98
453.023	1.09
453.224	1.02
453.426	0.92
453.627	0.9
453.828	0.91
454.03	0.88
454.231	0.94
454.432	0.84
454.634	1.01
454.835	0.78
455.036	0.8
455.238	0.83
455.439	0.85
455.64	0.72
455.841	0.73
456.042	0.91
456.244	0.77
456.445	0.73
456.646	0.62
456.847	0.64
457.048	0.75
457.249	0.73
457.45	0.94
457.651	0.59
457.852	0.7
458.054	0.59
458.255	0.58
458.456	0.68
458.657	0.55
458.858	0.5
459.058	0.57
459.259	0.59
459.46	0.56
459.661	0.47
459.862	0.68
460.063	0.47
460.264	0.57
460.465	0.38
460.666	0.6
460.866	0.45
461.067	0.48
461.268	0.46
461.469	0.43
461.67	0.41
461.87	0.38
462.071	0.38
462.272	0.41
462.473	0.41
462.673	0.44
462.874	0.33
463.075	0.41
463.275	0.4
463.476	0.42
463.676	0.39
463.877	0.41
464.078	0.42
464.278	0.43
464.479	0.33
464.679	0.34
464.88	0.33
465.08	0.41
465.281	0.35
465.481	0.35
465.682	0.32
465.882	0.36
466.083	0.35
466.283	0.35
466.483	0.33
466.684	0.26
466.884	0.27
467.085	0.27
467.285	0.35
467.485	0.25
467.686	0.24
467.886	0.23
468.086	0.29
468.286	0.26
468.487	0.32
468.687	0.23
468.887	0.22
469.087	0.27
469.287	0.26
469.488	0.21
469.688	0.3
469.888	0.27
470.088	0.26
470.288	0.29
470.488	0.28
470.688	0.22
470.888	0.18
471.088	0.16
471.288	0.28
471.488	0.27
471.688	0.23
471.888	0.19
472.088	0.27
472.288	0.22
472.488	0.16
472.688	0.19
472.888	0.22
473.088	0.22
473.288	0.22
473.488	0.2
473.688	0.3
473.887	0.23
474.087	0.2
474.287	0.21
474.487	0.15
474.687	0.18
474.886	0.18
475.086	0.14
475.286	0.16
475.486	0.24
475.685	0.19
475.885	0.15
476.085	0.15
476.284	0.18
476.484	0.13
476.684	0.17
476.883	0.22
477.083	0.17
477.282	0.13
477.482	0.24
477.681	0.21
477.881	0.17
478.08	0.13
478.28	0.12
478.479	0.2
478.679	0.21
478.878	0.1
479.078	0.08
479.277	0.11
479.477	0.1
479.676	0.16
479.875	0.11
480.075	0.08
480.274	0.15
480.473	0.17
480.673	0.12
480.872	0.16
481.071	0.15
481.271	0.12
481.47	0.12
481.669	0.11
481.868	0.11
482.067	0.09
482.267	0.1
482.466	0.07
482.665	0.08
482.864	0.05
483.063	0.09
483.262	0.12
483.461	0.15
483.661	0.15
483.86	0.09
484.059	0.1
484.258	0.09
484.457	0.11
484.656	0.12
484.855	0.13
485.054	0.06
485.253	0.08
485.452	0.06
485.651	0.07
485.849	0.09
486.048	0.09
486.247	0.07
486.446	0.09
486.645	0.05
486.844	0.07
487.043	0.09
487.241	0.1
487.44	0.07
487.639	0.1
487.838	0.13
488.037	0.07
488.235	0.12
488.434	0.08
488.633	0.08
488.831	0.09
489.03	0.13
489.229	0.08
489.427	0.07
489.626	0.12
489.825	0.14
490.023	0.08
490.222	0.08
490.42	0.09
490.619	0.1
490.817	0.08
491.016	0.06
491.214	0.11
491.413	0.06
491.611	0.05
491.81	0.07
492.008	0.08
492.207	0.09
492.405	0.09
492.604	0.03
492.802	0.06
493	0.07
493.199	0.05
493.397	0.07
493.595	0.06
493.794	0.05
493.992	0.12
494.19	0.06
494.388	0.08
494.587	0.06
494.785	0.1
494.983	0.03
495.181	0.07
495.379	0.06
495.578	0.05
495.776	0.08
495.974	0.08
496.172	0.05
496.37	0.04
496.568	0.03
496.766	0.02
496.964	0.07
497.162	0.07
497.36	0.04
497.558	0.07
497.756	0.08
497.954	0.04
498.152	0.04
498.35	0.06
498.548	0.06
498.746	0.06
498.944	0.03
499.142	0.05
499.34	0.04
499.538	0.06
499.736	0.03
499.933	0.1
500.131	0.08
500.329	0.05
500.527	0.08
500.725	0.09
500.922	0.09
501.12	0.07
501.318	0.05
501.516	0.04
501.713	0.07
501.911	0.07
502.109	0.02
502.306	0.06
502.504	0.03
502.701	0.03
502.899	0.05
503.097	0.11
503.294	0.06
503.492	0.03
503.689	0.05
503.887	0.07
504.084	0.1
504.282	0.06
504.479	0.02
504.677	0.05
504.874	0.02
505.072	0.05
505.269	0.03
505.466	0.08
505.664	0.08
505.861	0.02
506.059	0.03
506.256	0.07
506.453	0.05
506.651	0.08
506.848	0.07
507.045	0.06
507.242	0.05
507.44	0.04
507.637	0.02
507.834	0.05
508.031	0.08
508.229	0.01
508.426	0.05
508.623	0.06
508.82	0.02
509.017	0.02
509.214	0.05
509.411	0.06
509.608	0.01
509.805	0.05
510.003	0.04
510.2	0.03
510.397	0.08
510.594	0.02
510.791	0.03
510.988	0.04
511.184	0.07
511.381	0.05
511.578	0.03
511.775	0.08
511.972	0.03
512.169	0.04
512.366	0.01
512.563	0.05
512.76	0.01
512.956	0.06
513.153	0.05
513.35	0.05
513.547	0.01
513.744	0.03
513.94	0.02
514.137	0.05
514.334	0.05
514.53	0.03
514.727	0.05
514.924	0.1
515.12	0.03
515.317	-0.01
515.514	0.01
515.71	0.02
515.907	0.04
516.103	0.02
516.3	0.06
516.497	0.06
516.693	0.09
516.89	0.04
517.086	0.03
517.283	0.05
517.479	0.04
517.676	0.05
517.872	0.03
518.068	0.05
518.265	0.04
518.461	0.03
518.658	0.02
518.854	0.05
519.05	0.02
519.247	0.01
519.443	0.06
519.639	0.07
519.836	0.05
520.032	0.05
520.228	0.05
520.424	0.1
520.621	0.05
520.817	0.04
521.013	0.06
521.209	0.05
521.405	0.07
521.601	0.03
521.798	0.04
521.994	0.09
522.19	0.02
522.386	0
522.582	0.03
522.778	0.04
522.974	0.02
523.17	0.04
523.366	0.06
523.562	0.06
523.758	0.03
523.954	0.02
524.15	0.02
524.346	0.05
524.542	0.01
524.738	0.01
524.934	0.03
525.129	0.03
525.325	0.03
525.521	0.03
525.717	0.07
525.913	0.04
526.109	0.03
526.304	0.03
526.5	0.05
526.696	0.05
526.892	0.04
527.087	0.03
527.283	0.03
527.479	0.08
527.674	0.02
527.87	0.03
528.066	0.01
528.261	0.06
528.457	0.04
528.653	0.01
528.848	0.01
529.044	0.03
529.239	0.02
529.435	0.06
529.63	0.03
529.826	0.09
530.021	0.05
530.217	0.04
530.412	0.03
530.608	0.01
530.803	0.04
530.999	0.04
531.194	-0
531.389	0.05
531.585	-0.04
531.78	0.03
531.975	0.04
532.171	0.04
532.366	0.02
532.561	0.04
532.757	0.01
532.952	0.03
533.147	0.05
533.342	0.03
533.538	0.03
533.733	0.07
533.928	0.03
534.123	0.01
534.318	-0
534.513	0.02
534.709	0.03
534.904	0.02
535.099	0.04
535.294	0.03
535.489	0.04
535.684	0.02
535.879	0
536.074	0.03
536.269	-0
536.464	0.04
536.659	0.01
536.854	0.04
537.049	0.04
537.244	0.03
537.439	-0
537.634	0.06
537.828	0.04
538.023	0.01
538.218	-0
538.413	0.02
538.608	0
538.803	0.03
538.997	0.01
539.192	0.08
539.387	0.03
539.582	0.02
539.776	0.02
539.971	0.02
540.166	0.04
540.36	0
540.555	0.03
540.75	0.01
540.944	0.04
541.139	-0.01
541.334	0.01
541.528	0.05
541.723	0.04
541.917	0.01
542.112	-0.01
542.306	0.03
542.501	0.03
542.695	0.03
542.89	-0.01
543.084	0.06
543.279	0.04
543.473	0.02
543.668	0.02
543.862	0.04
544.056	0.04
544.251	0.03
544.445	0.02
544.64	0
544.834	0.01
545.028	0.03
545.222	0.02
545.417	0.02
545.611	0.04
545.805	0.01
546	0.01
546.194	0
546.388	0.01
546.582	0.05
546.776	0.03
546.97	0.03
547.165	0.05
547.359	0.04
547.553	-0.02
547.747	0.02
547.941	0.04
548.135	0.02
548.329	0.04
548.523	0.04
548.717	0.03
548.911	0
549.105	0.03
549.299	0.02
549.493	0.05
549.687	0.02
549.881	0.04
550.075	0.03
550.269	0.01
550.463	0.01
550.657	0.01
550.85	0.02
551.044	0.01
551.238	0.04
551.432	0.02
551.626	0.01
551.82	0.02
552.013	0.01
552.207	0.03
552.401	0.04
552.594	0.04
552.788	0.04
552.982	0.03
553.176	0.01
553.369	0.04
553.563	0.03
553.756	-0.03
553.95	0.01
554.144	0.04
554.337	0.05
554.531	0.04
554.724	0.02
554.918	0.01
555.111	0.05
555.305	0.01
555.498	0.08
555.692	0.05
555.885	0.02
556.079	0.02
556.272	-0
556.466	0.05
556.659	0.04
556.852	0.03
557.046	0.01
557.239	0.04
557.432	-0.02
557.626	0.02
557.819	0.03
558.012	0.04
558.206	0.05
558.399	0.01
558.592	0.03
558.785	0.01
558.979	0.04
559.172	0.02
559.365	0.05
559.558	0.04
559.751	0.04
559.944	0.03
560.138	0.02
560.331	0.03
560.524	0.01
560.717	0.04
560.91	0.03
561.103	0.05
561.296	0.04
561.489	0.03
561.682	0.02
561.875	0.05
562.068	0.04
562.261	0.01
562.454	0.07
562.647	0.02
562.84	0.04
563.032	0.02
563.225	0.02
563.418	0.01
563.611	0.02
563.804	0.02
563.997	-0
564.19	-0.01
564.382	0.03
564.575	0.01
564.768	0.02
564.961	0
565.153	-0
565.346	0.04
565.539	0.04
565.731	0.05
565.924	0.05
566.117	0.04
566.309	0.02
566.502	0.01
566.695	0.02
566.887	0.02
567.08	0
567.272	0.01
567.465	0.01
567.657	0.05
567.85	0.03
568.042	0.05
568.235	0.06
568.427	0.03
568.62	0.01
568.812	0.06
569.005	0.02
569.197	-0.01
569.389	0.01
569.582	0.02
569.774	0.03
569.966	-0.02
570.159	-0.01
570.351	0.04
570.543	-0.01
570.736	0.03
570.928	-0.02
571.12	0.03
571.312	-0.01
571.505	-0.03
571.697	0.04
571.889	-0.01
572.081	0.02
572.273	-0.02
572.465	0.06
572.658	0.01
572.85	0.04
573.042	0.01
573.234	0.02
573.426	0.03
573.618	-0.03
573.81	0.03
574.002	0.05
574.194	0.07
574.386	-0.02
574.578	-0.05
574.77	0
574.962	0.02
575.154	-0.02
575.346	-0
575.538	0.04
575.729	-0.01
575.921	-0.01
576.113	0.03
576.305	0.05
576.497	0.01
576.689	-0.01
576.88	-0.01
577.072	0.05
577.264	-0
577.456	0.02
577.647	-0.07
577.839	0.01
578.031	0.06
578.223	-0.03
578.414	-0.01
578.606	0.06
578.798	0
578.989	-0
579.181	0.01
579.372	0.03
579.564	0.01
579.755	0.03
579.947	0.05
580.139	0.02
580.33	-0.06
580.522	0
580.713	-0.05
580.905	0.01
581.096	0.03
581.287	0.01
581.479	0.04
581.67	0.03
581.862	0.03
582.053	-0.02
582.244	-0.03
582.436	0.02
582.627	0.02
582.818	-0.01
583.01	-0.02
583.201	0.02
583.392	0.04
583.583	0.01
583.775	0.01
583.966	0
584.157	0.01
584.348	0
584.54	-0.03
584.731	0.04
584.922	0
585.113	0.01
585.304	0.02
585.495	0.04
585.686	0.04
585.877	0.04
586.068	0.01
586.259	0.04
586.45	0
586.641	-0.03
586.832	-0.04
587.023	0.03
587.214	-0.02
587.405	0.02
587.596	-0.03
587.787	0.07
587.978	0.04
588.169	-0.02
588.36	-0.01
588.551	0.03
588.742	0.02
588.932	0.04
589.123	0.02
589.314	0.04
589.505	0.03
589.696	0.04
589.886	0.01
590.077	-0.03
590.268	0.03
590.458	-0.03
590.649	-0.02
590.84	0.04
591.03	0
591.221	-0.04
591.412	-0.01
591.602	0.03
591.793	0.06
591.984	-0.02
592.174	-0
592.365	0.08
592.555	-0.01
592.746	0.04
592.936	0.03
593.127	0.04
593.317	0.05
593.508	-0.03
593.698	-0.02
593.889	-0.01
594.079	0.02
594.269	0.01
594.46	0.02
594.65	0.02
594.84	0.01
595.031	-0.01
595.221	0.01
595.411	-0.02
595.602	0.04
595.792	0.02
595.982	-0
596.172	0.09
596.363	0.05
596.553	0.03
596.743	-0
596.933	0.03
597.123	0.05
597.314	-0.01
597.504	0
597.694	0.05
597.884	0.03
598.074	0.01
598.264	-0.01
598.454	0.02
598.644	0.01
598.834	0.01
599.024	-0.06
599.214	-0.01
599.404	0.02
599.594	0.01
599.784	0.02
599.974	0.07
600.164	0.02
600.354	-0.03
600.544	-0.01
600.734	0.04
600.924	0.06
601.114	-0.02
601.303	0.02
601.493	0.01
601.683	-0.01
601.873	0.01
602.063	-0.03
602.252	0.05
602.442	-0.05
602.632	-0.02
602.821	-0.02
603.011	0.04
603.201	-0.01
603.39	0.01
603.58	-0.01
603.77	0.01
603.959	0.06
604.149	0.02
604.339	-0.01
604.528	0.04
604.718	0.03
604.907	-0
605.097	0
605.286	-0.02
605.476	0.06
605.665	0.02
605.855	0.01
606.044	0.06
606.234	0.05
606.423	-0
606.612	-0.01
606.802	0.01
606.991	0.02
607.181	0
607.37	-0.03
607.559	0.02
607.749	-0.02
607.938	0.03
608.127	0.01
608.316	-0.01
608.506	0.03
608.695	-0.02
608.884	-0.01
609.073	0.05
609.263	0.01
609.452	0.02
609.641	0.03
609.83	-0.02
610.019	0.01
610.208	-0.02
610.397	0.01
610.586	0.05
610.775	-0.02
610.965	-0.03
611.154	-0.02
611.343	0.02
611.532	0.01
611.721	-0.01
611.91	-0.03
612.099	0.04
612.287	0.01
612.476	-0.03
612.665	0.03
612.854	-0.01
613.043	0.04
613.232	0.01
613.421	-0.04
613.61	0.02
613.798	-0
613.987	0.04
614.176	0.01
614.365	0.05
614.554	0.02
614.742	0.02
614.931	-0
615.12	0.03
615.309	0
615.497	0.04
615.686	-0.01
615.875	0.02
616.063	0.03
616.252	-0.02
616.44	-0
616.629	0.02
616.818	0.04
617.006	0.01
617.195	0
617.383	0.04
617.572	0.02
617.76	-0.01
617.949	-0.01
618.137	0.02
618.326	0.04
618.514	-0.01
618.703	-0.01
618.891	0.04
619.079	-0.03
619.268	0.04
619.456	-0.01
619.644	0.05
619.833	-0.01
620.021	-0.01
620.209	-0.05
620.398	0.03
620.586	0.03
620.774	0.01
620.962	0.03
621.151	0.09
621.339	-0.03
621.527	-0.02
621.715	-0
621.903	-0.01
622.092	-0.04
622.28	0.02
622.468	-0
622.656	0.02
622.844	0.04
623.032	0
623.22	-0.04
623.408	0.06
623.596	0.01
623.784	0.05
623.972	-0.01
624.16	0
624.348	0.06
624.536	-0.02
624.724	0.01
624.912	0.08
625.1	0.06
625.288	-0
625.476	-0.02
625.664	0.05
625.851	-0.02
626.039	-0.01
626.227	0.01
626.415	0.01
626.603	-0.06
626.79	-0.01
626.978	-0.01
627.166	0.02
627.354	0.01
627.541	-0.03
627.729	-0.05
627.917	0.04
628.104	0.06
628.292	0.02
628.48	-0.02
628.667	0.01
628.855	0.01
629.042	0.04
629.23	-0.01
629.418	0.01
629.605	-0
629.793	0.02
629.98	-0.01
630.168	-0
630.355	-0.03
630.543	0.01
630.73	-0.04
630.917	0.05
631.105	0.08
631.292	-0
631.48	0.03
631.667	0.05
631.854	0.02
632.042	-0.01
632.229	-0.06
632.416	0.01
632.604	-0.01
632.791	-0.05
632.978	0.03
633.165	-0.01
633.353	0.04
633.54	0.02
633.727	-0.05
633.914	-0.03
634.101	-0.07
634.289	0.03
634.476	0
634.663	-0.03
634.85	0.02
635.037	-0.04
635.224	-0.08
635.411	0.05
635.598	0.06
635.785	-0.02
635.972	0.01
636.159	0.04
636.346	0.01
636.533	0.01
636.72	0.01
636.907	0.01
637.094	0.02
637.281	-0
637.468	0.05
637.655	-0.01
637.842	0.01
638.029	-0
638.215	0.05
638.402	0.01
638.589	-0.01
638.776	0
638.963	-0.01
639.149	0.05
639.336	0.05
639.523	0.01
639.709	0.01
639.896	0
640.083	0.08
640.27	0.02
640.456	-0
640.643	0.03
640.829	-0.04
641.016	-0.01
641.203	-0.04
641.389	0.02
641.576	0.03
641.762	-0.03
641.949	-0.03
642.135	0.04
642.322	0.01
642.508	-0.06
642.695	0
642.881	-0.01
643.068	-0.01
643.254	-0.01
643.441	0.05
643.627	0.03
643.813	0
644	0.04
644.186	-0.01
644.372	0.02
644.559	0.03
644.745	0
644.931	-0.02
645.118	0.03
645.304	0.01
645.49	0.03
645.676	-0
645.862	0.02
646.049	0.06
646.235	0.03
646.421	0.09
646.607	0.08
646.793	0.01
646.979	-0.03
647.165	-0.02
647.352	0.04
647.538	0.04
647.724	-0.01
647.91	0.01
648.096	0.06
648.282	0.06
648.468	-0.02
648.654	0.02
648.84	0.02
649.026	-0.01
649.212	-0
649.397	-0.03
649.583	-0.02
649.769	0.05
649.955	-0.01
650.141	0.03
650.327	0.07
650.513	-0.02
650.698	0.04
650.884	-0.06
651.07	0.03
651.256	0.02
651.442	-0.01
651.627	-0.02
651.813	0.02
651.999	0
652.184	0.03
652.37	-0.02
652.556	-0.02
652.741	0.05
652.927	-0.05
653.113	0.01
653.298	-0.01
653.484	0.01
653.669	-0.03
653.855	-0
654.04	0.05
654.226	0.02
654.412	-0.01
654.597	-0.05
654.782	-0.01
654.968	0.05
655.153	0.03
655.339	0
655.524	-0.05
655.71	0.04
655.895	-0.03
656.08	-0.01
656.266	0.04
656.451	0.02
656.636	-0.04
656.822	0.02
657.007	-0.04
657.192	-0.01
657.378	-0.04
657.563	0.03
657.748	0.01
657.933	0.03
658.118	-0.02
658.304	0.01
658.489	0.01
658.674	0.04
658.859	-0.07
659.044	0.03
659.229	0.03
659.414	-0.03
659.599	-0.01
659.785	-0.06
659.97	-0.01
660.155	0.04
660.34	0.03
660.525	-0
660.71	-0.01
660.895	0.08
661.08	0.01
661.264	-0.01
661.449	0.07
661.634	0.06
661.819	0.02
662.004	0.04
662.189	-0.07
662.374	-0.01
662.559	-0.03
662.743	-0.07
662.928	0.01
663.113	0.01
663.298	-0.04
663.483	0.01
663.667	0.04
663.852	-0.07
664.037	0.04
664.221	-0.05
664.406	0.06
664.591	0.02
664.775	0.05
664.96	-0
665.145	0.02
665.329	0.03
665.514	-0.04
665.698	0
665.883	-0.06
666.068	0.09
666.252	0.01
666.437	-0.06
666.621	-0.04
666.806	0.04
666.99	-0.01
667.174	-0.01
667.359	0.05
667.543	0.02
667.728	-0.03
667.912	-0.06
668.096	0.04
668.281	-0.03
668.465	-0.01
668.649	0
668.834	0.01
669.018	-0.01
669.202	-0.02
669.387	-0.04
669.571	0.06
669.755	-0.02
669.939	-0.03
670.124	-0.02
670.308	0.05
670.492	0.06
670.676	-0.02
670.86	-0.01
671.044	-0.05
671.228	0.04
671.413	-0.04
671.597	-0.04
671.781	-0.05
671.965	0.05
672.149	-0
672.333	0.03
672.517	-0.01
672.701	-0
672.885	-0.03
673.069	-0.07
673.253	0.06
673.437	-0.02
673.621	-0.03
673.804	-0.03
673.988	-0
674.172	-0.01
674.356	-0.04
674.54	-0.02
674.724	0.11
674.908	0.02
675.091	0.04
675.275	0.01
675.459	0.05
675.643	0.05
675.826	0.04
676.01	0
676.194	-0.01
676.377	0.05
676.561	0.02
676.745	0.01
676.928	0.05
677.112	0.07
677.296	-0.04
677.479	0.01
677.663	0
677.846	0.02
678.03	-0.01
678.213	-0.03
678.397	0.07
678.58	-0.05
678.764	-0.03
678.947	-0.02
679.131	-0
679.314	0.05
679.498	-0.02
679.681	0.04
679.865	0.07
680.048	0.03
680.231	0
680.415	-0.02
680.598	0
680.781	0.02
680.965	-0.01
681.148	0.05
681.331	-0.02
681.514	0.01
681.698	-0.02
681.881	-0
682.064	0.02
682.247	0.03
682.43	-0.08
682.614	0.05
682.797	0.08
682.98	0.07
683.163	-0.04
683.346	0.02
683.529	-0.06
683.712	-0.05
683.895	0.06
684.078	-0.04
684.261	-0.01
684.444	-0.01
684.627	0.02
684.81	-0
684.993	-0.03
685.176	0.01
685.359	-0.01
685.542	-0.04
685.725	0.03
685.908	0.02
686.091	-0.01
686.274	0.06
686.457	0.06
686.639	0.05
686.822	0.06
687.005	0.01
687.188	0.04
687.371	0.08
687.553	0.02
687.736	0.02
687.919	0.07
688.102	0.09
688.284	-0.01
688.467	-0.01
688.65	0.01
688.832	-0
689.015	-0.02
689.197	-0.09
689.38	0.08
689.563	0.08
689.745	-0.03
689.928	-0.03
690.11	-0.03
690.293	-0.03
690.475	-0.03
690.658	0.04
690.84	-0
691.023	-0.02
691.205	-0.02
691.388	-0
691.57	0.03
691.752	0.08
691.935	-0.07
692.117	-0.03
692.3	0
692.482	-0.02
692.664	0.03
692.847	0.04
693.029	0.08
693.211	0.04
693.393	-0.01
693.576	-0.04
693.758	-0.01
693.94	-0.02
694.122	0.01
694.304	-0.02
694.487	-0.08
694.669	0.07
694.851	-0.06
695.033	-0.03
695.215	0.01
695.397	-0.03
695.579	0.02
695.761	-0.03
695.943	-0.07
696.125	0.09
696.308	0.04
696.49	-0.09
696.671	0.13
696.853	0.04
697.035	0.1
697.217	-0.01
697.399	0.07
697.581	-0.02
697.763	-0.03
697.945	-0.04
698.127	0.03
698.309	0.05
698.491	0.01
698.672	0.01
698.854	0.06
699.036	0.05
699.218	-0.01
699.399	0.01
699.581	0.05
699.763	0.02
699.945	-0.07
700.126	-0.03
700.308	0.05
700.49	0.03
700.671	-0.07
700.853	-0.03
701.035	-0.03
701.216	0.02
701.398	-0.06
701.579	-0
701.761	0.04
701.943	-0.04
702.124	-0
702.306	-0.04
702.487	0.1
702.669	-0.05
702.85	-0
703.031	-0.04
703.213	0.07
703.394	0.11
703.576	-0.02
703.757	0.05
703.938	0.05
704.12	0.18
704.301	-0.05
704.483	-0.05
704.664	0.05
704.845	0.08
705.026	0.07
705.208	0.02
705.389	0.03
705.57	-0.04
705.751	0.01
705.933	-0.02
706.114	0.11
706.295	0.04
706.476	0.01
706.657	0.1
706.838	0.05
707.02	0.07
707.201	-0.05
707.382	0.03
707.563	0.1
707.744	0.02
707.925	-0.05
708.106	-0.04
708.287	0.04
708.468	0.11
708.649	0.01
708.83	0.01
709.011	-0.05
709.192	0.12
709.373	-0.08
709.554	-0.04
709.734	0.06
709.915	0.05
710.096	-0.02
710.277	-0.07
710.458	0.02
710.639	0.05
710.819	-0.14
711	0.01
711.181	0.04
711.362	0.08
711.542	-0.01
711.723	0.04
711.904	0.05
712.085	0.04
712.265	-0.07
712.446	-0.1
712.627	-0.03
712.807	-0.03
712.988	-0.01
713.168	-0.12
713.349	0.02
713.53	-0.12
713.71	-0.01
713.891	-0.13
714.071	0.01
714.252	0.01
714.432	-0.05
714.613	-0.11
714.793	-0
714.974	0.06
715.154	0.05
715.334	0.08
715.515	0.1
715.695	-0.03
715.876	0.03
716.056	0.03
716.236	-0
716.417	-0.07
716.597	-0.01
716.777	0.17
716.957	-0.02
717.138	-0.01
717.318	0.02
717.498	-0.11
717.678	-0.01
717.859	0.01
718.039	-0.08
718.219	-0.03
718.399	0.02
718.579	-0.05
718.759	-0.11
718.939	-0.04
719.12	-0.04
719.3	0.03
719.48	-0.16
719.66	-0.17
719.84	0.02
720.02	-0.04
720.2	-0.08
720.38	-0.01
720.56	0.08
720.74	-0.03
720.92	-0
721.1	0.13
721.279	0.06
721.459	-0.03
721.639	-0.09
721.819	0.05
721.999	0.01
722.179	0.03
722.359	-0.06
722.538	0.02
722.718	0.01
722.898	-0.03
723.078	0.02
723.257	-0.03
723.437	0.01
723.617	0.06
723.797	0.01
723.976	0.01
724.156	0.06
724.336	0
724.515	0.15
724.695	-0.09
724.874	-0.09
725.054	0.09
725.234	-0.02
725.413	0.09
725.593	0
725.772	-0.01
725.952	-0.03
726.131	-0.04
726.311	-0.01
726.49	-0.06
726.67	-0.11
726.849	-0.01
727.028	-0
727.208	-0.03
727.387	-0
727.567	-0.08
727.746	-0.05
727.925	-0.06
728.105	-0.13
728.284	0.02
728.463	-0
728.643	0.07
728.822	-0.09
729.001	-0.05
729.18	0.08
729.359	0.02
729.539	-0.05
729.718	0
729.897	0.06
730.076	-0.06
730.255	-0.08
730.434	-0
730.614	0.08
730.793	0.13
730.972	0.06
731.151	0
731.33	0.04
731.509	0.03
731.688	-0.06
731.867	0
732.046	-0.09
732.225	0.19
732.404	-0.11
732.583	-0.03
732.762	0.01
732.941	0.02
733.12	0.09
733.298	-0.03
733.477	0.18
733.656	0.04
733.835	-0.15
734.014	0.06
734.193	0.01
734.371	0.05
734.55	0.01
734.729	-0.07
734.908	-0.04
735.086	0.03
735.265	0.17
735.444	-0.12
735.623	-0.07
735.801	-0.05
735.98	0
736.159	-0.07
736.337	0.08
736.516	0.03
736.694	-0
736.873	-0.08
737.052	0.12
737.23	0.13
737.409	-0.05
737.587	0.06
737.766	-0.01
737.944	-0.1
738.123	0.02
738.301	0.04
738.479	-0.01
738.658	-0.04
738.836	-0.16
739.015	0.07
739.193	0.16
739.371	-0.07
739.55	-0.06
739.728	-0.08
739.906	0.18
740.085	0.09
740.263	0.11
740.441	-0.24
740.62	0.19
740.798	0.05
740.976	-0.09
741.154	-0.09
741.332	0.24
741.511	-0.05
741.689	0.09
741.867	0.08
742.045	-0.01
742.223	0.05
742.401	-0.02
742.579	-0
742.757	0.15
742.935	-0.07
743.114	-0.01
743.292	-0.04
743.47	-0
743.648	-0.06
743.826	-0.21
744.004	0.01
744.181	0.1
744.359	-0.09
744.537	0.01
744.715	0
744.893	0.01
745.071	-0.04
745.249	-0.06
745.427	-0.13
745.605	0.04
745.782	0.02
745.96	0.17
746.138	-0.01
746.316	0.11
746.493	-0.02
746.671	0.03
746.849	-0.04
747.027	0.23
747.204	-0.04
747.382	0.12
747.56	-0.15
747.737	0.15
747.915	-0.1
748.093	0.17
748.27	-0.05
748.448	-0.02
748.625	-0.1
748.803	-0.05
748.98	0.01
749.158	0.11
749.335	0.17
749.513	-0.05
749.69	0.05
749.868	-0.04
750.045	0.02
750.223	-0.16
750.4	-0.24
750.578	0.17
750.755	0.03
750.932	-0.12
751.11	0.11
751.287	-0.2
751.464	0.18
751.642	-0.05
751.819	0.02
751.996	0.07
752.173	-0.11
752.351	-0.02
752.528	0.06
752.705	-0.02
752.882	-0.13
753.06	0.09
753.237	-0
753.414	0.22
753.591	0.14
753.768	-0.02
753.945	-0.01
754.122	-0.07
754.299	0.03
754.476	-0.09
754.654	0.04
754.831	0.15
755.008	0.07
755.185	-0.12
755.362	-0.09
755.539	0
755.716	-0
755.892	-0.03
756.069	-0.02
756.246	0.01
756.423	-0.22
756.6	0.3
756.777	-0.14
756.954	0.19
757.131	0.03
757.307	-0.05
757.484	-0.17
757.661	0.08
757.838	0.16
758.015	-0.05
758.191	0.09
758.368	-0.08
758.545	0.13
758.721	0.03
758.898	-0.1
759.075	0.06
759.251	0.13
759.428	0.07
759.605	-0.25
759.781	-0.06
759.958	0.14
760.134	0.04
760.311	-0.16
760.488	0.19
760.664	0.18
760.841	-0.02
761.017	-0.17
761.194	0.12
761.37	0.13
761.547	0.05
761.723	0.12
761.899	0.09
762.076	-0.08
762.252	-0.04
762.429	0.07
762.605	0.09
762.781	-0.06
762.958	0.2
763.134	-0.09
763.31	-0.05
763.486	0.2
763.663	-0.18
763.839	-0.04
764.015	-0.19
764.191	-0.19
764.368	-0.1
764.544	-0.13
764.72	0.1
764.896	0.1
765.072	-0.07
765.248	0.09
765.425	0.05
765.601	0.13
765.777	0.07
765.953	-0.27
766.129	-0.13
766.305	-0.06
766.481	0.09
766.657	-0.04
766.833	0.1
767.009	-0.13
767.185	-0.12
767.361	-0.02
767.537	-0.13
767.713	0.13
767.889	-0.05
768.065	-0.03
768.24	0.07
768.416	0.14
768.592	-0.2
768.768	0.04
768.944	0.06
769.12	-0.06
769.295	-0
769.471	-0.04
769.647	-0.15
769.823	0.12
769.998	-0.02
770.174	-0.13
770.35	0.25
770.525	0.31
770.701	-0.05
770.877	-0.02
771.052	-0.07
771.228	0.05
771.403	0.15
771.579	-0
771.755	0.32
771.93	-0.07
772.106	-0.13
772.281	-0.25
772.457	0.14
772.632	0.16
772.808	-0.2
772.983	-0.03
773.159	-0.12
773.334	0.34
773.509	0.16
773.685	-0.05
773.86	0.41
774.036	0.18
774.211	0.28
774.386	0.03
774.562	0.08
774.737	0.12
774.912	-0.03
775.087	0.09
775.263	0.08
775.438	0.11
775.613	0.05
775.788	0.1
775.964	0.06
776.139	0.39
776.314	-0.21
776.489	0.05
776.664	-0.04
776.839	-0.1
777.014	0.2
777.19	0.1
777.365	0.19
777.54	0.28
777.715	-0.08
777.89	-0.08
778.065	-0.18
778.24	-0.12
778.415	0.18
778.59	-0.15
778.765	-0.15
778.94	-0
779.115	-0.14
779.289	0.04
779.464	0.01
779.639	-0.07
779.814	-0.23
779.989	-0.17
780.164	0.21
780.339	0.06
780.513	-0.21
780.688	-0.15
780.863	-0.11
781.038	0.2
781.212	-0.01
781.387	0.02
781.562	0.44
781.737	-0.22
781.911	0.14
782.086	-0.07
782.261	0.11
782.435	0.24
782.61	-0.07
782.784	-0.01
782.959	0.33
783.134	-0.15
783.308	-0.32
783.483	-0.01
783.657	0.17
783.832	0.01
784.006	-0.48
784.181	0.12
784.355	0.25
784.53	-0.28
784.704	-0.2
784.878	0.36
785.053	0.08
785.227	0.41
785.402	0.36
785.576	-0.08
785.75	0.18
785.925	0.15
786.099	0.06
786.273	0.01
786.448	0.17
786.622	0.29
786.796	-0.01
786.97	-0.13
787.145	0.4
787.319	-0.03
787.493	-0.04
787.667	-0.33
787.841	0.07
788.015	0.27
788.19	-0.14
788.364	0.02
788.538	0.24
788.712	0.2
788.886	0.07
789.06	0.33
789.234	0.25
789.408	-0.11
789.582	-0.04
789.756	-0.09
789.93	-0.04
790.104	-0.25
790.278	0.04
790.452	-0.36
790.626	0.33
790.8	-0.1
790.973	0.22
791.147	0.32
791.321	0.25
791.495	0.1
791.669	-0.07
791.843	0.09
792.016	0
792.19	0.36
792.364	-0.31
792.538	0.47
792.711	0.35
792.885	-0.19
793.059	-0.22
793.233	-0.52
793.406	0.37
793.58	0.1
793.754	0.13
793.927	-0.24
794.101	0.39
794.274	-0.04
794.448	0.23
794.622	-0.17
794.795	0.32
794.969	-0.16
795.142	0.44
795.316	-0.29
795.489	0.09
795.663	0.4
795.836	0.14
796.009	-0.23
796.183	0.3
796.356	-0.02
796.53	-0.03
796.703	0.04
796.876	0.62
797.05	-0.11
797.223	-0.08
797.396	-0
797.57	0.11
797.743	0.45
797.916	-0
798.09	-0.29
798.263	0.35
798.436	0.17
798.609	-0.16
798.782	-0.12
798.956	0.15
799.129	0.3
799.302	-0.11
799.475	-0.28
799.648	-0.3
799.821	-0.05
799.994	0.07
800.167	-0.67
800.34	0.18
800.514	-0.1
800.687	-0.08
800.86	-0.02
801.033	0.3
801.206	-0.02
801.379	-0.23
801.551	0.27
801.724	0.08
801.897	0.57
802.07	0.01
802.243	-0.45
802.416	-0.14
802.589	-0.05
802.762	0.09
802.935	-0.33
803.107	0.27
803.28	0.32
803.453	0.2
803.626	-0.32
803.798	-0.14
803.971	-0.29
804.144	0.16
804.317	0.22
804.489	0.22
804.662	-0.27
804.835	0.07
805.007	-0.24
805.18	0.34
805.353	0.21
805.525	-0.15
805.698	-0.33
805.87	0.02
806.043	0.27
806.215	-0.28
806.388	-0.44
806.56	0.32
806.733	0.47
806.905	0.13
807.078	-0.47
807.25	-0.07
807.423	0.31
807.595	-0.23
807.768	0.06
807.94	0.43
808.112	0.31
808.285	0.1
808.457	0.16
808.629	0.28
808.802	0.46
808.974	-0.08
809.146	-0.04
809.318	-0.46
809.491	-0.11
809.663	0.15
809.835	0.02
810.007	0.08
810.18	0.21
810.352	-0.3
810.524	-0.07
810.696	0.68
810.868	0.38
811.04	-0.07
811.212	-0.07
811.384	0.22
811.556	0.11
811.728	0.07
811.901	0.76
812.073	-0.24
812.245	0.37
812.417	0.11
812.589	-0.52
812.76	0.07
812.932	0.5
813.104	0.21
813.276	-0.06
813.448	0.55
813.62	-0.11
813.792	0.23
813.964	0.52
814.136	0.2
814.307	0.01
814.479	-0.29
814.651	0.1
814.823	0.65
814.995	-0.34
815.166	-0.02
815.338	-0.37
815.51	-0.67
815.681	0.78
815.853	0.15
816.025	-0.07
816.196	1.12
816.368	0.28
816.54	-0.33
816.711	-0.39
816.883	-0.11
817.054	0.89
817.226	-0.62
817.398	0.24
817.569	-0.32
817.741	-0.1
817.912	-0.16
818.084	-0.17
818.255	0.44
818.426	-0.54
818.598	0.44
818.769	-0.44
818.941	0.56
819.112	0.62
819.283	0.12
819.455	-0.47
819.626	-0.21
819.798	0.38
819.969	-0.04
820.14	0.01
820.311	-0.18
820.483	0.26
820.654	0.16
820.825	-0.02
820.996	0.18
821.168	-0.35
821.339	0.3
821.51	-0.55
821.681	-0.33
821.852	-0.11
822.023	-0.46
822.195	-0.15
822.366	0.59
822.537	-0.18
822.708	-0.24
822.879	0.07
823.05	0.95
823.221	0.3
823.392	0.4
823.563	-0.41
823.734	-0.01
823.905	-0.12
824.076	-0.31
824.247	-0.7
824.418	-0.39
824.589	0.75
824.759	-0.32
824.93	-0.22
825.101	-0.7
825.272	0.81
825.443	0.49
825.614	0.04
825.784	-1.42
825.955	1.2
826.126	0.99
826.297	-0.28
826.467	0.75
826.638	0.62
826.809	-0.88
826.98	-0.57
827.15	-0.28
827.321	0.13
827.492	0.83
827.662	-0.33
827.833	0.8
828.003	0.21
828.174	-0.07
828.345	-0.49
828.515	0.23
828.686	0.01
828.856	-0.54
829.027	0.17
829.197	0.57
829.368	0.42
829.538	-0.02
829.709	0.08
829.879	0.12
830.049	-0.05
830.22	-0.07
830.39	-0.1
830.56	0.56
830.731	0.08
830.901	0.04
831.072	-0.12
831.242	0.18
831.412	0.54
831.582	-0.12
831.753	-0.9
831.923	0.6
832.093	-0.41
832.263	-0.07
832.434	-0.59
832.604	-0.19
832.774	0.44
832.944	0.21
833.114	-0.11
833.284	0.17
833.454	-0.25
833.624	-0.61
833.795	-0.08
833.965	0.51
834.135	0.93
834.305	-0.96
834.475	-0.69
834.645	0.04
834.815	-0.29
834.985	-0.37
835.155	-0.45
835.325	0.53
835.494	0.51
835.664	-0.36
835.834	-0.89
836.004	0.07
836.174	0.36
836.344	-0.03
836.514	-0.75
836.684	-0.37
836.853	-0.46
837.023	0.68
837.193	-0.53
837.363	1.14
837.532	0.47
837.702	-0.43
837.872	-1.11
838.041	0.96
838.211	1.34
838.381	-0.96
838.55	-0.01
838.72	1.37
838.89	1.04
839.059	-0.28
839.229	-0.65
839.398	2.01
839.568	0.13
839.738	-0.03
839.907	0.26
840.077	0.14
840.246	0.24
840.416	-0.26
840.585	-1.23
840.755	1.88
840.924	0.65
841.093	-0.59
841.263	-0.74
841.432	0.09
841.602	-0.32
841.771	-0.51
841.94	-0.06
842.11	1.77
842.279	1.4
842.448	-0.76
842.617	-0.79
842.787	0.38
842.956	-0.84
843.125	-0.79
843.294	-0.11
843.464	1.76
843.633	1.03
843.802	-0.11
843.971	0.13
844.14	0.88
844.309	1.05
844.479	-0.79
844.648	-0.54
844.817	-0.83
844.986	0.32
845.155	-0.19
845.324	-0.46
845.493	-0.05
845.662	-0.11
845.831	0.64
846	-0.25
846.169	-0.26
846.338	1.36
846.507	0.35
846.676	0.14
846.844	-0.68
847.013	-0.35
847.182	0
847.351	-0.58
847.52	0.2
847.689	0.94
847.858	0.32
848.026	-0.7
848.195	-0.43
848.364	-0.88
848.533	-1.15
848.701	-0.64
848.87	0.75
849.039	0.77
849.207	0.54
849.376	1.38
849.545	1.53
849.713	-0.25
849.882	-0.17
850.051	-0.17
850.219	-0.35
850.388	0.71
850.556	-1.32
850.725	-1.33
850.893	0.52
851.062	0.29
851.23	0.66
851.399	-1.41
851.567	0.77
851.736	-0.78
851.904	0.14
852.073	-0.75
852.241	0.88
852.41	-0.59
852.578	-1.33
852.746	-0.11
852.915	0.68
853.083	-0.66
853.251	-1.6
853.42	-0.59
853.588	0.67
853.756	1.05
853.924	-0.67
854.093	-0.58
854.261	0.86
854.429	-1.46
854.597	0.62
854.765	-0.95
854.934	0.18
855.102	1.52
855.27	0.62
855.438	0.77
855.606	1.19
855.774	1.62
855.942	-1.42
856.11	-1.66
856.278	0.16
856.446	0.76
856.614	-0.58
856.782	0.05
856.95	1.27
857.118	1.45
857.286	0.49
857.454	0.26
857.622	2.1
857.79	0.46
857.958	-1.43
858.126	-1
858.294	-3.42
858.462	0.4
858.629	-0.4
858.797	-0.98
858.965	-0.04
859.133	-0.1
859.301	-0.36
859.468	-0.57
859.636	-0.71
859.804	1.55
859.971	0.91
860.139	-0.81
860.307	0.6
860.474	0.53
860.642	-1.16
860.81	0.1
860.977	-0.02
861.145	1.38
861.313	-0.89
861.48	0.23
861.648	-0.11
861.815	1.28
861.983	-2.06
862.15	-0.17
862.318	1.44
862.485	1.02
862.653	-1.92
862.82	-0.56
862.988	2.75
863.155	0.13
863.322	-1.88
863.49	-1.37
863.657	0.01
863.824	2.21
863.992	1.3
864.159	0.1
864.326	0.13
864.494	-0.57
864.661	2.41
864.828	-1.23
864.996	1.03
865.163	1.57
865.33	-0.29
865.497	-2
865.664	-0.51
865.832	-1.56
865.999	-1.95
866.166	-1.09
866.333	0.01
866.5	0.61
866.667	-0.14
866.834	-1.51
867.001	0.69
867.168	-2.11
867.335	0.15
867.502	-2.08
867.669	-0.57
867.836	1.9
868.003	0.07
868.17	0.71
868.337	-0.89
868.504	1.65
868.671	-2.48
868.838	-0.6
869.005	1.17
869.172	-0.12
869.339	-0.43
869.505	-1.16
869.672	0.37
869.839	1.06
870.006	-0.42
870.173	-1.4
870.339	-0.04
870.506	2.53
870.673	-1.15
870.84	-0.01
871.006	0.07
871.173	-0.44
871.34	-0.12
871.506	-2.77
871.673	2.31
871.839	-2.79
872.006	-0.17
872.173	-1.74
872.339	-0.32
872.506	0.88
872.672	-0.84
872.839	-2.47
873.005	0.96
873.172	2.81
873.338	2.34
873.505	0.17
873.671	-0.43
873.838	1.07
874.004	-2.83
874.171	-0.78
874.337	0.47
874.503	1.06
874.67	-1.8
874.836	-0.58
875.002	1.63
875.169	1.22
875.335	1.8
875.501	-1.26
875.668	0.84
875.834	0.1
876	-0.35
876.166	0.53
876.332	1.8
876.499	3.22
876.665	0.06
876.831	-0.58
876.997	1.58
877.163	-0.32
877.329	-0.85
877.495	0.7
877.662	0.41
877.828	2
877.994	0.25
878.16	-2.56
878.326	-0.51
878.492	-0.03
878.658	1.04
878.824	1.94
878.99	0.16
879.156	-1.76
879.322	1.39
879.487	-1.77
879.653	0.77
879.819	0.62
879.985	-2.3
880.151	0.96
880.317	-0.2
880.483	0.4
880.648	0.51
880.814	-2.6
880.98	1.06
881.146	-2
881.312	-1.14
881.477	0.51
881.643	-2.02
881.809	2
881.974	0.57
882.14	-2.58
882.306	0.01
882.471	2.7
882.637	-1.89
882.803	0.79
882.968	3.09
883.134	2.25
883.299	-1.73
883.465	-1.11
883.63	2.02
883.796	1.11
883.961	1.98
884.127	0.23
884.292	-3.91
884.458	-0.73
884.623	-0.73
