Data from Apollo_Calib_20240827__AbsoluteIrradiance__724__11-13-02-311.txt Node

Date: Wed Aug 28 11:13:02 BST 2024
User: biology
Spectrometer: FLMT08252
Trigger mode: 0
Integration Time (sec): 5.000000E-1
Scans to average: 5
Electric dark correction enabled: true
Nonlinearity correction enabled: false
Boxcar width: 0
XAxis mode: Wavelengths
Number of Pixels in Spectrum: 3648
>>>>>Begin Spectral Data<<<<<
179.588	-0
179.809	-0
180.03	-0
180.251	-0
180.473	-0
180.694	0
180.915	0
181.136	-0
181.357	0
181.578	-0
181.799	-0
182.02	-0
182.241	0
182.462	-0
182.683	0
182.904	-0
183.125	0
183.346	0
183.567	0
183.788	0
184.009	-0
184.23	0
184.451	0
184.672	0
184.892	-0
185.113	0
185.334	0
185.555	0
185.776	-0
185.996	0
186.217	0
186.438	0
186.659	-0
186.879	0
187.1	-0
187.321	-0
187.541	0
187.762	0
187.983	0
188.203	0
188.424	0
188.644	0
188.865	0
189.086	0
189.306	0
189.527	0
189.747	0
189.968	-0
190.188	0
190.409	0
190.629	0
190.849	-0
191.07	0
191.29	0
191.511	0
191.731	0
191.951	-0
192.172	0
192.392	0
192.612	0
192.833	0
193.053	0
193.273	0
193.493	0
193.714	0
193.934	0
194.154	0
194.374	0
194.594	0
194.815	0
195.035	0
195.255	0
195.475	-0
195.695	0
195.915	0
196.135	0
196.355	0
196.575	0
196.795	0
197.015	-0
197.235	-0
197.455	0
197.675	0
197.895	0
198.115	0
198.335	0
198.555	0
198.775	0
198.995	0
199.214	0
199.434	0
199.654	-0
199.874	0
200.094	1.09
200.313	-0.05
200.533	-0.1
200.753	-0.59
200.973	0.47
201.192	1.07
201.412	-0.3
201.632	0.22
201.851	1.74
202.071	0.33
202.291	-0.59
202.51	-0.02
202.73	0.62
202.95	0.25
203.169	-0.32
203.389	1.07
203.608	0.6
203.828	-0.35
204.047	0.45
204.267	0.63
204.486	0.49
204.706	0.66
204.925	0.5
205.145	0.39
205.364	0.66
205.583	0.63
205.803	0.13
206.022	-0.14
206.242	0.48
206.461	0.46
206.68	-0.28
206.9	0.66
207.119	0.95
207.338	1.14
207.557	0.06
207.777	0.06
207.996	0.19
208.215	0.82
208.434	-0.12
208.654	-0.35
208.873	0.14
209.092	0.76
209.311	0.27
209.53	-0.01
209.749	0.12
209.968	-0.04
210.187	0.01
210.407	-0.08
210.626	0.12
210.845	0.45
211.064	0.33
211.283	-0.04
211.502	0.42
211.721	0.29
211.94	0.21
212.159	0.43
212.377	0.39
212.596	0.37
212.815	0.36
213.034	0.23
213.253	0.48
213.472	0.39
213.691	0.36
213.91	0.11
214.128	0.07
214.347	0.65
214.566	-0.37
214.785	0.06
215.003	0.46
215.222	0.26
215.441	0.19
215.66	-0.08
215.878	0.31
216.097	0.67
216.316	0.05
216.534	0.23
216.753	0.18
216.972	0.16
217.19	0.24
217.409	-0.02
217.627	0.15
217.846	0.21
218.064	0.16
218.283	0.04
218.501	0.44
218.72	0.33
218.938	0.05
219.157	0.09
219.375	0.32
219.594	0.27
219.812	-0.12
220.031	-0.09
220.249	0.5
220.467	0.36
220.686	0.08
220.904	-0.12
221.122	0.03
221.341	0.54
221.559	0.11
221.777	0
221.995	0.12
222.214	0.3
222.432	0.09
222.65	0.22
222.868	0.2
223.086	0.18
223.305	0.32
223.523	0.18
223.741	0.52
223.959	0.1
224.177	-0.14
224.395	0.13
224.613	0.17
224.831	0.3
225.049	0.01
225.267	-0.03
225.485	0.29
225.703	0.18
225.921	0.08
226.139	0.08
226.357	0.08
226.575	0.21
226.793	0
227.011	0.79
227.229	0.19
227.447	0.26
227.665	0.06
227.883	0.01
228.1	0.15
228.318	0.21
228.536	-0.08
228.754	-0.11
228.972	0.24
229.189	0.22
229.407	0.06
229.625	-0.03
229.843	0.25
230.06	0.28
230.278	0.15
230.496	0.07
230.713	0.26
230.931	0.37
231.149	0.12
231.366	-0.04
231.584	0.14
231.801	0.39
232.019	-0.07
232.236	-0.04
232.454	-0.01
232.671	0.08
232.889	0.08
233.106	0.02
233.324	0.08
233.541	0.07
233.759	0.15
233.976	-0.02
234.194	0.13
234.411	0.08
234.628	-0.01
234.846	0.07
235.063	0.04
235.28	0.12
235.498	0.17
235.715	-0.02
235.932	0.12
236.149	0.14
236.367	0.01
236.584	0.02
236.801	0.03
237.018	0.2
237.236	0.09
237.453	-0.01
237.67	0.2
237.887	0.15
238.104	0.04
238.321	0.04
238.538	0.07
238.755	0.19
238.973	-0.08
239.19	0.03
239.407	0.19
239.624	0.13
239.841	0.02
240.058	0.04
240.275	0.07
240.492	0.02
240.709	0.19
240.925	0.04
241.142	0.05
241.359	-0.03
241.576	0.04
241.793	0.09
242.01	0.16
242.227	0.26
242.444	0.17
242.66	0.19
242.877	0.13
243.094	0.05
243.311	0.14
243.527	-0
243.744	0.08
243.961	0.22
244.178	0.01
244.394	0.09
244.611	0.16
244.828	0.38
245.044	0.02
245.261	0.06
245.477	0.14
245.694	0.19
245.911	0.05
246.127	0.13
246.344	0.23
246.56	0.19
246.777	0.09
246.993	0.21
247.21	0.11
247.426	0.16
247.643	0.08
247.859	0
248.076	-0.01
248.292	0.25
248.508	0.1
248.725	0.13
248.941	0.12
249.157	0.17
249.374	0.04
249.59	0.1
249.806	0.1
250.023	0.31
250.239	0.07
250.455	0.01
250.671	0.09
250.888	0.12
251.104	0.14
251.32	0.05
251.536	0.04
251.752	0.05
251.969	0.11
252.185	0.07
252.401	0.19
252.617	0.09
252.833	0.07
253.049	0.16
253.265	0.08
253.481	0.09
253.697	0.04
253.913	-0.02
254.129	0.02
254.345	0.1
254.561	-0.02
254.777	0.06
254.993	0.12
255.209	0.14
255.425	0.05
255.641	0.04
255.857	0.2
256.073	0.13
256.288	-0.09
256.504	0.05
256.72	0.04
256.936	0.19
257.152	0.05
257.367	0.04
257.583	0.08
257.799	0.2
258.015	0.04
258.23	0.03
258.446	0.23
258.662	0.08
258.877	0.03
259.093	0.01
259.309	0.04
259.524	0.16
259.74	0.02
259.955	-0.04
260.171	0.17
260.387	0.08
260.602	0.15
260.818	0.13
261.033	-0.01
261.249	0.05
261.464	0.06
261.68	0.01
261.895	0.11
262.11	0.15
262.326	0.06
262.541	-0.06
262.757	0.17
262.972	0.11
263.187	0.05
263.403	0.12
263.618	0.17
263.833	0.07
264.049	-0
264.264	0.07
264.479	0.07
264.694	0.23
264.91	-0.06
265.125	0.05
265.34	0.13
265.555	0.29
265.77	0.06
265.986	0.07
266.201	0.11
266.416	0.11
266.631	0.05
266.846	0.06
267.061	0.14
267.276	0.14
267.491	-0.02
267.706	0.09
267.921	0.16
268.136	0.07
268.351	0.09
268.566	-0.03
268.781	0.18
268.996	0.13
269.211	0.05
269.426	0.01
269.641	0.03
269.856	0.07
270.071	0.04
270.285	0.04
270.5	0.12
270.715	0.12
270.93	0.08
271.145	0.08
271.359	0.13
271.574	0.08
271.789	0.11
272.004	0.04
272.218	0.02
272.433	0.14
272.648	-0.01
272.862	0.15
273.077	0.11
273.292	0.07
273.506	0.04
273.721	0.05
273.936	0.12
274.15	0.14
274.365	0.02
274.579	0.07
274.794	0.07
275.008	0.11
275.223	0
275.437	0.05
275.652	0.14
275.866	0.12
276.081	0.11
276.295	0.11
276.509	0.09
276.724	0.08
276.938	0.05
277.153	0.1
277.367	0.13
277.581	-0
277.796	0.03
278.01	0.02
278.224	0.13
278.438	0.17
278.653	-0.02
278.867	0.02
279.081	-0.12
279.295	0.08
279.51	0.09
279.724	0.01
279.938	0.12
280.152	0.08
280.366	-0.01
280.58	0.06
280.794	0.16
281.008	0.05
281.222	0.17
281.437	0.2
281.651	0.08
281.865	0.11
282.079	0.03
282.293	-0.06
282.507	0.04
282.721	0.07
282.935	0.03
283.148	-0.01
283.362	0.05
283.576	0.04
283.79	0.04
284.004	0.06
284.218	0.18
284.432	0.08
284.646	0.03
284.859	0.06
285.073	0.03
285.287	0.11
285.501	0.09
285.714	0.04
285.928	0.11
286.142	0.09
286.356	0.02
286.569	0.08
286.783	0.13
286.997	0.17
287.21	0.07
287.424	0.09
287.637	0.07
287.851	0.05
288.065	0.13
288.278	0.06
288.492	0.11
288.705	0.06
288.919	0.1
289.132	-0.03
289.346	0.13
289.559	-0
289.773	0.03
289.986	0.06
290.2	0.04
290.413	0.09
290.626	0.02
290.84	0.03
291.053	0.04
291.267	0.15
291.48	0.07
291.693	0.08
291.906	0.05
292.12	0.02
292.333	0.05
292.546	0.03
292.76	0.14
292.973	0.06
293.186	0.07
293.399	0.04
293.612	0.11
293.826	0.03
294.039	0.04
294.252	0.08
294.465	0.09
294.678	0.11
294.891	0.12
295.104	-0.01
295.317	0.05
295.53	0.08
295.743	0.03
295.956	0.05
296.169	0.15
296.382	0.08
296.595	0.07
296.808	0.04
297.021	0.12
297.234	0.1
297.447	0.06
297.66	0.06
297.873	0.12
298.086	0.09
298.299	-0
298.511	0.04
298.724	0.01
298.937	0.02
299.15	0.03
299.363	0.06
299.575	0.13
299.788	0.07
300.001	0.05
300.213	0.05
300.426	0.04
300.639	0.03
300.852	-0
301.064	0.08
301.277	0.12
301.489	0.09
301.702	0.1
301.915	0.04
302.127	0.07
302.34	0.11
302.552	0.13
302.765	0.02
302.977	0.09
303.19	0
303.402	0.07
303.615	0.06
303.827	0.01
304.04	0.08
304.252	0.1
304.464	0.05
304.677	0.13
304.889	0.11
305.102	0.02
305.314	0.03
305.526	0.11
305.739	0.09
305.951	0.03
306.163	0.11
306.375	0.13
306.588	0.04
306.8	0.06
307.012	0.02
307.224	0.09
307.436	0.15
307.649	-0.03
307.861	0.06
308.073	0.12
308.285	0.06
308.497	-0.02
308.709	0.04
308.921	0.08
309.133	0.13
309.346	0.1
309.558	0.05
309.77	0.12
309.982	0.15
310.194	0.12
310.406	0.01
310.617	0.12
310.829	0.11
311.041	0.08
311.253	0.02
311.465	0.06
311.677	0.05
311.889	0.05
312.101	0.03
312.313	0.06
312.524	0.11
312.736	-0.02
312.948	0.03
313.16	0.15
313.372	0.09
313.583	0.08
313.795	0.02
314.007	0.07
314.218	0.11
314.43	0.04
314.642	0.11
314.853	0.04
315.065	0.06
315.277	0.07
315.488	0.1
315.7	0.1
315.912	0.05
316.123	0.03
316.335	0.06
316.546	0.13
316.758	0.06
316.969	-0.02
317.181	0.12
317.392	0.09
317.604	0.1
317.815	0.01
318.026	0.07
318.238	0.04
318.449	0.1
318.661	-0.01
318.872	0
319.083	0.04
319.295	0.1
319.506	0.05
319.717	0.08
319.929	0.1
320.14	0.06
320.351	0.06
320.562	0.05
320.774	0.07
320.985	0.08
321.196	0.07
321.407	-0.01
321.618	0.1
321.829	0.04
322.041	0.07
322.252	0.1
322.463	0.12
322.674	0.12
322.885	-0.01
323.096	0.06
323.307	0.05
323.518	0.07
323.729	0.04
323.94	0.03
324.151	0.06
324.362	0.08
324.573	0.05
324.784	0.01
324.995	0.07
325.206	0.08
325.417	0.03
325.628	0.03
325.838	0.07
326.049	0.08
326.26	0.05
326.471	0.06
326.682	0.09
326.892	0.04
327.103	-0.03
327.314	0.01
327.525	0.1
327.735	0.04
327.946	0.07
328.157	0.06
328.368	0.09
328.578	0.09
328.789	0.09
328.999	0.06
329.21	0.03
329.421	0.09
329.631	0.02
329.842	0.03
330.052	0.08
330.263	0.08
330.473	0.1
330.684	0.04
330.894	0.05
331.105	0.05
331.315	0.03
331.526	0.03
331.736	0.14
331.947	0.05
332.157	0.07
332.367	0.01
332.578	0.09
332.788	0.12
332.999	0.09
333.209	0.1
333.419	-0
333.629	0.06
333.84	0.11
334.05	0.09
334.26	0.08
334.47	0.09
334.681	0.11
334.891	0.01
335.101	0.08
335.311	0.17
335.521	0.1
335.732	-0.01
335.942	0.14
336.152	0.11
336.362	0.08
336.572	0.04
336.782	0.08
336.992	0.06
337.202	0.04
337.412	0.05
337.622	0.11
337.832	0.05
338.042	0.14
338.252	0.05
338.462	0.06
338.672	0.03
338.882	0.02
339.092	0.09
339.302	0.12
339.511	0.1
339.721	0.05
339.931	0.03
340.141	0.12
340.351	0.11
340.561	0.1
340.77	0.08
340.98	0.08
341.19	0.08
341.4	0.05
341.609	-0.02
341.819	0.05
342.029	-0.04
342.238	0.1
342.448	-0.01
342.658	0.08
342.867	0.06
343.077	0.06
343.286	0.07
343.496	0.07
343.706	0.14
343.915	0.02
344.125	0.06
344.334	0.11
344.544	0.01
344.753	0
344.963	0.05
345.172	0.02
345.381	0.01
345.591	0.04
345.8	0.07
346.01	0.13
346.219	0.1
346.428	-0.1
346.638	0.07
346.847	0.04
347.056	0.08
347.266	0.02
347.475	0.03
347.684	0.1
347.893	0.07
348.103	0.07
348.312	0.04
348.521	0.07
348.73	0.04
348.94	0.07
349.149	0.02
349.358	0.04
349.567	0.01
349.776	0.03
349.985	-0
350.194	0.09
350.403	0.09
350.612	0.01
350.821	0.06
351.03	0.05
351.239	-0.03
351.448	0.02
351.657	0.02
351.866	0.1
352.075	0.05
352.284	0.11
352.493	0.03
352.702	0.13
352.911	0.09
353.12	0.06
353.329	0.07
353.538	0.09
353.746	0.05
353.955	0.02
354.164	0.02
354.373	0.06
354.582	0.07
354.79	0.06
354.999	0.11
355.208	0.07
355.416	0.1
355.625	0.04
355.834	0.05
356.042	0.1
356.251	0.04
356.46	-0.01
356.668	0.07
356.877	0.13
357.085	0.12
357.294	-0.06
357.503	0.07
357.711	0.06
357.92	0.15
358.128	0.1
358.337	0.01
358.545	0.1
358.754	0.02
358.962	0.07
359.17	0.03
359.379	0.09
359.587	0.1
359.796	0.03
360.004	0.06
360.212	0.05
360.421	0.12
360.629	0.04
360.837	0.07
361.046	0.12
361.254	0.19
361.462	0.07
361.67	-0.01
361.879	0.09
362.087	0.14
362.295	0.05
362.503	0.03
362.711	0.03
362.92	0.05
363.128	0.05
363.336	-0
363.544	-0.02
363.752	0.02
363.96	0.03
364.168	0.02
364.376	0.07
364.584	0.06
364.792	0.1
365	0.11
365.208	0.07
365.416	0.09
365.624	0.11
365.832	0.02
366.04	0.1
366.248	0.09
366.456	0.04
366.664	0.08
366.872	0.05
367.079	0.04
367.287	0.04
367.495	0.08
367.703	0.06
367.911	0.04
368.118	0.05
368.326	0.02
368.534	0.02
368.742	0.14
368.949	0.01
369.157	0.03
369.365	0.09
369.572	0.02
369.78	0.01
369.988	0.11
370.195	0.1
370.403	0.12
370.61	0.02
370.818	0.04
371.026	0.14
371.233	-0.02
371.441	0.08
371.648	0.05
371.856	0.08
372.063	0.1
372.271	0.03
372.478	0.03
372.685	0.03
372.893	0.07
373.1	0.07
373.308	0.02
373.515	0.11
373.722	0.1
373.93	0.07
374.137	0.09
374.344	0.09
374.552	0.08
374.759	0.05
374.966	0.08
375.173	0.04
375.381	0.05
375.588	0.07
375.795	-0.01
376.002	0.09
376.209	0.05
376.417	0.06
376.624	0.08
376.831	0.12
377.038	0.05
377.245	-0.03
377.452	0.04
377.659	0.03
377.866	0.02
378.073	0.04
378.28	0.04
378.487	0.11
378.694	0.08
378.901	0.04
379.108	0.09
379.315	0.07
379.522	0.13
379.729	0.08
379.936	0.04
380.143	0.08
380.35	0.09
380.557	0.07
380.763	0.08
380.97	0.07
381.177	0.05
381.384	0.08
381.591	0.03
381.797	0.05
382.004	0.08
382.211	0.1
382.418	0.02
382.624	0.12
382.831	0.06
383.038	0.04
383.244	0.04
383.451	0.07
383.658	0.12
383.864	0.09
384.071	0.05
384.277	0.17
384.484	0.04
384.69	0.08
384.897	0.02
385.103	0.06
385.31	0.03
385.516	0.05
385.723	0.05
385.929	0.06
386.136	0.06
386.342	0.12
386.549	0.08
386.755	0.12
386.961	0.12
387.168	0.04
387.374	0.06
387.58	0.09
387.787	0.07
387.993	0.08
388.199	0.03
388.406	0.04
388.612	0.09
388.818	0.02
389.024	0.05
389.231	0.05
389.437	0.13
389.643	0.1
389.849	0.08
390.055	0.07
390.261	0.03
390.467	0.1
390.674	-0.02
390.88	0.09
391.086	0.09
391.292	-0.01
391.498	0.11
391.704	0.09
391.91	0.07
392.116	0.03
392.322	0.01
392.528	0.08
392.734	0.08
392.94	0.05
393.146	0.07
393.352	0.02
393.557	0.05
393.763	0.08
393.969	0.1
394.175	0.04
394.381	0.06
394.587	0.04
394.792	0.07
394.998	0.1
395.204	0.11
395.41	0.04
395.615	0.06
395.821	0.07
396.027	0.11
396.233	0.06
396.438	0.12
396.644	0.12
396.85	0.14
397.055	0.07
397.261	0.03
397.466	0.18
397.672	0.07
397.878	0.12
398.083	0.08
398.289	0.06
398.494	0.12
398.7	0.1
398.905	-0
399.111	0.12
399.316	0.01
399.522	0.08
399.727	0.05
399.932	0.07
400.138	0.06
400.343	0.11
400.549	0.05
400.754	0.07
400.959	0.07
401.165	0.04
401.37	0.11
401.575	0.02
401.78	0.1
401.986	0.06
402.191	0.08
402.396	0.07
402.601	0.12
402.807	0.07
403.012	0.1
403.217	0.12
403.422	0.07
403.627	0.15
403.832	0.08
404.037	0.11
404.243	0.12
404.448	0.06
404.653	0.07
404.858	0.11
405.063	0.15
405.268	0.06
405.473	0.04
405.678	0.08
405.883	0.28
406.088	0.14
406.293	0.04
406.498	0.06
406.703	0.12
406.907	0.1
407.112	0.11
407.317	0.11
407.522	0.13
407.727	0.06
407.932	0.15
408.136	0.25
408.341	0.12
408.546	0.14
408.751	0.14
408.956	0.12
409.16	0.15
409.365	0.13
409.57	0.13
409.774	0.14
409.979	0.16
410.184	0.1
410.388	0.09
410.593	0.21
410.798	0.15
411.002	0.18
411.207	0.18
411.411	0.21
411.616	0.17
411.82	0.14
412.025	0.21
412.229	0.19
412.434	0.25
412.638	0.21
412.843	0.17
413.047	0.25
413.252	0.19
413.456	0.23
413.66	0.27
413.865	0.21
414.069	0.31
414.273	0.2
414.478	0.27
414.682	0.26
414.886	0.23
415.091	0.24
415.295	0.23
415.499	0.34
415.703	0.3
415.908	0.33
416.112	0.24
416.316	0.43
416.52	0.36
416.724	0.27
416.929	0.34
417.133	0.51
417.337	0.33
417.541	0.34
417.745	0.39
417.949	0.42
418.153	0.5
418.357	0.43
418.561	0.52
418.765	0.5
418.969	0.58
419.173	0.56
419.377	0.5
419.581	0.61
419.785	0.58
419.989	0.57
420.193	0.63
420.397	0.62
420.601	0.71
420.804	0.74
421.008	0.66
421.212	0.74
421.416	0.78
421.62	0.76
421.823	0.78
422.027	0.88
422.231	0.77
422.435	0.76
422.638	0.8
422.842	0.81
423.046	0.8
423.249	0.93
423.453	0.95
423.657	1.07
423.86	0.99
424.064	1.02
424.268	1.14
424.471	1.03
424.675	1.17
424.878	1.16
425.082	1.16
425.285	1.24
425.489	1.16
425.692	1.23
425.896	1.21
426.099	1.29
426.303	1.27
426.506	1.32
426.71	1.4
426.913	1.51
427.116	1.47
427.32	1.51
427.523	1.49
427.726	1.61
427.93	1.52
428.133	1.63
428.336	1.65
428.54	1.72
428.743	1.74
428.946	1.84
429.149	1.81
429.353	1.82
429.556	1.87
429.759	1.94
429.962	1.84
430.165	1.91
430.368	1.86
430.571	1.85
430.775	1.84
430.978	1.86
431.181	1.9
431.384	1.97
431.587	1.92
431.79	2.01
431.993	2.03
432.196	2.03
432.399	2.18
432.602	2.28
432.805	2.18
433.008	2.35
433.211	2.28
433.414	2.41
433.616	2.47
433.819	2.29
434.022	2.34
434.225	2.54
434.428	2.47
434.631	2.68
434.833	2.47
435.036	2.51
435.239	2.69
435.442	2.65
435.645	2.68
435.847	2.79
436.05	2.81
436.253	2.9
436.455	2.8
436.658	2.85
436.861	2.99
437.063	2.94
437.266	2.96
437.468	3.05
437.671	3.23
437.874	3.15
438.076	3.15
438.279	3.19
438.481	3.3
438.684	3.46
438.886	3.45
439.089	3.37
439.291	3.45
439.494	3.67
439.696	3.59
439.899	3.82
440.101	3.93
440.303	3.94
440.506	4.22
440.708	4.17
440.91	4.16
441.113	4.22
441.315	4.39
441.517	4.26
441.72	4.4
441.922	4.34
442.124	4.29
442.326	4.55
442.529	4.61
442.731	4.58
442.933	4.79
443.135	4.63
443.337	4.64
443.539	4.83
443.742	4.71
443.944	5.07
444.146	4.91
444.348	4.98
444.55	4.87
444.752	5
444.954	5.09
445.156	5.07
445.358	5.07
445.56	5.31
445.762	5.33
445.964	5.37
446.166	5.24
446.368	5.23
446.57	5.35
446.772	5.15
446.974	5.12
447.175	5.26
447.377	5.16
447.579	5.19
447.781	5.21
447.983	5.23
448.184	5.08
448.386	5.27
448.588	5
448.79	5.11
448.991	5.13
449.193	5.15
449.395	5
449.597	4.96
449.798	4.89
450	4.79
450.202	4.76
450.403	4.74
450.605	4.74
450.806	4.64
451.008	4.54
451.21	4.46
451.411	4.31
451.613	4.1
451.814	4.12
452.016	4.28
452.217	3.93
452.419	3.98
452.62	3.87
452.821	3.81
453.023	3.78
453.224	3.64
453.426	3.5
453.627	3.32
453.828	3.36
454.03	3.33
454.231	3.4
454.432	3.23
454.634	3.21
454.835	3.04
455.036	2.99
455.238	2.95
455.439	2.8
455.64	2.67
455.841	2.66
456.042	2.8
456.244	2.68
456.445	2.56
456.646	2.41
456.847	2.42
457.048	2.36
457.249	2.42
457.45	2.52
457.651	2.1
457.852	2.09
458.054	2.07
458.255	2.02
458.456	2.01
458.657	1.95
458.858	1.87
459.058	1.87
459.259	1.88
459.46	1.72
459.661	1.74
459.862	1.85
460.063	1.73
460.264	1.67
460.465	1.55
460.666	1.77
460.866	1.63
461.067	1.53
461.268	1.5
461.469	1.47
461.67	1.53
461.87	1.42
462.071	1.44
462.272	1.39
462.473	1.38
462.673	1.48
462.874	1.43
463.075	1.38
463.275	1.32
463.476	1.43
463.676	1.41
463.877	1.3
464.078	1.33
464.278	1.41
464.479	1.37
464.679	1.29
464.88	1.29
465.08	1.32
465.281	1.2
465.481	1.14
465.682	1.08
465.882	1.16
466.083	1.17
466.283	1.07
466.483	1.04
466.684	0.96
466.884	0.96
467.085	1.03
467.285	1
467.485	0.96
467.686	0.95
467.886	0.9
468.086	0.93
468.286	0.94
468.487	0.96
468.687	0.84
468.887	0.83
469.087	0.9
469.287	0.88
469.488	0.76
469.688	0.83
469.888	0.87
470.088	0.88
470.288	0.88
470.488	0.83
470.688	0.7
470.888	0.74
471.088	0.66
471.288	0.79
471.488	0.75
471.688	0.73
471.888	0.69
472.088	0.78
472.288	0.75
472.488	0.66
472.688	0.67
472.888	0.66
473.088	0.64
473.288	0.64
473.488	0.62
473.688	0.8
473.887	0.6
474.087	0.57
474.287	0.65
474.487	0.57
474.687	0.63
474.886	0.57
475.086	0.57
475.286	0.62
475.486	0.57
475.685	0.56
475.885	0.53
476.085	0.58
476.284	0.63
476.484	0.57
476.684	0.58
476.883	0.63
477.083	0.55
477.282	0.53
477.482	0.6
477.681	0.57
477.881	0.52
478.08	0.53
478.28	0.49
478.479	0.53
478.679	0.61
478.878	0.49
479.078	0.52
479.277	0.53
479.477	0.51
479.676	0.56
479.875	0.51
480.075	0.46
480.274	0.48
480.473	0.53
480.673	0.51
480.872	0.55
481.071	0.54
481.271	0.55
481.47	0.51
481.669	0.53
481.868	0.5
482.067	0.48
482.267	0.48
482.466	0.47
482.665	0.5
482.864	0.49
483.063	0.48
483.262	0.52
483.461	0.51
483.661	0.53
483.86	0.48
484.059	0.53
484.258	0.53
484.457	0.51
484.656	0.51
484.855	0.57
485.054	0.44
485.253	0.49
485.452	0.47
485.651	0.54
485.849	0.5
486.048	0.5
486.247	0.5
486.446	0.53
486.645	0.5
486.844	0.5
487.043	0.52
487.241	0.56
487.44	0.53
487.639	0.51
487.838	0.58
488.037	0.52
488.235	0.62
488.434	0.54
488.633	0.52
488.831	0.58
489.03	0.59
489.229	0.58
489.427	0.56
489.626	0.63
489.825	0.66
490.023	0.59
490.222	0.59
490.42	0.65
490.619	0.66
490.817	0.61
491.016	0.6
491.214	0.65
491.413	0.62
491.611	0.58
491.81	0.63
492.008	0.67
492.207	0.69
492.405	0.66
492.604	0.64
492.802	0.67
493	0.72
493.199	0.72
493.397	0.68
493.595	0.73
493.794	0.7
493.992	0.77
494.19	0.71
494.388	0.74
494.587	0.71
494.785	0.79
494.983	0.72
495.181	0.77
495.379	0.82
495.578	0.79
495.776	0.79
495.974	0.82
496.172	0.79
496.37	0.82
496.568	0.83
496.766	0.81
496.964	0.88
497.162	0.87
497.36	0.85
497.558	0.92
497.756	0.95
497.954	0.91
498.152	0.92
498.35	0.97
498.548	0.94
498.746	0.93
498.944	0.91
499.142	0.97
499.34	0.96
499.538	1.01
499.736	0.94
499.933	1.03
500.131	1.04
500.329	1.04
500.527	1.07
500.725	1.08
500.922	1.08
501.12	1.12
501.318	1.09
501.516	1.07
501.713	1.12
501.911	1.09
502.109	1.07
502.306	1.15
502.504	1.13
502.701	1.13
502.899	1.17
503.097	1.26
503.294	1.18
503.492	1.23
503.689	1.23
503.887	1.24
504.084	1.28
504.282	1.28
504.479	1.23
504.677	1.33
504.874	1.27
505.072	1.25
505.269	1.32
505.466	1.33
505.664	1.35
505.861	1.34
506.059	1.3
506.256	1.4
506.453	1.35
506.651	1.45
506.848	1.46
507.045	1.41
507.242	1.43
507.44	1.43
507.637	1.44
507.834	1.45
508.031	1.52
508.229	1.46
508.426	1.47
508.623	1.5
508.82	1.5
509.017	1.48
509.214	1.51
509.411	1.54
509.608	1.53
509.805	1.56
510.003	1.54
510.2	1.58
510.397	1.65
510.594	1.6
510.791	1.62
510.988	1.64
511.184	1.63
511.381	1.59
511.578	1.64
511.775	1.7
511.972	1.65
512.169	1.68
512.366	1.68
512.563	1.74
512.76	1.71
512.956	1.71
513.153	1.69
513.35	1.71
513.547	1.68
513.744	1.72
513.94	1.71
514.137	1.78
514.334	1.79
514.53	1.79
514.727	1.87
514.924	1.83
515.12	1.8
515.317	1.79
515.514	1.81
515.71	1.74
515.907	1.87
516.103	1.87
516.3	1.85
516.497	1.88
516.693	1.89
516.89	1.88
517.086	1.85
517.283	1.97
517.479	1.87
517.676	1.92
517.872	1.92
518.068	1.93
518.265	1.91
518.461	1.91
518.658	1.95
518.854	1.97
519.05	1.95
519.247	1.94
519.443	1.94
519.639	2.01
519.836	1.96
520.032	1.95
520.228	2.01
520.424	2.05
520.621	2.03
520.817	1.99
521.013	2
521.209	2.04
521.405	2.1
521.601	2.02
521.798	2.03
521.994	2.09
522.19	2.01
522.386	2.02
522.582	2.08
522.778	2.09
522.974	2.06
523.17	2.06
523.366	2.05
523.562	2.11
523.758	2.09
523.954	2
524.15	2.1
524.346	2.13
524.542	2.13
524.738	2.11
524.934	2.12
525.129	2.12
525.325	2.12
525.521	2.11
525.717	2.2
525.913	2.1
526.109	2.16
526.304	2.15
526.5	2.13
526.696	2.17
526.892	2.14
527.087	2.24
527.283	2.17
527.479	2.21
527.674	2.11
527.87	2.15
528.066	2.15
528.261	2.17
528.457	2.17
528.653	2.18
528.848	2.17
529.044	2.21
529.239	2.17
529.435	2.22
529.63	2.17
529.826	2.24
530.021	2.2
530.217	2.24
530.412	2.2
530.608	2.19
530.803	2.21
530.999	2.19
531.194	2.2
531.389	2.28
531.585	2.19
531.78	2.24
531.975	2.27
532.171	2.25
532.366	2.21
532.561	2.21
532.757	2.23
532.952	2.29
533.147	2.2
533.342	2.26
533.538	2.22
533.733	2.33
533.928	2.19
534.123	2.25
534.318	2.23
534.513	2.25
534.709	2.3
534.904	2.3
535.099	2.29
535.294	2.29
535.489	2.3
535.684	2.24
535.879	2.25
536.074	2.28
536.269	2.27
536.464	2.28
536.659	2.24
536.854	2.31
537.049	2.29
537.244	2.31
537.439	2.24
537.634	2.3
537.828	2.3
538.023	2.28
538.218	2.26
538.413	2.26
538.608	2.3
538.803	2.28
538.997	2.25
539.192	2.32
539.387	2.29
539.582	2.28
539.776	2.26
539.971	2.29
540.166	2.29
540.36	2.28
540.555	2.35
540.75	2.32
540.944	2.34
541.139	2.35
541.334	2.33
541.528	2.32
541.723	2.34
541.917	2.3
542.112	2.27
542.306	2.26
542.501	2.26
542.695	2.29
542.89	2.25
543.084	2.29
543.279	2.32
543.473	2.33
543.668	2.29
543.862	2.27
544.056	2.29
544.251	2.33
544.445	2.33
544.64	2.34
544.834	2.23
545.028	2.23
545.222	2.31
545.417	2.39
545.611	2.33
545.805	2.33
546	2.24
546.194	2.3
546.388	2.31
546.582	2.31
546.776	2.32
546.97	2.34
547.165	2.32
547.359	2.31
547.553	2.27
547.747	2.33
547.941	2.38
548.135	2.29
548.329	2.36
548.523	2.34
548.717	2.3
548.911	2.33
549.105	2.29
549.299	2.33
549.493	2.34
549.687	2.28
549.881	2.37
550.075	2.31
550.269	2.22
550.463	2.39
550.657	2.3
550.85	2.32
551.044	2.27
551.238	2.31
551.432	2.32
551.626	2.34
551.82	2.35
552.013	2.26
552.207	2.31
552.401	2.35
552.594	2.26
552.788	2.31
552.982	2.34
553.176	2.28
553.369	2.35
553.563	2.34
553.756	2.27
553.95	2.35
554.144	2.31
554.337	2.32
554.531	2.28
554.724	2.35
554.918	2.34
555.111	2.36
555.305	2.31
555.498	2.3
555.692	2.4
555.885	2.35
556.079	2.31
556.272	2.31
556.466	2.32
556.659	2.32
556.852	2.35
557.046	2.29
557.239	2.29
557.432	2.31
557.626	2.33
557.819	2.38
558.012	2.34
558.206	2.38
558.399	2.33
558.592	2.32
558.785	2.3
558.979	2.33
559.172	2.3
559.365	2.35
559.558	2.27
559.751	2.28
559.944	2.39
560.138	2.29
560.331	2.37
560.524	2.33
560.717	2.32
560.91	2.32
561.103	2.33
561.296	2.3
561.489	2.35
561.682	2.35
561.875	2.36
562.068	2.37
562.261	2.32
562.454	2.39
562.647	2.3
562.84	2.37
563.032	2.33
563.225	2.34
563.418	2.29
563.611	2.34
563.804	2.31
563.997	2.26
564.19	2.23
564.382	2.34
564.575	2.33
564.768	2.36
564.961	2.32
565.153	2.28
565.346	2.32
565.539	2.35
565.731	2.29
565.924	2.44
566.117	2.37
566.309	2.34
566.502	2.32
566.695	2.27
566.887	2.32
567.08	2.3
567.272	2.34
567.465	2.31
567.657	2.33
567.85	2.33
568.042	2.32
568.235	2.37
568.427	2.28
568.62	2.29
568.812	2.33
569.005	2.3
569.197	2.29
569.389	2.29
569.582	2.31
569.774	2.29
569.966	2.26
570.159	2.28
570.351	2.29
570.543	2.32
570.736	2.3
570.928	2.25
571.12	2.29
571.312	2.28
571.505	2.23
571.697	2.36
571.889	2.31
572.081	2.3
572.273	2.21
572.465	2.32
572.658	2.27
572.85	2.32
573.042	2.31
573.234	2.27
573.426	2.3
573.618	2.27
573.81	2.31
574.002	2.28
574.194	2.3
574.386	2.27
574.578	2.21
574.77	2.27
574.962	2.25
575.154	2.2
575.346	2.27
575.538	2.27
575.729	2.28
575.921	2.27
576.113	2.23
576.305	2.33
576.497	2.29
576.689	2.19
576.88	2.22
577.072	2.28
577.264	2.28
577.456	2.24
577.647	2.22
577.839	2.29
578.031	2.22
578.223	2.19
578.414	2.19
578.606	2.26
578.798	2.3
578.989	2.26
579.181	2.27
579.372	2.3
579.564	2.26
579.755	2.29
579.947	2.23
580.139	2.25
580.33	2.2
580.522	2.22
580.713	2.15
580.905	2.21
581.096	2.24
581.287	2.24
581.479	2.23
581.67	2.27
581.862	2.19
582.053	2.19
582.244	2.15
582.436	2.27
582.627	2.22
582.818	2.18
583.01	2.19
583.201	2.23
583.392	2.2
583.583	2.22
583.775	2.12
583.966	2.17
584.157	2.2
584.348	2.22
584.54	2.14
584.731	2.24
584.922	2.2
585.113	2.13
585.304	2.21
585.495	2.17
585.686	2.2
585.877	2.2
586.068	2.2
586.259	2.16
586.45	2.18
586.641	2.16
586.832	2.18
587.023	2.2
587.214	2.14
587.405	2.15
587.596	2.12
587.787	2.17
587.978	2.18
588.169	2.11
588.36	2.13
588.551	2.1
588.742	2.13
588.932	2.15
589.123	2.07
589.314	2.17
589.505	2.12
589.696	2.11
589.886	2.08
590.077	2.09
590.268	2.06
590.458	2.05
590.649	1.99
590.84	2.16
591.03	2.09
591.221	2.11
591.412	2.04
591.602	2.11
591.793	2.07
591.984	2.02
592.174	2.05
592.365	2.2
592.555	2.02
592.746	2.08
592.936	2.07
593.127	2.11
593.317	2.1
593.508	2.06
593.698	2.01
593.889	2.03
594.079	2.01
594.269	2
594.46	2.03
594.65	2.07
594.84	1.99
595.031	2
595.221	1.99
595.411	1.98
595.602	2.03
595.792	2.01
595.982	1.94
596.172	2.1
596.363	2
596.553	2.02
596.743	2.02
596.933	1.99
597.123	1.98
597.314	1.9
597.504	1.92
597.694	1.98
597.884	1.96
598.074	1.96
598.264	1.94
598.454	1.99
598.644	1.97
598.834	1.93
599.024	1.86
599.214	1.93
599.404	1.97
599.594	1.92
599.784	1.86
599.974	2
600.164	1.93
600.354	1.87
600.544	1.89
600.734	1.9
600.924	1.95
601.114	1.87
601.303	1.89
601.493	1.87
601.683	1.87
601.873	1.9
602.063	1.82
602.252	1.93
602.442	1.74
602.632	1.81
602.821	1.79
603.011	1.85
603.201	1.84
603.39	1.85
603.58	1.77
603.77	1.86
603.959	1.88
604.149	1.8
604.339	1.83
604.528	1.88
604.718	1.82
604.907	1.82
605.097	1.81
605.286	1.76
605.476	1.8
605.665	1.83
605.855	1.78
606.044	1.82
606.234	1.83
606.423	1.78
606.612	1.77
606.802	1.79
606.991	1.78
607.181	1.81
607.37	1.77
607.559	1.7
607.749	1.75
607.938	1.72
608.127	1.72
608.316	1.67
608.506	1.74
608.695	1.75
608.884	1.71
609.073	1.72
609.263	1.74
609.452	1.74
609.641	1.65
609.83	1.64
610.019	1.68
610.208	1.63
610.397	1.65
610.586	1.71
610.775	1.65
610.965	1.63
611.154	1.61
611.343	1.62
611.532	1.61
611.721	1.63
611.91	1.62
612.099	1.65
612.287	1.62
612.476	1.53
612.665	1.66
612.854	1.58
613.043	1.64
613.232	1.57
613.421	1.52
613.61	1.59
613.798	1.59
613.987	1.65
614.176	1.58
614.365	1.58
614.554	1.54
614.742	1.63
614.931	1.55
615.12	1.6
615.309	1.52
615.497	1.58
615.686	1.47
615.875	1.55
616.063	1.51
616.252	1.5
616.44	1.5
616.629	1.5
616.818	1.52
617.006	1.5
617.195	1.46
617.383	1.48
617.572	1.47
617.76	1.44
617.949	1.43
618.137	1.46
618.326	1.54
618.514	1.39
618.703	1.39
618.891	1.47
619.079	1.4
619.268	1.47
619.456	1.37
619.644	1.52
619.833	1.41
620.021	1.43
620.209	1.39
620.398	1.44
620.586	1.39
620.774	1.42
620.962	1.39
621.151	1.46
621.339	1.31
621.527	1.33
621.715	1.34
621.903	1.33
622.092	1.36
622.28	1.41
622.468	1.33
622.656	1.34
622.844	1.32
623.032	1.34
623.22	1.25
623.408	1.37
623.596	1.37
623.784	1.36
623.972	1.27
624.16	1.32
624.348	1.36
624.536	1.29
624.724	1.26
624.912	1.32
625.1	1.32
625.288	1.28
625.476	1.25
625.664	1.3
625.851	1.23
626.039	1.27
626.227	1.24
626.415	1.24
626.603	1.2
626.79	1.28
626.978	1.25
627.166	1.27
627.354	1.24
627.541	1.18
627.729	1.15
627.917	1.27
628.104	1.25
628.292	1.21
628.48	1.22
628.667	1.21
628.855	1.24
629.042	1.26
629.23	1.16
629.418	1.18
629.605	1.21
629.793	1.13
629.98	1.15
630.168	1.17
630.355	1.17
630.543	1.22
630.73	1.12
630.917	1.14
631.105	1.23
631.292	1.14
631.48	1.12
631.667	1.22
631.854	1.1
632.042	1.09
632.229	1.08
632.416	1.12
632.604	1.13
632.791	1.06
632.978	1.15
633.165	1.14
633.353	1.16
633.54	1.18
633.727	1.01
633.914	1.05
634.101	0.97
634.289	1.11
634.476	1.07
634.663	1.04
634.85	1.07
635.037	0.98
635.224	0.96
635.411	1.1
635.598	1.08
635.785	1.06
635.972	1.01
636.159	1.05
636.346	0.97
636.533	1.01
636.72	1.02
636.907	0.99
637.094	1.01
637.281	0.92
637.468	0.97
637.655	1
637.842	1
638.029	0.98
638.215	1
638.402	0.98
638.589	0.93
638.776	0.91
638.963	0.93
639.149	0.98
639.336	1.08
639.523	0.92
639.709	0.92
639.896	0.96
640.083	0.99
640.27	0.99
640.456	0.91
640.643	0.94
640.829	0.85
641.016	0.91
641.203	0.87
641.389	0.92
641.576	0.93
641.762	0.9
641.949	0.87
642.135	0.94
642.322	0.92
642.508	0.78
642.695	0.89
642.881	0.83
643.068	0.82
643.254	0.83
643.441	0.88
643.627	0.86
643.813	0.8
644	0.9
644.186	0.81
644.372	0.87
644.559	0.86
644.745	0.83
644.931	0.79
645.118	0.83
645.304	0.83
645.49	0.74
645.676	0.8
645.862	0.83
646.049	0.86
646.235	0.8
646.421	0.9
646.607	0.86
646.793	0.78
646.979	0.76
647.165	0.79
647.352	0.77
647.538	0.8
647.724	0.75
647.91	0.78
648.096	0.75
648.282	0.81
648.468	0.73
648.654	0.79
648.84	0.77
649.026	0.76
649.212	0.73
649.397	0.72
649.583	0.72
649.769	0.75
649.955	0.75
650.141	0.72
650.327	0.76
650.513	0.69
650.698	0.77
650.884	0.64
651.07	0.72
651.256	0.7
651.442	0.7
651.627	0.69
651.813	0.73
651.999	0.67
652.184	0.69
652.37	0.72
652.556	0.65
652.741	0.72
652.927	0.59
653.113	0.65
653.298	0.67
653.484	0.65
653.669	0.63
653.855	0.62
654.04	0.67
654.226	0.65
654.412	0.68
654.597	0.62
654.782	0.63
654.968	0.68
655.153	0.67
655.339	0.6
655.524	0.57
655.71	0.71
655.895	0.58
656.08	0.62
656.266	0.68
656.451	0.63
656.636	0.58
656.822	0.62
657.007	0.57
657.192	0.6
657.378	0.53
657.563	0.61
657.748	0.66
657.933	0.62
658.118	0.55
658.304	0.55
658.489	0.6
658.674	0.57
658.859	0.53
659.044	0.61
659.229	0.61
659.414	0.54
659.599	0.56
659.785	0.48
659.97	0.56
660.155	0.55
660.34	0.56
660.525	0.55
660.71	0.52
660.895	0.59
661.08	0.53
661.264	0.52
661.449	0.6
661.634	0.55
661.819	0.57
662.004	0.57
662.189	0.49
662.374	0.52
662.559	0.45
662.743	0.45
662.928	0.5
663.113	0.52
663.298	0.46
663.483	0.49
663.667	0.54
663.852	0.5
664.037	0.57
664.221	0.47
664.406	0.54
664.591	0.52
664.775	0.52
664.96	0.48
665.145	0.53
665.329	0.49
665.514	0.46
665.698	0.44
665.883	0.42
666.068	0.55
666.252	0.48
666.437	0.46
666.621	0.46
666.806	0.47
666.99	0.48
667.174	0.41
667.359	0.49
667.543	0.46
667.728	0.45
667.912	0.42
668.096	0.52
668.281	0.42
668.465	0.44
668.649	0.46
668.834	0.42
669.018	0.42
669.202	0.43
669.387	0.43
669.571	0.47
669.755	0.43
669.939	0.46
670.124	0.42
670.308	0.45
670.492	0.47
670.676	0.43
670.86	0.42
671.044	0.39
671.228	0.48
671.413	0.37
671.597	0.37
671.781	0.36
671.965	0.42
672.149	0.41
672.333	0.42
672.517	0.36
672.701	0.43
672.885	0.37
673.069	0.37
673.253	0.43
673.437	0.4
673.621	0.39
673.804	0.41
673.988	0.41
674.172	0.43
674.356	0.26
674.54	0.42
674.724	0.48
674.908	0.31
675.091	0.42
675.275	0.35
675.459	0.39
675.643	0.4
675.826	0.4
676.01	0.39
676.194	0.38
676.377	0.42
676.561	0.4
676.745	0.34
676.928	0.36
677.112	0.37
677.296	0.37
677.479	0.32
677.663	0.32
677.846	0.38
678.03	0.38
678.213	0.34
678.397	0.36
678.58	0.31
678.764	0.34
678.947	0.29
679.131	0.35
679.314	0.4
679.498	0.33
679.681	0.37
679.865	0.4
680.048	0.32
680.231	0.37
680.415	0.3
680.598	0.38
680.781	0.37
680.965	0.33
681.148	0.36
681.331	0.28
681.514	0.35
681.698	0.3
681.881	0.32
682.064	0.34
682.247	0.36
682.43	0.23
682.614	0.32
682.797	0.34
682.98	0.37
683.163	0.27
683.346	0.35
683.529	0.25
683.712	0.26
683.895	0.34
684.078	0.27
684.261	0.32
684.444	0.31
684.627	0.34
684.81	0.3
684.993	0.3
685.176	0.36
685.359	0.23
685.542	0.26
685.725	0.33
685.908	0.28
686.091	0.23
686.274	0.38
686.457	0.28
686.639	0.33
686.822	0.31
687.005	0.32
687.188	0.3
687.371	0.37
687.553	0.29
687.736	0.31
687.919	0.37
688.102	0.33
688.284	0.27
688.467	0.24
688.65	0.3
688.832	0.23
689.015	0.24
689.197	0.22
689.38	0.39
689.563	0.37
689.745	0.26
689.928	0.29
690.11	0.23
690.293	0.25
690.475	0.2
690.658	0.29
690.84	0.26
691.023	0.3
691.205	0.26
691.388	0.26
691.57	0.28
691.752	0.33
691.935	0.14
692.117	0.26
692.3	0.22
692.482	0.26
692.664	0.25
692.847	0.29
693.029	0.31
693.211	0.3
693.393	0.2
693.576	0.23
693.758	0.22
693.94	0.23
694.122	0.22
694.304	0.25
694.487	0.24
694.669	0.34
694.851	0.2
695.033	0.21
695.215	0.21
695.397	0.19
695.579	0.24
695.761	0.16
695.943	0.14
696.125	0.29
696.308	0.24
696.49	0.14
696.671	0.37
696.853	0.24
697.035	0.34
697.217	0.25
697.399	0.25
697.581	0.16
697.763	0.21
697.945	0.16
698.127	0.19
698.309	0.26
698.491	0.23
698.672	0.25
698.854	0.27
699.036	0.24
699.218	0.16
699.399	0.26
699.581	0.23
699.763	0.19
699.945	0.1
700.126	0.2
700.308	0.22
700.49	0.19
700.671	0.1
700.853	0.14
701.035	0.2
701.216	0.23
701.398	0.13
701.579	0.19
701.761	0.28
701.943	0.17
702.124	0.16
702.306	0.14
702.487	0.29
702.669	0.15
702.85	0.17
703.031	0.11
703.213	0.22
703.394	0.26
703.576	0.15
703.757	0.29
703.938	0.25
704.12	0.36
704.301	0.21
704.483	0.12
704.664	0.21
704.845	0.28
705.026	0.22
705.208	0.16
705.389	0.19
705.57	0.23
705.751	0.19
705.933	0.2
706.114	0.21
706.295	0.17
706.476	0.11
706.657	0.32
706.838	0.26
707.02	0.22
707.201	0.17
707.382	0.18
707.563	0.17
707.744	0.19
707.925	0.19
708.106	0.07
708.287	0.2
708.468	0.25
708.649	0.13
708.83	0.22
709.011	0.19
709.192	0.17
709.373	0.08
709.554	0.14
709.734	0.16
709.915	0.28
710.096	0.17
710.277	0.06
710.458	0.2
710.639	0.19
710.819	0.11
711	0.18
711.181	0.29
711.362	0.25
711.542	0.13
711.723	0.2
711.904	0.25
712.085	0.2
712.265	0.17
712.446	0.06
712.627	0.17
712.807	0.21
712.988	0.16
713.168	0.08
713.349	0.21
713.53	0
713.71	0.06
713.891	0.09
714.071	0.18
714.252	0.1
714.432	0.11
714.613	0.09
714.793	0.15
714.974	0.24
715.154	0.21
715.334	0.16
715.515	0.22
715.695	0.01
715.876	0.11
716.056	0.14
716.236	0.09
716.417	0.14
716.597	0.09
716.777	0.29
716.957	0.12
717.138	0.12
717.318	0.11
717.498	0.1
717.678	0.1
717.859	0.14
718.039	0.03
718.219	0.16
718.399	0.18
718.579	0.07
718.759	0.06
718.939	0.16
719.12	0.14
719.3	0.12
719.48	-0.05
719.66	0.08
719.84	0.3
720.02	0.19
720.2	0.04
720.38	0.24
720.56	0.15
720.74	0.06
720.92	0.1
721.1	0.22
721.279	0.24
721.459	0.2
721.639	0.03
721.819	0.07
721.999	0.09
722.179	0.18
722.359	-0.01
722.538	0.18
722.718	0.18
722.898	0.05
723.078	0.16
723.257	0.08
723.437	0.12
723.617	0.1
723.797	0.06
723.976	0.09
724.156	0.18
724.336	0.27
724.515	0.28
724.695	-0.04
724.874	0.16
725.054	0.23
725.234	0.04
725.413	0.15
725.593	0.06
725.772	0.13
725.952	0.09
726.131	0.12
726.311	0.12
726.49	0.1
726.67	0.09
726.849	0.05
727.028	0.16
727.208	0.17
727.387	0.16
727.567	0.03
727.746	0.05
727.925	0.05
728.105	0.07
728.284	0.11
728.463	-0.01
728.643	0.09
728.822	0.1
729.001	0.02
729.18	0.14
729.359	0.15
729.539	0.12
729.718	0.08
729.897	0.18
730.076	0.17
730.255	-0.05
730.434	0.16
730.614	0.16
730.793	0.13
730.972	0.07
731.151	0.08
731.33	0.13
731.509	0.2
731.688	0.18
731.867	0.11
732.046	-0.01
732.225	0.26
732.404	0.05
732.583	0.02
732.762	0.15
732.941	0.1
733.12	0.16
733.298	0.17
733.477	0.14
733.656	0.06
733.835	0.02
734.014	0.28
734.193	0.03
734.371	0.21
734.55	0.17
734.729	-0.04
734.908	0.1
735.086	0.16
735.265	0.17
735.444	-0.09
735.623	-0.02
735.801	0.03
735.98	0.14
736.159	0.13
736.337	0.2
736.516	0.14
736.694	0.08
736.873	0.07
737.052	0.17
737.23	0.15
737.409	0.06
737.587	0.26
737.766	-0.05
737.944	0.01
738.123	0.16
738.301	0.15
738.479	0.14
738.658	0.15
738.836	-0.08
739.015	0.17
739.193	0.16
739.371	0.03
739.55	0.05
739.728	0.02
739.906	0.25
740.085	0.34
740.263	0.1
740.441	-0.09
740.62	0.32
740.798	0.22
740.976	0.05
741.154	0
741.332	0.22
741.511	0.05
741.689	0.07
741.867	0.19
742.045	0.21
742.223	0.1
742.401	0.07
742.579	0.04
742.757	0.17
742.935	-0.12
743.114	0.07
743.292	0.13
743.47	0.18
743.648	0.13
743.826	0.07
744.004	0.25
744.181	0.25
744.359	0.06
744.537	0.11
744.715	0.09
744.893	0.1
745.071	0.07
745.249	0.14
745.427	0.07
745.605	0.12
745.782	0.16
745.96	0.12
746.138	0.08
746.316	0.25
746.493	0.14
746.671	0.13
746.849	0.17
747.027	0.25
747.204	-0.11
747.382	0.18
747.56	-0.02
747.737	0.03
747.915	0.02
748.093	0.15
748.27	-0.07
748.448	0.12
748.625	-0
748.803	-0.02
748.98	-0
749.158	0.12
749.335	0.11
749.513	-0
749.69	0.06
749.868	0.13
750.045	0.2
750.223	-0.01
750.4	-0.18
750.578	0.21
750.755	0.15
750.932	-0.16
751.11	0.17
751.287	0.01
751.464	0.23
751.642	0.07
751.819	-0.02
751.996	0.03
752.173	0.11
752.351	0
752.528	0.16
752.705	0.11
752.882	0.11
753.06	0.14
753.237	0.09
753.414	0.26
753.591	0.24
753.768	0.14
753.945	0.03
754.122	0.01
754.299	0.06
754.476	0.08
754.654	0.06
754.831	0.23
755.008	0.09
755.185	0.01
755.362	-0.07
755.539	0.12
755.716	-0.05
755.892	0.06
756.069	0.04
756.246	0.04
756.423	0.06
756.6	0.1
756.777	0.09
756.954	0.17
757.131	0.05
757.307	-0.05
757.484	-0.01
757.661	0.08
757.838	0.08
758.015	-0.09
758.191	0.19
758.368	0.1
758.545	0.2
758.721	0.12
758.898	-0.02
759.075	0.12
759.251	0.18
759.428	0.11
759.605	-0.11
759.781	0.14
759.958	0.11
760.134	0.17
760.311	0.06
760.488	0.25
760.664	0.16
760.841	0.03
761.017	-0.07
761.194	0.12
761.37	0.17
761.547	0.09
761.723	0.06
761.899	0.32
762.076	-0
762.252	-0.06
762.429	-0.09
762.605	0.18
762.781	0.08
762.958	0.17
763.134	-0.04
763.31	0.03
763.486	0.2
763.663	-0.14
763.839	0.07
764.015	-0.09
764.191	0.06
764.368	0.02
764.544	-0.02
764.72	0.07
764.896	0.22
765.072	0.15
765.248	-0
765.425	-0.04
765.601	0.07
765.777	0.13
765.953	-0.09
766.129	-0.08
766.305	0.04
766.481	0.12
766.657	0.18
766.833	0.21
767.009	-0.13
767.185	0.1
767.361	0.02
767.537	-0.11
767.713	0.23
767.889	-0
768.065	0.04
768.24	0.03
768.416	0.21
768.592	-0.11
768.768	0.09
768.944	0.01
769.12	-0.04
769.295	-0.06
769.471	-0.06
769.647	-0.05
769.823	0.18
769.998	-0.03
770.174	-0.16
770.35	0.29
770.525	0.17
770.701	0.05
770.877	0.19
771.052	0.12
771.228	0.14
771.403	0.08
771.579	0.25
771.755	0.4
771.93	0.08
772.106	-0.03
772.281	-0.27
772.457	0.03
772.632	0.08
772.808	-0.18
772.983	0.04
773.159	-0.06
773.334	0.23
773.509	0.05
773.685	-0.03
773.86	0.43
774.036	0.34
774.211	0.1
774.386	0.02
774.562	0.01
774.737	0.12
774.912	-0.03
775.087	0.13
775.263	0.03
775.438	0.01
775.613	0.08
775.788	-0.04
775.964	0.21
776.139	0.44
776.314	-0.12
776.489	0.17
776.664	0.17
776.839	-0.12
777.014	0.2
777.19	0.14
777.365	0.36
777.54	0.33
777.715	0.11
777.89	0.03
778.065	-0.2
778.24	0.06
778.415	0.19
778.59	-0.11
778.765	-0.01
778.94	0.13
779.115	-0.07
779.289	0.08
779.464	0.05
779.639	0.09
779.814	-0.13
779.989	-0.14
780.164	0.31
780.339	0.11
780.513	0.02
780.688	-0.09
780.863	-0.02
781.038	0.17
781.212	-0.09
781.387	0.05
781.562	0.3
781.737	-0.09
781.911	0.03
782.086	0.09
782.261	0.06
782.435	0.08
782.61	-0.02
782.784	0.13
782.959	0.26
783.134	0.15
783.308	-0.24
783.483	-0.08
783.657	0.57
783.832	0.36
784.006	0.02
784.181	0.1
784.355	0.23
784.53	-0.1
784.704	-0.04
784.878	0.3
785.053	0.16
785.227	0.33
785.402	0.36
785.576	-0.03
785.75	0.06
785.925	0.04
786.099	0.05
786.273	0.08
786.448	0.16
786.622	0.25
786.796	0
786.97	-0.1
787.145	0.62
787.319	-0.32
787.493	-0.04
787.667	-0.26
787.841	0.06
788.015	0.42
788.19	0.03
788.364	0.18
788.538	0.08
788.712	0.33
788.886	0.08
789.06	0.47
789.234	0.16
789.408	-0.09
789.582	-0.04
789.756	-0.04
789.93	0.09
790.104	-0
790.278	0.03
790.452	-0.01
790.626	0.23
790.8	0.05
790.973	0.38
791.147	0.27
791.321	0.29
791.495	0.16
791.669	0.25
791.843	0.13
792.016	0.26
792.19	0.51
792.364	-0.16
792.538	0.54
792.711	0.37
792.885	-0.03
793.059	0.02
793.233	-0.45
793.406	0.22
793.58	-0.12
793.754	0.1
793.927	0.02
794.101	0.5
794.274	-0.01
794.448	0.24
794.622	-0.17
794.795	0.38
794.969	0.09
795.142	0.43
795.316	0.15
795.489	-0.02
795.663	0.2
795.836	0
796.009	-0.11
796.183	0.44
796.356	0.31
796.53	0.25
796.703	0.1
796.876	0.54
797.05	0.1
797.223	-0.08
797.396	0.14
797.57	0.24
797.743	0.34
797.916	0.08
798.09	0.08
798.263	0.43
798.436	0.08
798.609	0.06
798.782	-0.35
798.956	0.12
799.129	0.08
799.302	0.14
799.475	-0.16
799.648	0
799.821	0.15
799.994	-0
800.167	-0.31
800.34	0.34
800.514	0.01
800.687	-0.22
800.86	-0.06
801.033	0.27
801.206	-0.28
801.379	-0.45
801.551	0.29
801.724	0.26
801.897	0.45
802.07	-0.13
802.243	-0.43
802.416	0.13
802.589	0.02
802.762	0.24
802.935	0.13
803.107	0.4
803.28	0.57
803.453	0.29
803.626	-0.17
803.798	-0.11
803.971	0.07
804.144	0.24
804.317	0.2
804.489	0.21
804.662	-0
804.835	0.11
805.007	-0.04
805.18	0.5
805.353	0.08
805.525	0.16
805.698	-0.09
805.87	0.17
806.043	0.17
806.215	-0.3
806.388	-0.12
806.56	0.36
806.733	0.61
806.905	0.24
807.078	0.12
807.25	-0.26
807.423	0.08
807.595	0.2
807.768	-0.07
807.94	0.28
808.112	0.18
808.285	0.15
808.457	-0.52
808.629	-0.21
808.802	0.47
808.974	0.06
809.146	-0.02
809.318	-0.18
809.491	0.16
809.663	0.29
809.835	0.04
810.007	0.22
810.18	0.2
810.352	-0.26
810.524	-0
810.696	0.14
810.868	0.96
811.04	-0.07
811.212	-0.14
811.384	0.57
811.556	0.18
811.728	-0.01
811.901	0.85
812.073	0.08
812.245	0.72
812.417	0.27
812.589	-0.39
812.76	0.42
812.932	0.22
813.104	0.41
813.276	-0.23
813.448	0.29
813.62	-0.09
813.792	0.29
813.964	0.04
814.136	0.27
814.307	-0.12
814.479	-0.18
814.651	0.22
814.823	1.05
814.995	-0.04
815.166	0.18
815.338	-0.23
815.51	-0.22
815.681	1.02
815.853	-0.05
816.025	-0.29
816.196	0.81
816.368	0.35
816.54	-0.64
816.711	-0.12
816.883	0.54
817.054	1.19
817.226	-0.47
817.398	0.18
817.569	-0.43
817.741	0.24
817.912	0.15
818.084	-0.14
818.255	0.6
818.426	-0.01
818.598	0.12
818.769	-0.25
818.941	0.47
819.112	0.7
819.283	0.18
819.455	-0.4
819.626	0.18
819.798	0.22
819.969	0.14
820.14	-0.32
820.311	0.26
820.483	-0.03
820.654	0.29
820.825	0.19
820.996	-0.25
821.168	-0.33
821.339	0.03
821.51	-0.38
821.681	-0.29
821.852	0.13
822.023	-0.29
822.195	-0.69
822.366	0.59
822.537	0.27
822.708	0.26
822.879	-0.07
823.05	0.43
823.221	0.01
823.392	0.18
823.563	-0.2
823.734	0.37
823.905	-0.11
824.076	-0.22
824.247	0
824.418	-0.13
824.589	0.83
824.759	-0.03
824.93	-0.09
825.101	-0.36
825.272	0.25
825.443	0.58
825.614	0.81
825.784	-0.14
825.955	1.19
826.126	0.76
826.297	0.35
826.467	1.3
826.638	0.86
826.809	-0.5
826.98	-0.1
827.15	0.15
827.321	-0.34
827.492	0.66
827.662	0.08
827.833	0.91
828.003	0.16
828.174	-0.41
828.345	-0.67
828.515	1.08
828.686	0.33
828.856	-0.81
829.027	0.31
829.197	0.64
829.368	0.57
829.538	0.19
829.709	-0.64
829.879	0.49
830.049	0.2
830.22	0.04
830.39	0.23
830.56	0.84
830.731	0.19
830.901	-0.18
831.072	0.12
831.242	0.6
831.412	0.69
831.582	-0.04
831.753	-0.68
831.923	0.32
832.093	-0.14
832.263	0.22
832.434	-0.68
832.604	-0.49
832.774	0.94
832.944	-0.68
833.114	-0.1
833.284	0.51
833.454	-0.27
833.624	0.11
833.795	0.24
833.965	0.96
834.135	0.43
834.305	-0.31
834.475	-0.57
834.645	-0.18
834.815	-0.39
834.985	-0.03
835.155	-0.01
835.325	0.44
835.494	0.82
835.664	-0.64
835.834	-0.96
836.004	0.35
836.174	0.25
836.344	-0.13
836.514	-0.75
836.684	0.09
836.853	0.57
837.023	-0.06
837.193	-0.26
837.363	0.85
837.532	1.32
837.702	-0.18
837.872	-0.3
838.041	0.71
838.211	1.31
838.381	-1.19
838.55	-0.01
838.72	1.73
838.89	1.23
839.059	0.34
839.229	-0.4
839.398	1.67
839.568	-0.3
839.738	-0.13
839.907	0.08
840.077	0.43
840.246	-0.04
840.416	0.07
840.585	-0.48
840.755	1.49
840.924	0.88
841.093	-0.58
841.263	-0.56
841.432	-0.08
841.602	-0.32
841.771	-0.38
841.94	0.4
842.11	1.96
842.279	2.07
842.448	-0.46
842.617	-0.19
842.787	0.89
842.956	-0.49
843.125	0.24
843.294	0.08
843.464	1.41
843.633	0.07
843.802	-0.69
843.971	-0.21
844.14	0.64
844.309	0.3
844.479	-1.39
844.648	-0.88
844.817	-0.53
844.986	0.14
845.155	0.29
845.324	0.02
845.493	0.11
845.662	-1.25
845.831	0.84
846	0.3
846.169	-0.07
846.338	1.5
846.507	0.58
846.676	0.23
846.844	-0.43
847.013	1.48
847.182	-0.03
847.351	-0.19
847.52	-0.43
847.689	-0.16
847.858	-0.25
848.026	-0.23
848.195	0.55
848.364	-0.08
848.533	-0.3
848.701	0.82
848.87	-0.03
849.039	0.93
849.207	1.17
849.376	1.09
849.545	1.56
849.713	-0.4
849.882	0.58
850.051	-0.13
850.219	0.55
850.388	0.73
850.556	-0.61
850.725	-0.47
850.893	0.41
851.062	-0.43
851.23	0.86
851.399	-1.14
851.567	-0.7
851.736	0.27
851.904	-1.21
852.073	0.2
852.241	0.78
852.41	0.35
852.578	-0.29
852.746	-0.84
852.915	0.03
853.083	0.19
853.251	-0.24
853.42	-0.13
853.588	-0.06
853.756	0.85
853.924	0.95
854.093	-0.09
854.261	0.34
854.429	-0.6
854.597	-0.27
854.765	-0.98
854.934	0.5
855.102	1.08
855.27	-0.29
855.438	0.57
855.606	1.54
855.774	2.44
855.942	-1.48
856.11	-2
856.278	1.09
856.446	1.47
856.614	0.61
856.782	-0.8
856.95	1.13
857.118	1.31
857.286	-0.1
857.454	-0.63
857.622	0.4
857.79	0.65
857.958	-1.81
858.126	-0.37
858.294	-2.66
858.462	-0.2
858.629	-0.74
858.797	0.75
858.965	0.82
859.133	0.5
859.301	0.16
859.468	-0.13
859.636	-1
859.804	2.83
859.971	0.83
860.139	-1.61
860.307	1.02
860.474	0.65
860.642	-0.53
860.81	0.68
860.977	0.47
861.145	1.13
861.313	1.15
861.48	-1.06
861.648	0.95
861.815	1.18
861.983	-1.01
862.15	-0.04
862.318	2.26
862.485	0.28
862.653	-1.4
862.82	-0.83
862.988	1.26
863.155	2.55
863.322	-0.14
863.49	-0.9
863.657	0.24
863.824	2.13
863.992	0.13
864.159	1.79
864.326	-0.21
864.494	-0.13
864.661	2.36
864.828	-1.45
864.996	0.64
865.163	1.67
865.33	-0.98
865.497	-2.02
865.664	-0.98
865.832	-1.87
865.999	-0.82
866.166	-0.85
866.333	-0.48
866.5	-0.8
866.667	0.01
866.834	0.96
867.001	2.82
867.168	-1.74
867.335	0.63
867.502	-1.59
867.669	0.8
867.836	2.25
868.003	0.11
868.17	2.18
868.337	-1.84
868.504	3.44
868.671	-1.9
868.838	-0.65
869.005	1.34
869.172	0.82
869.339	0.76
869.505	-0.35
869.672	0.42
869.839	1.36
870.006	0.23
870.173	-1.97
870.339	1.35
870.506	3.94
870.673	-1.39
870.84	2.33
871.006	0.96
871.173	-1.18
871.34	1.23
871.506	-1.3
871.673	1.86
871.839	-0.25
872.006	1.19
872.173	-1.43
872.339	0.06
872.506	1.44
872.672	-0.37
872.839	-2.33
873.005	0.65
873.172	1.81
873.338	1.63
873.505	-1.48
873.671	0.82
873.838	1.55
874.004	-1.38
874.171	-0.26
874.337	1.49
874.503	3.09
874.67	-0.37
874.836	-0.18
875.002	4.13
875.169	0.45
875.335	0.4
875.501	-0.57
875.668	2
875.834	-0.18
876	0.44
876.166	1.07
876.332	2.38
876.499	2.67
876.665	-1.35
876.831	-0.06
876.997	2.27
877.163	0.27
877.329	-0.19
877.495	0.91
877.662	1.55
877.828	-0
877.994	-0.02
878.16	-0.73
878.326	-1.04
878.492	0.57
878.658	1.2
878.824	-0.47
878.99	2.43
879.156	-0.02
879.322	2.95
879.487	-0.85
879.653	1.66
879.819	0.44
879.985	-1.88
880.151	0.65
880.317	2.05
880.483	-1.84
880.648	-0.23
880.814	-2.6
880.98	2.6
881.146	-1.66
881.312	-0.08
881.477	0.15
881.643	1.63
881.809	2.33
881.974	1.76
882.14	-0.34
882.306	-0.12
882.471	2.54
882.637	-1.32
882.803	0.78
882.968	5.7
883.134	2.8
883.299	1.72
883.465	-0
883.63	2.79
883.796	2.05
883.961	0.64
884.127	0.72
884.292	-2.88
884.458	-1.24
884.623	-1.24
