Data from Apollo_Calib_20240827__AbsoluteIrradiance__287__03-56-02-508.txt Node

Date: Wed Aug 28 03:56:02 BST 2024
User: biology
Spectrometer: FLMT08252
Trigger mode: 0
Integration Time (sec): 5.000000E-1
Scans to average: 5
Electric dark correction enabled: true
Nonlinearity correction enabled: false
Boxcar width: 0
XAxis mode: Wavelengths
Number of Pixels in Spectrum: 3648
>>>>>Begin Spectral Data<<<<<
179.588	-0
179.809	-0
180.03	-0
180.251	-0
180.473	-0
180.694	0
180.915	0
181.136	-0
181.357	-0
181.578	-0
181.799	0
182.02	-0
182.241	-0
182.462	-0
182.683	0
182.904	-0
183.125	-0
183.346	0
183.567	0
183.788	0
184.009	-0
184.23	0
184.451	0
184.672	-0
184.892	-0
185.113	0
185.334	0
185.555	-0
185.776	-0
185.996	0
186.217	0
186.438	0
186.659	-0
186.879	0
187.1	-0
187.321	0
187.541	0
187.762	0
187.983	0
188.203	0
188.424	0
188.644	0
188.865	0
189.086	-0
189.306	0
189.527	0
189.747	0
189.968	-0
190.188	0
190.409	0
190.629	0
190.849	0
191.07	-0
191.29	0
191.511	0
191.731	-0
191.951	0
192.172	0
192.392	0
192.612	0
192.833	0
193.053	0
193.273	0
193.493	-0
193.714	0
193.934	0
194.154	0
194.374	0
194.594	0
194.815	0
195.035	0
195.255	0
195.475	-0
195.695	0
195.915	0
196.135	0
196.355	0
196.575	0
196.795	0
197.015	-0
197.235	-0
197.455	-0
197.675	0
197.895	-0
198.115	-0
198.335	0
198.555	-0
198.775	0
198.995	0
199.214	0
199.434	0
199.654	0
199.874	0
200.094	1.39
200.313	0.07
200.533	0.03
200.753	-0.65
200.973	1.26
201.192	1.21
201.412	-0.15
201.632	0.16
201.851	1.62
202.071	-0.49
202.291	-0.08
202.51	-0.32
202.73	0.5
202.95	0.45
203.169	0.02
203.389	0.13
203.608	0.13
203.828	-0.25
204.047	-0.32
204.267	0.36
204.486	0.75
204.706	1.06
204.925	-0.09
205.145	0.13
205.364	0.89
205.583	0.88
205.803	0.11
206.022	0.02
206.242	0.12
206.461	0.6
206.68	0.07
206.9	0.37
207.119	0.82
207.338	1.13
207.557	-0.06
207.777	-0.09
207.996	0.31
208.215	0.78
208.434	-0.13
208.654	0.11
208.873	0.4
209.092	0.86
209.311	-0.09
209.53	0.02
209.749	0.32
209.968	0.23
210.187	0.22
210.407	0.02
210.626	0.17
210.845	0.42
211.064	0.26
211.283	0.06
211.502	0.54
211.721	0.2
211.94	-0.05
212.159	0.47
212.377	0.58
212.596	0.54
212.815	0.41
213.034	0.24
213.253	0.53
213.472	0.43
213.691	0.02
213.91	0.16
214.128	-0.04
214.347	0.59
214.566	-0.17
214.785	-0.08
215.003	0.34
215.222	0.3
215.441	0.16
215.66	0.14
215.878	0.05
216.097	0.42
216.316	-0.16
216.534	0.11
216.753	0.39
216.972	0.18
217.19	0.13
217.409	-0.03
217.627	0.07
217.846	0.01
218.064	0.28
218.283	-0.06
218.501	0.54
218.72	0.57
218.938	-0.06
219.157	-0.1
219.375	0.48
219.594	0.26
219.812	-0.02
220.031	0.04
220.249	0.53
220.467	0.41
220.686	0.04
220.904	0.02
221.122	0.12
221.341	0.61
221.559	0.12
221.777	-0.03
221.995	0.13
222.214	0.28
222.432	-0.14
222.65	0.37
222.868	0.26
223.086	0.3
223.305	0.27
223.523	0.13
223.741	0.49
223.959	0.03
224.177	-0.1
224.395	-0.02
224.613	0.27
224.831	0.28
225.049	0.08
225.267	0.09
225.485	0.14
225.703	0.1
225.921	0.1
226.139	0.07
226.357	0.23
226.575	0.18
226.793	0.14
227.011	0.78
227.229	0.18
227.447	0.29
227.665	0.18
227.883	-0.01
228.1	0.21
228.318	0.3
228.536	-0.11
228.754	0.03
228.972	0.28
229.189	0.24
229.407	0
229.625	0.11
229.843	0.34
230.06	0.35
230.278	-0.02
230.496	0.16
230.713	0.22
230.931	0.36
231.149	0.11
231.366	-0.12
231.584	0.15
231.801	0.47
232.019	0.17
232.236	-0.06
232.454	-0.02
232.671	0.07
232.889	0.1
233.106	0.08
233.324	0.14
233.541	0.11
233.759	0.13
233.976	0.06
234.194	0.16
234.411	0.14
234.628	0.05
234.846	0.06
235.063	0.18
235.28	0.11
235.498	0.12
235.715	0.03
235.932	0.25
236.149	0.09
236.367	-0.01
236.584	0.12
236.801	0.02
237.018	0.27
237.236	0.1
237.453	-0.19
237.67	0.17
237.887	0.09
238.104	0.07
238.321	-0.05
238.538	-0.06
238.755	0.24
238.973	0.02
239.19	0.13
239.407	0.19
239.624	0.17
239.841	-0.1
240.058	0.06
240.275	0.2
240.492	0.09
240.709	0.16
240.925	0.04
241.142	0.13
241.359	0
241.576	-0.06
241.793	-0.01
242.01	0.18
242.227	0.2
242.444	0.13
242.66	0.25
242.877	0.2
243.094	0.11
243.311	0.14
243.527	0.03
243.744	0.21
243.961	0.22
244.178	0.06
244.394	0.06
244.611	0.19
244.828	0.34
245.044	-0
245.261	0.12
245.477	0.14
245.694	0.11
245.911	-0
246.127	0.16
246.344	0.28
246.56	0.13
246.777	0.1
246.993	0.11
247.21	0.17
247.426	0.12
247.643	0.07
247.859	-0.09
248.076	0.05
248.292	0.3
248.508	0.04
248.725	0.11
248.941	0.12
249.157	0.31
249.374	0.03
249.59	0.06
249.806	0.12
250.023	0.15
250.239	0.05
250.455	0.07
250.671	0.14
250.888	0.13
251.104	0.13
251.32	0.09
251.536	0.1
251.752	0.09
251.969	0.13
252.185	0.08
252.401	0.33
252.617	0.11
252.833	0.04
253.049	0.12
253.265	0.13
253.481	0.12
253.697	0.07
253.913	-0.03
254.129	0.11
254.345	0.12
254.561	0.05
254.777	0.03
254.993	0.17
255.209	0.07
255.425	0.05
255.641	-0
255.857	0.17
256.073	0.12
256.288	-0.01
256.504	0.03
256.72	0.1
256.936	0.14
257.152	0.06
257.367	0.04
257.583	0.05
257.799	0.21
258.015	0.04
258.23	0.04
258.446	0.27
258.662	0.05
258.877	0.07
259.093	0.07
259.309	0.06
259.524	0.1
259.74	-0.02
259.955	0.01
260.171	0.03
260.387	0.08
260.602	0.18
260.818	0.12
261.033	0.01
261.249	0.08
261.464	0
261.68	0.02
261.895	0.09
262.11	0.23
262.326	0.05
262.541	-0
262.757	0.09
262.972	0.16
263.187	0.16
263.403	0.11
263.618	0.18
263.833	0.15
264.049	-0.01
264.264	0.11
264.479	0.08
264.694	0.18
264.91	-0.01
265.125	0.07
265.34	0.23
265.555	0.24
265.77	0.1
265.986	0.03
266.201	0.14
266.416	0.19
266.631	0.03
266.846	0.06
267.061	0.12
267.276	0.1
267.491	-0.04
267.706	0.1
267.921	0.08
268.136	0.16
268.351	0.09
268.566	-0.05
268.781	0.14
268.996	0.18
269.211	0.12
269.426	0.02
269.641	0.04
269.856	0.17
270.071	0
270.285	-0.02
270.5	0.12
270.715	0.13
270.93	0.04
271.145	0.08
271.359	0.13
271.574	0.05
271.789	0.1
272.004	-0.06
272.218	0.11
272.433	0.13
272.648	0
272.862	0.12
273.077	0.09
273.292	0.07
273.506	0.04
273.721	0.05
273.936	0.16
274.15	0.16
274.365	0.02
274.579	0.13
274.794	0.11
275.008	0.14
275.223	-0.01
275.437	0.13
275.652	0.17
275.866	0.11
276.081	0.07
276.295	0.09
276.509	0.06
276.724	0.11
276.938	0.08
277.153	0.11
277.367	0.19
277.581	0.04
277.796	-0.02
278.01	0.03
278.224	0.1
278.438	0.18
278.653	0
278.867	0.01
279.081	-0.12
279.295	0.08
279.51	0.12
279.724	-0.06
279.938	0.12
280.152	0.11
280.366	0.05
280.58	0.04
280.794	0.16
281.008	0.09
281.222	0.12
281.437	0.22
281.651	0.06
281.865	0.18
282.079	0.04
282.293	-0.04
282.507	0.03
282.721	0.1
282.935	0.07
283.148	-0.04
283.362	0.09
283.576	-0.02
283.79	0.09
284.004	0.02
284.218	0.17
284.432	0.02
284.646	0.04
284.859	0.06
285.073	0.05
285.287	0.06
285.501	0.09
285.714	0.01
285.928	0.12
286.142	0.06
286.356	0.06
286.569	0.05
286.783	0.11
286.997	0.1
287.21	0.1
287.424	0.1
287.637	0.06
287.851	0.04
288.065	0.11
288.278	0.07
288.492	0.06
288.705	0.05
288.919	0.09
289.132	0
289.346	0.17
289.559	-0.04
289.773	0
289.986	0.04
290.2	0.04
290.413	0.15
290.626	0.01
290.84	0.05
291.053	0.07
291.267	0.12
291.48	0.05
291.693	0.08
291.906	0.04
292.12	0.06
292.333	0.06
292.546	0.05
292.76	0.13
292.973	0.13
293.186	0.09
293.399	0.01
293.612	0.13
293.826	0.06
294.039	0.05
294.252	-0
294.465	0.1
294.678	0.08
294.891	0.05
295.104	0.04
295.317	0
295.53	0.12
295.743	0.04
295.956	0
296.169	0.17
296.382	0.11
296.595	0.04
296.808	-0.01
297.021	0.13
297.234	0.09
297.447	0.06
297.66	0.09
297.873	0.14
298.086	0.17
298.299	0.03
298.511	0.05
298.724	0.05
298.937	0.03
299.15	0.04
299.363	0.07
299.575	0.13
299.788	0.08
300.001	0.03
300.213	-0.02
300.426	0.04
300.639	0.06
300.852	0.01
301.064	0.09
301.277	0.18
301.489	0.14
301.702	0.08
301.915	0.07
302.127	0.04
302.34	0.08
302.552	0.06
302.765	0.03
302.977	0.1
303.19	0.06
303.402	0.03
303.615	0.02
303.827	0.04
304.04	0.05
304.252	0.15
304.464	0.05
304.677	0.18
304.889	0.13
305.102	0.02
305.314	0
305.526	0.11
305.739	0.09
305.951	0
306.163	0.02
306.375	0.11
306.588	0.06
306.8	0.03
307.012	0.03
307.224	0.06
307.436	0.12
307.649	-0.03
307.861	0.06
308.073	0.12
308.285	0.1
308.497	0.03
308.709	0.01
308.921	-0.01
309.133	0.08
309.346	0.07
309.558	0.06
309.77	0.1
309.982	0.13
310.194	0.12
310.406	0.04
310.617	0.15
310.829	0.12
311.041	0.1
311.253	0.02
311.465	0.08
311.677	0.06
311.889	0.08
312.101	0.04
312.313	0.06
312.524	0.14
312.736	0.01
312.948	0.08
313.16	0.13
313.372	0.06
313.583	0.06
313.795	0.04
314.007	-0.03
314.218	0.06
314.43	0.05
314.642	0.01
314.853	0.02
315.065	0.12
315.277	0.06
315.488	0.09
315.7	0.08
315.912	0.1
316.123	0.03
316.335	0.07
316.546	0.2
316.758	0.05
316.969	0.04
317.181	0.05
317.392	0.03
317.604	0.13
317.815	0.01
318.026	0
318.238	0.06
318.449	0.1
318.661	0
318.872	-0.01
319.083	0.04
319.295	0.08
319.506	0.08
319.717	0.11
319.929	0.11
320.14	0.08
320.351	0.1
320.562	0.04
320.774	0.04
320.985	0.08
321.196	0.05
321.407	0.06
321.618	0.14
321.829	0.09
322.041	0.07
322.252	0.1
322.463	0.1
322.674	0.12
322.885	0.04
323.096	0.05
323.307	0.02
323.518	0.09
323.729	0.05
323.94	0.04
324.151	0.03
324.362	0.09
324.573	0.1
324.784	0.03
324.995	0.1
325.206	0.07
325.417	0.07
325.628	0.03
325.838	0.05
326.049	0.1
326.26	0.06
326.471	-0.01
326.682	0.1
326.892	0.1
327.103	0.05
327.314	-0
327.525	0.15
327.735	0.1
327.946	0.05
328.157	0.02
328.368	0.09
328.578	0.05
328.789	0.11
328.999	0.07
329.21	-0.01
329.421	0.08
329.631	0.01
329.842	0.05
330.052	0.1
330.263	0.13
330.473	0.11
330.684	0.08
330.894	0.07
331.105	0.09
331.315	0.05
331.526	0.04
331.736	0.1
331.947	0.14
332.157	0.08
332.367	0.02
332.578	0.1
332.788	0.14
332.999	0.11
333.209	0.06
333.419	0
333.629	0.06
333.84	0.05
334.05	0.05
334.26	0.15
334.47	0.15
334.681	0.11
334.891	0.08
335.101	0.11
335.311	0.18
335.521	0.04
335.732	0.04
335.942	0.13
336.152	0.11
336.362	0.09
336.572	0.06
336.782	0.1
336.992	0.07
337.202	0.04
337.412	0.05
337.622	0.05
337.832	0.06
338.042	0.07
338.252	0.03
338.462	0.06
338.672	0.07
338.882	0.09
339.092	0.06
339.302	0.17
339.511	0.1
339.721	0.06
339.931	0.03
340.141	0.09
340.351	0.15
340.561	0.1
340.77	0.09
340.98	0.07
341.19	0.14
341.4	0.06
341.609	-0
341.819	0.04
342.029	0.03
342.238	0.06
342.448	0.02
342.658	0.08
342.867	0.09
343.077	0.1
343.286	0.06
343.496	0.1
343.706	0.15
343.915	0.01
344.125	0.08
344.334	0.1
344.544	0.03
344.753	0.05
344.963	0.03
345.172	0.03
345.381	0.03
345.591	0.03
345.8	0.09
346.01	0.14
346.219	0.11
346.428	-0.03
346.638	0.04
346.847	0.07
347.056	0.16
347.266	0.01
347.475	0.06
347.684	0.11
347.893	0.11
348.103	0.07
348.312	0.03
348.521	0.04
348.73	0.07
348.94	0.07
349.149	0.06
349.358	0.06
349.567	0.08
349.776	0
349.985	0.06
350.194	0.16
350.403	0.13
350.612	-0.02
350.821	0.07
351.03	0.09
351.239	0.03
351.448	0.09
351.657	0.04
351.866	0.17
352.075	0.09
352.284	0.09
352.493	0.03
352.702	0.14
352.911	0.11
353.12	0.07
353.329	0.05
353.538	0.1
353.746	0.08
353.955	0.05
354.164	0.1
354.373	0.11
354.582	0.12
354.79	0.08
354.999	0.12
355.208	0.1
355.416	0.15
355.625	0.04
355.834	0
356.042	0.08
356.251	0.09
356.46	0.06
356.668	0.09
356.877	0.16
357.085	0.15
357.294	-0.01
357.503	0.05
357.711	0.07
357.92	0.22
358.128	0.09
358.337	0.06
358.545	0.09
358.754	0.06
358.962	0.14
359.17	0.1
359.379	0.07
359.587	0.12
359.796	0.08
360.004	0.13
360.212	0.11
360.421	0.11
360.629	0.06
360.837	0.05
361.046	0.08
361.254	0.19
361.462	0.11
361.67	0.08
361.879	0.09
362.087	0.12
362.295	0.08
362.503	0.04
362.711	0.06
362.92	0.05
363.128	0.05
363.336	0.04
363.544	0.01
363.752	0.04
363.96	0.05
364.168	0.07
364.376	0.11
364.584	0.14
364.792	0.13
365	0.08
365.208	0.09
365.416	0.09
365.624	0.12
365.832	0.06
366.04	0.16
366.248	0.05
366.456	0.09
366.664	0.08
366.872	0.09
367.079	0.09
367.287	0.09
367.495	0.06
367.703	0.1
367.911	0.06
368.118	0.1
368.326	0.07
368.534	0.04
368.742	0.12
368.949	0.01
369.157	0.08
369.365	0.12
369.572	0.06
369.78	0.04
369.988	0.13
370.195	0.11
370.403	0.12
370.61	0.02
370.818	0.12
371.026	0.12
371.233	0.03
371.441	0.1
371.648	0.11
371.856	0.13
372.063	0.05
372.271	0.04
372.478	0.07
372.685	0.08
372.893	0.15
373.1	0.1
373.308	0.08
373.515	0.15
373.722	0.13
373.93	0.07
374.137	0.16
374.344	0.18
374.552	0.14
374.759	0.11
374.966	0.14
375.173	0.02
375.381	0.16
375.588	0.09
375.795	0.09
376.002	0.08
376.209	0.1
376.417	0.11
376.624	0.11
376.831	0.12
377.038	0.1
377.245	0.04
377.452	0.07
377.659	0.09
377.866	0.05
378.073	0.09
378.28	0.09
378.487	0.13
378.694	0.15
378.901	0.09
379.108	0.09
379.315	0.13
379.522	0.16
379.729	0.09
379.936	0.09
380.143	0.08
380.35	0.09
380.557	0.08
380.763	0.13
380.97	0.12
381.177	0.16
381.384	0.13
381.591	0.09
381.797	0.12
382.004	0.18
382.211	0.13
382.418	0.1
382.624	0.12
382.831	0.15
383.038	0.1
383.244	0.14
383.451	0.11
383.658	0.15
383.864	0.1
384.071	0.09
384.277	0.21
384.484	0.06
384.69	0.2
384.897	0.11
385.103	0.11
385.31	0.07
385.516	0.1
385.723	0.09
385.929	0.15
386.136	0.07
386.342	0.16
386.549	0.12
386.755	0.19
386.961	0.17
387.168	0.13
387.374	0.15
387.58	0.17
387.787	0.15
387.993	0.12
388.199	0.1
388.406	0.14
388.612	0.1
388.818	0.14
389.024	0.15
389.231	0.16
389.437	0.25
389.643	0.18
389.849	0.13
390.055	0.16
390.261	0.18
390.467	0.2
390.674	0.13
390.88	0.21
391.086	0.21
391.292	0.13
391.498	0.24
391.704	0.21
391.91	0.23
392.116	0.24
392.322	0.09
392.528	0.24
392.734	0.24
392.94	0.2
393.146	0.21
393.352	0.23
393.557	0.26
393.763	0.24
393.969	0.23
394.175	0.27
394.381	0.28
394.587	0.21
394.792	0.27
394.998	0.31
395.204	0.32
395.41	0.28
395.615	0.34
395.821	0.37
396.027	0.32
396.233	0.3
396.438	0.36
396.644	0.38
396.85	0.43
397.055	0.38
397.261	0.41
397.466	0.38
397.672	0.48
397.878	0.56
398.083	0.5
398.289	0.43
398.494	0.59
398.7	0.59
398.905	0.46
399.111	0.62
399.316	0.52
399.522	0.58
399.727	0.55
399.932	0.6
400.138	0.66
400.343	0.67
400.549	0.7
400.754	0.75
400.959	0.78
401.165	0.83
401.37	0.89
401.575	1
401.78	0.91
401.986	0.96
402.191	1.01
402.396	1.04
402.601	1.14
402.807	1.17
403.012	1.2
403.217	1.34
403.422	1.3
403.627	1.43
403.832	1.49
404.037	1.53
404.243	1.61
404.448	1.6
404.653	1.64
404.858	1.79
405.063	1.76
405.268	1.85
405.473	1.91
405.678	2.03
405.883	2.33
406.088	2.24
406.293	2.27
406.498	2.42
406.703	2.52
406.907	2.69
407.112	2.73
407.317	2.96
407.522	3.11
407.727	3.16
407.932	3.36
408.136	3.64
408.341	3.55
408.546	3.78
408.751	3.93
408.956	3.97
409.16	4.27
409.365	4.38
409.57	4.47
409.774	4.64
409.979	4.99
410.184	4.98
410.388	5.1
410.593	5.45
410.798	5.69
411.002	6
411.207	6.06
411.411	6.37
411.616	6.52
411.82	6.91
412.025	7.11
412.229	7.36
412.434	7.6
412.638	7.78
412.843	8.15
413.047	8.3
413.252	8.5
413.456	9.12
413.66	9.26
413.865	9.37
414.069	9.6
414.273	10.07
414.478	10.21
414.682	10.55
414.886	10.95
415.091	10.96
415.295	11.51
415.499	12.07
415.703	12.04
415.908	12.61
416.112	12.83
416.316	13.34
416.52	13.69
416.724	13.89
416.929	14.34
417.133	14.99
417.337	14.95
417.541	15.53
417.745	15.78
417.949	16.01
418.153	16.68
418.357	16.85
418.561	17.71
418.765	17.73
418.969	18.04
419.173	19.02
419.377	19.13
419.581	19.76
419.785	20.12
419.989	20.33
420.193	21.06
420.397	21.11
420.601	21.38
420.804	21.87
421.008	21.71
421.212	22.22
421.416	21.72
421.62	21.99
421.823	21.91
422.027	22.09
422.231	21.81
422.435	21.57
422.638	21.47
422.842	21.81
423.046	21.91
423.249	22.12
423.453	21.78
423.657	21.97
423.86	22.15
424.064	22.22
424.268	21.91
424.471	21.76
424.675	21.86
424.878	21.46
425.082	21.65
425.285	22.3
425.489	21.39
425.692	21.32
425.896	20.81
426.099	20.73
426.303	20.8
426.506	20.55
426.71	20.56
426.913	20.15
427.116	20.25
427.32	19.46
427.523	19.23
427.726	19.07
427.93	18.84
428.133	19.16
428.336	18.71
428.54	18.42
428.743	18.34
428.946	18.04
429.149	17.51
429.353	16.95
429.556	16.33
429.759	15.76
429.962	15.42
430.165	15.2
430.368	14.09
430.571	13.56
430.775	13.2
430.978	12.57
431.181	12.32
431.384	11.79
431.587	11.6
431.79	11.63
431.993	11.19
432.196	11.06
432.399	11.1
432.602	10.88
432.805	10.57
433.008	10.8
433.211	10.28
433.414	10.26
433.616	9.88
433.819	9.52
434.022	9.43
434.225	9.18
434.428	8.84
434.631	8.91
434.833	8.45
435.036	8.33
435.239	8.26
435.442	7.95
435.645	7.86
435.847	7.61
436.05	7.46
436.253	7.4
436.455	7.18
436.658	6.95
436.861	6.91
437.063	6.65
437.266	6.5
437.468	6.52
437.671	6.38
437.874	6.15
438.076	5.87
438.279	5.84
438.481	5.73
438.684	5.85
438.886	5.47
439.089	5.36
439.291	5.2
439.494	5.2
439.696	5.12
439.899	5.12
440.101	5.09
440.303	4.89
440.506	5.05
440.708	4.81
440.91	4.66
441.113	4.51
441.315	4.47
441.517	4.11
441.72	4.31
441.922	3.96
442.124	3.78
442.326	3.88
442.529	3.79
442.731	3.58
442.933	3.62
443.135	3.42
443.337	3.28
443.539	3.26
443.742	3.06
443.944	3.13
444.146	2.96
444.348	2.96
444.55	2.79
444.752	2.76
444.954	2.66
445.156	2.61
445.358	2.55
445.56	2.62
445.762	2.38
445.964	2.35
446.166	2.26
446.368	2.25
446.57	2.2
446.772	2.13
446.974	1.94
447.175	2.02
447.377	1.93
447.579	2.02
447.781	1.78
447.983	1.93
448.184	1.74
448.386	1.81
448.588	1.62
448.79	1.7
448.991	1.63
449.193	1.63
449.395	1.53
449.597	1.52
449.798	1.48
450	1.5
450.202	1.47
450.403	1.43
450.605	1.43
450.806	1.35
451.008	1.23
451.21	1.35
451.411	1.27
451.613	1.13
451.814	1.15
452.016	1.23
452.217	1.15
452.419	1.21
452.62	1.09
452.821	1.04
453.023	1.15
453.224	1.07
453.426	1
453.627	1.01
453.828	1.01
454.03	0.91
454.231	1.06
454.432	0.94
454.634	1.02
454.835	0.82
455.036	0.87
455.238	0.93
455.439	0.94
455.64	0.77
455.841	0.77
456.042	0.94
456.244	0.83
456.445	0.78
456.646	0.71
456.847	0.73
457.048	0.78
457.249	0.83
457.45	0.98
457.651	0.73
457.852	0.72
458.054	0.68
458.255	0.6
458.456	0.63
458.657	0.6
458.858	0.59
459.058	0.61
459.259	0.64
459.46	0.6
459.661	0.53
459.862	0.66
460.063	0.63
460.264	0.61
460.465	0.46
460.666	0.6
460.866	0.49
461.067	0.48
461.268	0.49
461.469	0.42
461.67	0.46
461.87	0.45
462.071	0.46
462.272	0.41
462.473	0.46
462.673	0.46
462.874	0.44
463.075	0.46
463.275	0.38
463.476	0.45
463.676	0.43
463.877	0.4
464.078	0.39
464.278	0.48
464.479	0.39
464.679	0.4
464.88	0.36
465.08	0.47
465.281	0.32
465.481	0.37
465.682	0.36
465.882	0.37
466.083	0.4
466.283	0.36
466.483	0.36
466.684	0.27
466.884	0.29
467.085	0.3
467.285	0.37
467.485	0.27
467.686	0.3
467.886	0.26
468.086	0.31
468.286	0.28
468.487	0.34
468.687	0.26
468.887	0.28
469.087	0.32
469.287	0.23
469.488	0.26
469.688	0.32
469.888	0.32
470.088	0.3
470.288	0.3
470.488	0.32
470.688	0.17
470.888	0.21
471.088	0.19
471.288	0.28
471.488	0.31
471.688	0.27
471.888	0.19
472.088	0.28
472.288	0.3
472.488	0.21
472.688	0.19
472.888	0.23
473.088	0.21
473.288	0.23
473.488	0.23
473.688	0.3
473.887	0.24
474.087	0.18
474.287	0.25
474.487	0.18
474.687	0.23
474.886	0.17
475.086	0.18
475.286	0.22
475.486	0.21
475.685	0.2
475.885	0.14
476.085	0.18
476.284	0.2
476.484	0.17
476.684	0.19
476.883	0.23
477.083	0.22
477.282	0.15
477.482	0.23
477.681	0.22
477.881	0.18
478.08	0.1
478.28	0.15
478.479	0.17
478.679	0.23
478.878	0.14
479.078	0.12
479.277	0.18
479.477	0.17
479.676	0.19
479.875	0.16
480.075	0.07
480.274	0.16
480.473	0.15
480.673	0.15
480.872	0.19
481.071	0.11
481.271	0.17
481.47	0.08
481.669	0.12
481.868	0.1
482.067	0.11
482.267	0.09
482.466	0.07
482.665	0.07
482.864	0.09
483.063	0.08
483.262	0.12
483.461	0.15
483.661	0.15
483.86	0.1
484.059	0.1
484.258	0.12
484.457	0.11
484.656	0.08
484.855	0.17
485.054	0.06
485.253	0.08
485.452	0.05
485.651	0.13
485.849	0.11
486.048	0.09
486.247	0.07
486.446	0.11
486.645	0.07
486.844	0.07
487.043	0.09
487.241	0.11
487.44	0.06
487.639	0.07
487.838	0.09
488.037	0.12
488.235	0.17
488.434	0.07
488.633	0.06
488.831	0.11
489.03	0.13
489.229	0.1
489.427	0.07
489.626	0.12
489.825	0.13
490.023	0.09
490.222	0.08
490.42	0.12
490.619	0.12
490.817	0.12
491.016	0.05
491.214	0.12
491.413	0.07
491.611	0.04
491.81	0.08
492.008	0.07
492.207	0.12
492.405	0.1
492.604	0.07
492.802	0.06
493	0.06
493.199	0.05
493.397	0.08
493.595	0.07
493.794	0.07
493.992	0.14
494.19	0.06
494.388	0.08
494.587	0.06
494.785	0.07
494.983	0.04
495.181	0.07
495.379	0.07
495.578	0.06
495.776	0.06
495.974	0.09
496.172	0.06
496.37	0.04
496.568	0.03
496.766	0.06
496.964	0.11
497.162	0.08
497.36	0.06
497.558	0.08
497.756	0.06
497.954	0.06
498.152	0.04
498.35	0.08
498.548	0.05
498.746	0.08
498.944	0.02
499.142	0.05
499.34	0.04
499.538	0.07
499.736	0.04
499.933	0.1
500.131	0.08
500.329	0.08
500.527	0.09
500.725	0.08
500.922	0.09
501.12	0.05
501.318	0.07
501.516	0.05
501.713	0.08
501.911	0.07
502.109	0.02
502.306	0.06
502.504	0.06
502.701	0.04
502.899	0.07
503.097	0.12
503.294	0.08
503.492	0.05
503.689	0.08
503.887	0.09
504.084	0.1
504.282	0.05
504.479	0.04
504.677	0.07
504.874	0.01
505.072	0.07
505.269	0.07
505.466	0.08
505.664	0.04
505.861	0.03
506.059	0.05
506.256	0.07
506.453	0.04
506.651	0.09
506.848	0.09
507.045	0.06
507.242	0.07
507.44	0.04
507.637	0.07
507.834	0.05
508.031	0.08
508.229	0.01
508.426	0.05
508.623	0.08
508.82	0.03
509.017	0.03
509.214	0.04
509.411	0.07
509.608	0.02
509.805	0.06
510.003	0.03
510.2	0.06
510.397	0.09
510.594	0.04
510.791	0.03
510.988	0.06
511.184	0.09
511.381	0.04
511.578	0.02
511.775	0.07
511.972	0.04
512.169	0.05
512.366	0.05
512.563	0.07
512.76	0.03
512.956	0.06
513.153	0.04
513.35	0.05
513.547	0.04
513.744	0.03
513.94	0.02
514.137	0.07
514.334	0.07
514.53	0.03
514.727	0.04
514.924	0.1
515.12	0.02
515.317	-0
515.514	0.03
515.71	0
515.907	0.04
516.103	0.08
516.3	0.07
516.497	0.06
516.693	0.08
516.89	0.02
517.086	0.02
517.283	0.04
517.479	0.05
517.676	0.02
517.872	0.03
518.068	0.03
518.265	0.03
518.461	0.03
518.658	0.01
518.854	0.06
519.05	0.02
519.247	0.03
519.443	0.06
519.639	0.04
519.836	0.05
520.032	0.05
520.228	0.02
520.424	0.1
520.621	0.05
520.817	0.04
521.013	0.06
521.209	0.05
521.405	0.1
521.601	0.06
521.798	0.05
521.994	0.08
522.19	0.02
522.386	0.02
522.582	0.04
522.778	0.06
522.974	-0
523.17	0.04
523.366	0.07
523.562	0.08
523.758	0.03
523.954	0.03
524.15	0.04
524.346	0.04
524.542	0.03
524.738	0.02
524.934	0.04
525.129	0.04
525.325	0.05
525.521	0.04
525.717	0.06
525.913	0.04
526.109	0.05
526.304	0.05
526.5	0.06
526.696	0.06
526.892	0.04
527.087	0.04
527.283	0.03
527.479	0.04
527.674	0.02
527.87	0.02
528.066	0.02
528.261	0.08
528.457	0.05
528.653	0.04
528.848	0.02
529.044	0.04
529.239	0.03
529.435	0.07
529.63	0.04
529.826	0.08
530.021	0.03
530.217	0.06
530.412	0.02
530.608	0.02
530.803	0.04
530.999	0.03
531.194	-0.02
531.389	0.04
531.585	-0.01
531.78	0.04
531.975	0.04
532.171	0.07
532.366	0.03
532.561	0.03
532.757	0.01
532.952	0.04
533.147	0.06
533.342	0.03
533.538	0.03
533.733	0.07
533.928	0.04
534.123	0.04
534.318	0.02
534.513	0.03
534.709	0.05
534.904	0.02
535.099	0.03
535.294	0.03
535.489	0.05
535.684	0.02
535.879	-0.01
536.074	0.03
536.269	-0
536.464	0.04
536.659	0.03
536.854	0.02
537.049	0.06
537.244	0.03
537.439	0.02
537.634	0.07
537.828	0.05
538.023	0.02
538.218	0.01
538.413	0.05
538.608	0
538.803	0.07
538.997	-0
539.192	0.06
539.387	0.04
539.582	0.04
539.776	0.05
539.971	0.03
540.166	0.03
540.36	0.01
540.555	0.02
540.75	0.02
540.944	0.04
541.139	0
541.334	0.02
541.528	0.04
541.723	0.04
541.917	0.02
542.112	0
542.306	0.04
542.501	0.02
542.695	0.03
542.89	0.01
543.084	0.03
543.279	0.03
543.473	0.02
543.668	0.03
543.862	0.02
544.056	0.03
544.251	0.04
544.445	0.03
544.64	0.02
544.834	0.01
545.028	0.04
545.222	0.04
545.417	0.06
545.611	0.05
545.805	0.01
546	0.05
546.194	0.02
546.388	0
546.582	0.06
546.776	0.04
546.97	0.03
547.165	0.01
547.359	0.06
547.553	0.01
547.747	0.03
547.941	0.04
548.135	0.03
548.329	0.06
548.523	0.04
548.717	0.03
548.911	0.02
549.105	0.03
549.299	0.03
549.493	0.05
549.687	0.04
549.881	0.02
550.075	0.03
550.269	-0.02
550.463	0.05
550.657	0.02
550.85	0.04
551.044	0.01
551.238	0.04
551.432	0.02
551.626	0
551.82	0.06
552.013	0.01
552.207	0.02
552.401	0.02
552.594	0.05
552.788	0.03
552.982	0.03
553.176	0.01
553.369	0.03
553.563	0.05
553.756	-0
553.95	-0
554.144	0.04
554.337	0.05
554.531	0.05
554.724	0.04
554.918	0.03
555.111	0.05
555.305	0.03
555.498	0.07
555.692	0.05
555.885	0
556.079	0.04
556.272	0.01
556.466	0.05
556.659	0.03
556.852	0.01
557.046	0.03
557.239	0.08
557.432	-0.01
557.626	0
557.819	0.04
558.012	0.05
558.206	0.05
558.399	0.04
558.592	0.03
558.785	0.02
558.979	0.05
559.172	0.04
559.365	0.06
559.558	0.03
559.751	0
559.944	0.06
560.138	0.02
560.331	0.02
560.524	0.03
560.717	0.01
560.91	0.03
561.103	0.05
561.296	0.03
561.489	0.02
561.682	0.04
561.875	0.06
562.068	0.02
562.261	0.02
562.454	0.06
562.647	0.06
562.84	0.04
563.032	0.01
563.225	0.04
563.418	0.02
563.611	0.02
563.804	0.02
563.997	0.01
564.19	-0.01
564.382	0.04
564.575	0.03
564.768	0.03
564.961	0.02
565.153	0.01
565.346	0.03
565.539	0.06
565.731	0.06
565.924	0.06
566.117	0.03
566.309	0.03
566.502	0.01
566.695	0.01
566.887	0.02
567.08	0.02
567.272	0.02
567.465	0.03
567.657	0.03
567.85	0.02
568.042	0.03
568.235	0.06
568.427	0.03
568.62	0.02
568.812	0.03
569.005	0.04
569.197	-0.02
569.389	0.02
569.582	0.02
569.774	0.05
569.966	0
570.159	-0.02
570.351	0.04
570.543	0
570.736	0.03
570.928	-0
571.12	0.03
571.312	0.01
571.505	-0.02
571.697	0.05
571.889	0.01
572.081	0.04
572.273	-0
572.465	0.06
572.658	0.02
572.85	0.01
573.042	0.01
573.234	0.02
573.426	0.08
573.618	-0.01
573.81	0.06
574.002	0.07
574.194	0.06
574.386	-0.01
574.578	-0.05
574.77	-0.01
574.962	0.02
575.154	-0.01
575.346	0.01
575.538	0.05
575.729	-0
575.921	0.01
576.113	0.01
576.305	0.06
576.497	0.01
576.689	0.05
576.88	-0
577.072	0.05
577.264	0.01
577.456	0.01
577.647	-0.04
577.839	0.02
578.031	0.07
578.223	0
578.414	-0.01
578.606	0.04
578.798	0.04
578.989	0.01
579.181	0.01
579.372	0
579.564	-0.01
579.755	0.02
579.947	0.04
580.139	0.05
580.33	-0.04
580.522	-0.02
580.713	-0.05
580.905	0.03
581.096	0.04
581.287	0.02
581.479	0.02
581.67	0.06
581.862	0.01
582.053	0.01
582.244	-0.01
582.436	0.01
582.627	0.01
582.818	0.03
583.01	-0.02
583.201	0.05
583.392	0.05
583.583	0.02
583.775	0.01
583.966	0
584.157	0.01
584.348	0
584.54	-0.04
584.731	0.02
584.922	0.02
585.113	-0.01
585.304	0.03
585.495	0.04
585.686	0.01
585.877	0.05
586.068	0.04
586.259	0.04
586.45	0
586.641	0
586.832	-0.01
587.023	0.03
587.214	0.02
587.405	0.02
587.596	0
587.787	0.08
587.978	0.03
588.169	-0.02
588.36	-0.01
588.551	0.04
588.742	-0.02
588.932	0.02
589.123	0.01
589.314	0.06
589.505	0.04
589.696	0.03
589.886	-0.02
590.077	-0.03
590.268	0.05
590.458	-0.01
590.649	-0.03
590.84	0.06
591.03	-0.02
591.221	-0.03
591.412	-0.03
591.602	0.04
591.793	0.06
591.984	-0.03
592.174	0.02
592.365	0.09
592.555	-0.01
592.746	-0.01
592.936	0.06
593.127	0.06
593.317	0.06
593.508	0
593.698	0
593.889	0.02
594.079	0.02
594.269	-0.01
594.46	0.01
594.65	0.01
594.84	0.01
595.031	-0.03
595.221	0
595.411	-0.03
595.602	0.06
595.792	0
595.982	-0.03
596.172	0.09
596.363	0.03
596.553	0.02
596.743	0.03
596.933	0.03
597.123	0.06
597.314	0
597.504	0.01
597.694	0.05
597.884	0.03
598.074	0.01
598.264	0.01
598.454	0.05
598.644	0
598.834	0.03
599.024	-0.05
599.214	0.02
599.404	0.01
599.594	0
599.784	-0
599.974	0.07
600.164	0.06
600.354	-0.02
600.544	-0.03
600.734	0.02
600.924	0.04
601.114	-0
601.303	0.02
601.493	0.02
601.683	0.03
601.873	0.02
602.063	-0.04
602.252	0.04
602.442	-0.04
602.632	-0.01
602.821	-0.02
603.011	0.04
603.201	-0.01
603.39	0
603.58	-0.03
603.77	0.03
603.959	0.07
604.149	0
604.339	-0.01
604.528	0.05
604.718	0.05
604.907	0.01
605.097	-0.02
605.286	-0.03
605.476	0.04
605.665	-0
605.855	0.02
606.044	0.06
606.234	0.04
606.423	0.04
606.612	-0.01
606.802	0.03
606.991	0.01
607.181	0.02
607.37	-0.02
607.559	-0
607.749	-0.03
607.938	0
608.127	0.01
608.316	0.01
608.506	0.05
608.695	0.01
608.884	-0.01
609.073	0.03
609.263	0.04
609.452	0.03
609.641	0.02
609.83	-0.03
610.019	0.03
610.208	-0.01
610.397	-0
610.586	0.03
610.775	0
610.965	0
611.154	-0.01
611.343	0.02
611.532	0.03
611.721	-0.02
611.91	-0.01
612.099	0.03
612.287	0
612.476	-0
612.665	0.01
612.854	0.02
613.043	0.07
613.232	0.03
613.421	-0.03
613.61	0.04
613.798	-0.01
613.987	0.03
614.176	0.02
614.365	0.03
614.554	0.04
614.742	0.04
614.931	0.02
615.12	0.05
615.309	0.01
615.497	-0
615.686	-0.03
615.875	0.01
616.063	0.05
616.252	-0.01
616.44	-0.01
616.629	0.01
616.818	0.04
617.006	0.03
617.195	-0.01
617.383	0.01
617.572	0.02
617.76	-0.01
617.949	0.01
618.137	0.04
618.326	0.04
618.514	-0.01
618.703	-0.01
618.891	0.08
619.079	-0.04
619.268	0.02
619.456	0.03
619.644	0.05
619.833	0.01
620.021	-0
620.209	-0.03
620.398	0.01
620.586	0.03
620.774	0.04
620.962	0.02
621.151	0.03
621.339	0
621.527	-0.01
621.715	-0.04
621.903	-0.03
622.092	0.02
622.28	0.06
622.468	-0
622.656	-0
622.844	0.01
623.032	-0.01
623.22	-0.02
623.408	0.04
623.596	0.03
623.784	0.03
623.972	-0.02
624.16	0.01
624.348	0.08
624.536	0.04
624.724	0.01
624.912	0.07
625.1	0.07
625.288	0
625.476	-0.02
625.664	0.05
625.851	-0.04
626.039	0.03
626.227	0.04
626.415	0.02
626.603	-0.07
626.79	-0.01
626.978	-0.02
627.166	0.04
627.354	0.03
627.541	-0.01
627.729	-0.03
627.917	0.05
628.104	0.07
628.292	0.02
628.48	-0.01
628.667	0.03
628.855	0.02
629.042	0.02
629.23	-0.02
629.418	0.04
629.605	0.01
629.793	-0.03
629.98	-0
630.168	0.01
630.355	0.02
630.543	0.04
630.73	-0.02
630.917	0.04
631.105	0.08
631.292	0.01
631.48	0.02
631.667	0.07
631.854	0.03
632.042	-0
632.229	-0.04
632.416	0.02
632.604	0.01
632.791	-0.03
632.978	0.04
633.165	0.01
633.353	0.08
633.54	0.05
633.727	-0.05
633.914	0.01
634.101	-0.05
634.289	0.04
634.476	-0.04
634.663	-0.04
634.85	0.02
635.037	-0.03
635.224	-0.05
635.411	0.02
635.598	0.06
635.785	0.02
635.972	0.02
636.159	0.07
636.346	-0.04
636.533	0.01
636.72	-0.01
636.907	-0.01
637.094	0.07
637.281	0.01
637.468	0.02
637.655	-0.02
637.842	-0
638.029	-0.01
638.215	0.05
638.402	0.04
638.589	0.01
638.776	-0.02
638.963	0
639.149	0.04
639.336	0.06
639.523	0.02
639.709	0.01
639.896	-0.02
640.083	0.05
640.27	0.04
640.456	-0.02
640.643	0.03
640.829	-0.01
641.016	-0
641.203	-0
641.389	0.06
641.576	0.03
641.762	-0
641.949	-0.03
642.135	0.03
642.322	0.03
642.508	-0.04
642.695	0.01
642.881	-0
643.068	-0.01
643.254	-0.02
643.441	0.01
643.627	0.01
643.813	-0.01
644	0.06
644.186	0
644.372	0.02
644.559	0.06
644.745	-0.02
644.931	-0.02
645.118	0.01
645.304	0
645.49	-0.02
645.676	-0.01
645.862	0
646.049	0.07
646.235	0.01
646.421	0.07
646.607	0.06
646.793	0.02
646.979	0.01
647.165	0.04
647.352	0.04
647.538	0.06
647.724	0.01
647.91	0.03
648.096	0.07
648.282	0.09
648.468	0.01
648.654	-0.01
648.84	0.04
649.026	0.03
649.212	0.03
649.397	-0.01
649.583	-0.04
649.769	0.04
649.955	-0.01
650.141	0.03
650.327	0.08
650.513	0
650.698	0
650.884	-0.05
651.07	0.04
651.256	0
651.442	0.02
651.627	-0
651.813	0.04
651.999	0
652.184	0.03
652.37	0.01
652.556	-0.03
652.741	0.08
652.927	-0.08
653.113	0.01
653.298	0.01
653.484	0.04
653.669	-0.05
653.855	-0.02
654.04	0.02
654.226	0.03
654.412	-0.02
654.597	-0
654.782	0.02
654.968	0.07
655.153	0.02
655.339	-0
655.524	-0.04
655.71	0.04
655.895	0.01
656.08	-0
656.266	0.07
656.451	0.03
656.636	-0.03
656.822	0.04
657.007	-0.04
657.192	-0.01
657.378	-0.02
657.563	0
657.748	-0
657.933	-0.01
658.118	0
658.304	-0
658.489	0.02
658.674	0.02
658.859	-0.04
659.044	0
659.229	0.06
659.414	-0.01
659.599	-0.01
659.785	-0.04
659.97	-0.03
660.155	0.03
660.34	0.05
660.525	-0.01
660.71	0
660.895	0.03
661.08	0.02
661.264	0.01
661.449	0.07
661.634	0.07
661.819	0.03
662.004	0.03
662.189	-0.07
662.374	-0.04
662.559	-0.03
662.743	-0.04
662.928	-0.01
663.113	-0.01
663.298	-0.05
663.483	-0
663.667	0.01
663.852	-0.01
664.037	0.06
664.221	-0.01
664.406	0.03
664.591	0.04
664.775	0.01
664.96	0.01
665.145	0.02
665.329	0.04
665.514	0
665.698	0.03
665.883	-0.04
666.068	0.08
666.252	0.04
666.437	0.01
666.621	0
666.806	0.02
666.99	-0.01
667.174	-0.03
667.359	0.06
667.543	-0.01
667.728	-0.02
667.912	-0.06
668.096	0.01
668.281	-0.01
668.465	-0.02
668.649	0.02
668.834	-0.01
669.018	-0
669.202	-0.02
669.387	-0.04
669.571	0.04
669.755	-0.01
669.939	-0.01
670.124	0.04
670.308	0.08
670.492	0.04
670.676	0.03
670.86	0.01
671.044	-0.02
671.228	0.06
671.413	-0.03
671.597	-0.03
671.781	0
671.965	0.02
672.149	-0
672.333	0
672.517	-0.02
672.701	-0.01
672.885	-0
673.069	-0.06
673.253	0.07
673.437	0.02
673.621	-0.02
673.804	-0.03
673.988	-0
674.172	0
674.356	-0.06
674.54	0.01
674.724	0.1
674.908	-0.01
675.091	0.03
675.275	-0.02
675.459	0.06
675.643	-0.01
675.826	0.01
676.01	0.01
676.194	0.01
676.377	0.06
676.561	0.03
676.745	-0.02
676.928	0.05
677.112	0.07
677.296	-0.01
677.479	-0
677.663	-0.01
677.846	0.06
678.03	0.03
678.213	0
678.397	0.01
678.58	0.01
678.764	-0.01
678.947	-0.01
679.131	-0.07
679.314	0.08
679.498	-0.01
679.681	0.04
679.865	0.07
680.048	-0.01
680.231	-0.02
680.415	0.02
680.598	-0.02
680.781	-0.01
680.965	-0.04
681.148	0.04
681.331	0
681.514	-0
681.698	-0.07
681.881	0.02
682.064	0.04
682.247	-0.01
682.43	-0.03
682.614	0.04
682.797	0.06
682.98	0.02
683.163	-0.04
683.346	0.01
683.529	-0.02
683.712	-0
683.895	-0.03
684.078	-0.04
684.261	0.03
684.444	0.11
684.627	0.03
684.81	-0.03
684.993	0.01
685.176	-0
685.359	-0.06
685.542	-0.04
685.725	0.1
685.908	0.02
686.091	-0.02
686.274	0.06
686.457	0.07
686.639	-0.01
686.822	0.04
687.005	-0
687.188	0.06
687.371	0.08
687.553	0.03
687.736	0.04
687.919	0.07
688.102	0.13
688.284	-0.02
688.467	-0
688.65	-0.04
688.832	0.01
689.015	0.02
689.197	-0.07
689.38	0.12
689.563	0.06
689.745	0.01
689.928	-0.02
690.11	0.05
690.293	0.04
690.475	-0.06
690.658	0.01
690.84	0.02
691.023	-0.03
691.205	-0.06
691.388	-0.01
691.57	0.09
691.752	0.05
691.935	-0.08
692.117	-0.01
692.3	-0.01
692.482	0.03
692.664	-0.01
692.847	-0
693.029	0.06
693.211	0.05
693.393	-0.01
693.576	0.02
693.758	0.02
693.94	-0.01
694.122	-0
694.304	0.04
694.487	0.03
694.669	0.08
694.851	0
695.033	0.01
695.215	-0.03
695.397	-0.05
695.579	0.05
695.761	-0.02
695.943	-0.05
696.125	0.12
696.308	0.06
696.49	-0.11
696.671	0.09
696.853	0.02
697.035	0.12
697.217	-0.02
697.399	0
697.581	-0.05
697.763	0
697.945	-0.02
698.127	0.04
698.309	0.1
698.491	-0.01
698.672	0.09
698.854	0.03
699.036	0.06
699.218	-0.01
699.399	0.02
699.581	0.03
699.763	0
699.945	-0.04
700.126	0
700.308	0.05
700.49	-0.02
700.671	-0.05
700.853	-0.01
701.035	0
701.216	0.01
701.398	-0.04
701.579	0.03
701.761	0.07
701.943	0.01
702.124	-0.03
702.306	-0.02
702.487	0.16
702.669	-0.03
702.85	-0
703.031	-0.03
703.213	0.11
703.394	0.06
703.576	0
703.757	0.13
703.938	0.04
704.12	0.15
704.301	-0.02
704.483	0.01
704.664	0.02
704.845	0.08
705.026	0.05
705.208	-0.07
705.389	0.03
705.57	-0
705.751	0.01
705.933	-0
706.114	0.1
706.295	0.05
706.476	-0
706.657	0.12
706.838	0.1
707.02	0.07
707.201	-0.04
707.382	-0.02
707.563	0.07
707.744	-0.07
707.925	-0.04
708.106	-0.06
708.287	0.05
708.468	0.09
708.649	0.03
708.83	0.05
709.011	0.02
709.192	0.03
709.373	-0.08
709.554	0.06
709.734	0.02
709.915	0.02
710.096	0.01
710.277	-0.02
710.458	0.06
710.639	0.06
710.819	-0.03
711	-0.01
711.181	0.11
711.362	0.06
711.542	0.01
711.723	0.04
711.904	0.07
712.085	0.02
712.265	0
712.446	-0.11
712.627	-0.05
712.807	0.01
712.988	0.01
713.168	-0.03
713.349	0.08
713.53	-0.09
713.71	-0.1
713.891	-0.03
714.071	0.05
714.252	0.01
714.432	0.01
714.613	-0.11
714.793	-0
714.974	0.06
715.154	0.05
715.334	0.03
715.515	0.17
715.695	-0.07
715.876	-0.01
716.056	0
716.236	-0.06
716.417	-0.01
716.597	0.02
716.777	0.1
716.957	-0.02
717.138	0.02
717.318	-0.02
717.498	-0.11
717.678	0.02
717.859	0.02
718.039	-0.08
718.219	0.04
718.399	0.06
718.579	-0.06
718.759	-0.05
718.939	-0.02
719.12	0.03
719.3	0.01
719.48	-0.12
719.66	-0.08
719.84	0.11
720.02	0.01
720.2	-0.03
720.38	0.03
720.56	0.09
720.74	0.01
720.92	0.06
721.1	0.14
721.279	0.07
721.459	0.07
721.639	-0.16
721.819	0.01
721.999	-0.08
722.179	0.07
722.359	-0.08
722.538	-0
722.718	0.04
722.898	-0.02
723.078	-0.01
723.257	-0.05
723.437	0.01
723.617	0.03
723.797	0.04
723.976	-0.06
724.156	0.01
724.336	0.17
724.515	0.19
724.695	-0.11
724.874	0.04
725.054	0.06
725.234	-0.09
725.413	0.07
725.593	0.01
725.772	0.01
725.952	-0.03
726.131	-0.02
726.311	0.02
726.49	0.03
726.67	-0.11
726.849	-0.02
727.028	0.04
727.208	-0.02
727.387	-0.01
727.567	-0.17
727.746	0.01
727.925	-0.03
728.105	-0.05
728.284	-0.03
728.463	-0.04
728.643	0
728.822	-0.08
729.001	-0.06
729.18	0.07
729.359	0.07
729.539	-0.04
729.718	0.05
729.897	0.05
730.076	0.07
730.255	-0.11
730.434	0.03
730.614	0.05
730.793	0.04
730.972	0.05
731.151	0.01
731.33	0.11
731.509	0.04
731.688	-0
731.867	-0.06
732.046	-0.05
732.225	0.2
732.404	-0.01
732.583	-0.03
732.762	0.03
732.941	0.07
733.12	0.09
733.298	-0.01
733.477	0.06
733.656	-0.06
733.835	-0.12
734.014	0.08
734.193	0.04
734.371	0.02
734.55	-0.01
734.729	-0.13
734.908	0.01
735.086	0.14
735.265	0.06
735.444	-0.1
735.623	-0.14
735.801	-0.07
735.98	-0.03
736.159	0.01
736.337	0.17
736.516	-0.03
736.694	0.02
736.873	0
737.052	0.08
737.23	0.13
737.409	-0.02
737.587	0.27
737.766	-0.05
737.944	-0.16
738.123	0.02
738.301	0.11
738.479	-0.07
738.658	0.03
738.836	-0.25
739.015	0.05
739.193	0.15
739.371	-0.06
739.55	-0.07
739.728	-0.05
739.906	0.17
740.085	0.17
740.263	0.09
740.441	-0.1
740.62	0.26
740.798	0.06
740.976	-0.09
741.154	-0.06
741.332	0.21
741.511	0
741.689	0.15
741.867	0.08
742.045	0.05
742.223	0.03
742.401	-0.04
742.579	-0.11
742.757	0.17
742.935	-0.11
743.114	-0.07
743.292	0.01
743.47	-0.05
743.648	0.1
743.826	-0.13
744.004	0.11
744.181	0.12
744.359	0.03
744.537	0.03
744.715	-0.02
744.893	0.02
745.071	0.12
745.249	-0
745.427	0.04
745.605	0.07
745.782	0.02
745.96	0.15
746.138	0.07
746.316	0.13
746.493	-0.02
746.671	0.06
746.849	0.01
747.027	0.11
747.204	-0.03
747.382	0.01
747.56	-0.1
747.737	0.04
747.915	-0.04
748.093	0.12
748.27	-0.05
748.448	-0.04
748.625	-0.17
748.803	-0.04
748.98	-0.14
749.158	-0
749.335	0.26
749.513	-0.06
749.69	-0.11
749.868	-0.04
750.045	0.1
750.223	-0.02
750.4	-0.12
750.578	0.16
750.755	-0.07
750.932	-0.11
751.11	0.15
751.287	-0.18
751.464	0.21
751.642	-0.18
751.819	0.11
751.996	-0.03
752.173	-0.1
752.351	-0.11
752.528	0.01
752.705	-0.07
752.882	-0.16
753.06	-0.02
753.237	0.09
753.414	0.23
753.591	0.15
753.768	0
753.945	-0.13
754.122	-0.04
754.299	0.05
754.476	-0.09
754.654	-0.07
754.831	0.02
755.008	0.05
755.185	-0.04
755.362	-0.12
755.539	0.11
755.716	-0.1
755.892	0.07
756.069	-0.04
756.246	0
756.423	-0.12
756.6	0.2
756.777	0.03
756.954	0.18
757.131	0.05
757.307	-0.11
757.484	-0.05
757.661	0
757.838	0.14
758.015	-0.07
758.191	-0.07
758.368	0.1
758.545	0.17
758.721	0.06
758.898	-0.16
759.075	0.14
759.251	0.16
759.428	0.04
759.605	-0.28
759.781	-0
759.958	0.09
760.134	-0.05
760.311	-0.05
760.488	0.06
760.664	0.19
760.841	-0.04
761.017	-0.04
761.194	0.11
761.37	0.1
761.547	0.1
761.723	-0.03
761.899	0.16
762.076	-0.08
762.252	-0.14
762.429	-0.16
762.605	0.14
762.781	-0.04
762.958	0.1
763.134	-0.06
763.31	-0.03
763.486	0.13
763.663	-0.19
763.839	0.05
764.015	-0.16
764.191	-0.1
764.368	-0.05
764.544	-0.04
764.72	0.05
764.896	0.05
765.072	0.09
765.248	-0.03
765.425	-0.04
765.601	0.16
765.777	0.06
765.953	-0.23
766.129	-0.12
766.305	-0.04
766.481	0.17
766.657	0.1
766.833	0.2
767.009	-0.24
767.185	-0
767.361	-0.13
767.537	-0.19
767.713	0.1
767.889	-0.04
768.065	-0.04
768.24	0.06
768.416	0.05
768.592	0.06
768.768	-0.04
768.944	0.03
769.12	-0.08
769.295	-0.07
769.471	0.05
769.647	0.09
769.823	0.17
769.998	-0.12
770.174	-0.09
770.35	0.41
770.525	0.28
770.701	0.02
770.877	0
771.052	0.11
771.228	0.2
771.403	0.06
771.579	0.06
771.755	0.28
771.93	-0.06
772.106	-0.14
772.281	-0.05
772.457	0.14
772.632	-0.06
772.808	-0.09
772.983	0
773.159	-0.14
773.334	0.12
773.509	0.01
773.685	-0.06
773.86	0.4
774.036	0.2
774.211	-0.02
774.386	-0.01
774.562	-0.02
774.737	-0.13
774.912	-0.17
775.087	0.1
775.263	-0.04
775.438	0.04
775.613	-0.01
775.788	-0.08
775.964	0.08
776.139	0.44
776.314	-0.24
776.489	0.1
776.664	0.09
776.839	-0.1
777.014	0.2
777.19	-0.01
777.365	0.15
777.54	0.28
777.715	-0
777.89	-0.06
778.065	-0.12
778.24	0.08
778.415	0.19
778.59	-0.07
778.765	-0.13
778.94	0.02
779.115	-0.14
779.289	-0.03
779.464	0.14
779.639	0.15
779.814	-0.18
779.989	-0.12
780.164	0.33
780.339	0.11
780.513	-0.05
780.688	-0.14
780.863	-0.05
781.038	0.22
781.212	-0.24
781.387	-0.03
781.562	0.36
781.737	0.05
781.911	0.28
782.086	-0.15
782.261	0
782.435	0.33
782.61	-0.04
782.784	0
782.959	0.09
783.134	-0.01
783.308	-0.09
783.483	0.01
783.657	0.5
783.832	0.36
784.006	-0.28
784.181	0
784.355	0.06
784.53	0.05
784.704	-0.22
784.878	0.29
785.053	0.09
785.227	0.35
785.402	0.5
785.576	-0.35
785.75	-0.06
785.925	-0.07
786.099	-0.09
786.273	0.24
786.448	0.23
786.622	0.1
786.796	0.04
786.97	-0.07
787.145	0.46
787.319	-0.04
787.493	-0.1
787.667	-0.33
787.841	-0
788.015	0.06
788.19	-0.17
788.364	0.21
788.538	0.32
788.712	0.19
788.886	0.17
789.06	0.21
789.234	0.1
789.408	-0.33
789.582	0.02
789.756	-0.05
789.93	-0.02
790.104	0.08
790.278	-0.09
790.452	-0.26
790.626	0.19
790.8	-0.15
790.973	0.31
791.147	0.27
791.321	0.3
791.495	0.15
791.669	-0.15
791.843	0.1
792.016	-0.01
792.19	0.7
792.364	-0.2
792.538	0.35
792.711	0.39
792.885	-0.05
793.059	-0.35
793.233	-0.49
793.406	0.24
793.58	0.04
793.754	0.09
793.927	0.09
794.101	0.59
794.274	0.14
794.448	0.4
794.622	-0.2
794.795	0.32
794.969	0.1
795.142	0.23
795.316	-0.01
795.489	-0.26
795.663	0.38
795.836	0.16
796.009	-0.22
796.183	0.43
796.356	-0.02
796.53	0.16
796.703	0.06
796.876	0.29
797.05	-0.08
797.223	0.05
797.396	0.01
797.57	0.01
797.743	0.4
797.916	0.09
798.09	-0.08
798.263	0.1
798.436	0.14
798.609	-0.21
798.782	-0.07
798.956	0.1
799.129	0.11
799.302	-0.01
799.475	-0.18
799.648	-0.34
799.821	-0.1
799.994	0.14
800.167	-0.33
800.34	0
800.514	0.28
800.687	-0.08
800.86	-0.02
801.033	0.21
801.206	0.02
801.379	-0.14
801.551	0.2
801.724	0.14
801.897	0.45
802.07	-0.1
802.243	-0.41
802.416	0.04
802.589	-0.09
802.762	0.2
802.935	-0.04
803.107	0.29
803.28	0.27
803.453	0.13
803.626	-0.21
803.798	-0.08
803.971	-0.15
804.144	0.07
804.317	0.45
804.489	0.17
804.662	-0.02
804.835	-0.07
805.007	-0.09
805.18	0.44
805.353	0.15
805.525	-0.23
805.698	-0.11
805.87	0.59
806.043	0.44
806.215	-0.42
806.388	-0.46
806.56	0.23
806.733	0.16
806.905	0.15
807.078	-0.24
807.25	-0.07
807.423	0.39
807.595	0.17
807.768	0.27
807.94	0.27
808.112	-0.06
808.285	0.39
808.457	-0.72
808.629	0.28
808.802	0.31
808.974	0.08
809.146	-0.32
809.318	-0.02
809.491	0.39
809.663	0.7
809.835	-0.4
810.007	-0.23
810.18	0.25
810.352	-0.37
810.524	-0.1
810.696	0.07
810.868	0.53
811.04	-0.16
811.212	-0.13
811.384	0.49
811.556	0.18
811.728	-0.06
811.901	0.94
812.073	-0.02
812.245	0.39
812.417	0.24
812.589	-0.49
812.76	0.1
812.932	-0.02
813.104	0.08
813.276	0.08
813.448	0.42
813.62	0.47
813.792	0.02
813.964	0.16
814.136	0.13
814.307	0.22
814.479	-0.03
814.651	-0.25
814.823	1.15
814.995	-0.24
815.166	0.38
815.338	-0.42
815.51	-0.41
815.681	0.69
815.853	0.07
816.025	0.2
816.196	0.85
816.368	-0.11
816.54	-0.54
816.711	-0.03
816.883	0.49
817.054	1.27
817.226	-0.8
817.398	0.04
817.569	-0.04
817.741	0.34
817.912	-0.19
818.084	-0.06
818.255	-0.21
818.426	-0.09
818.598	-0.5
818.769	-0.52
818.941	0.23
819.112	0.89
819.283	0.19
819.455	-0.33
819.626	-0.03
819.798	0.3
819.969	-0.04
820.14	-0.45
820.311	-0.03
820.483	0.66
820.654	0.41
820.825	-0.12
820.996	-0.08
821.168	-0.17
821.339	0.07
821.51	-0.59
821.681	-0.4
821.852	0.06
822.023	-0.34
822.195	-1.36
822.366	0.5
822.537	-0.03
822.708	-0.01
822.879	-0.21
823.05	0.65
823.221	-0.05
823.392	0.17
823.563	-0.12
823.734	0.34
823.905	0.06
824.076	-0.43
824.247	-0.58
824.418	-0.2
824.589	0.44
824.759	0.46
824.93	0.28
825.101	-0.3
825.272	0.19
825.443	0.8
825.614	0.56
825.784	-1.07
825.955	1.38
826.126	0.89
826.297	0.13
826.467	0.28
826.638	0.71
826.809	-0.57
826.98	-0.38
827.15	0.41
827.321	-0.32
827.492	0.76
827.662	0.76
827.833	1.05
828.003	0.56
828.174	-0.89
828.345	-0.71
828.515	0.7
828.686	0.26
828.856	0.07
829.027	-0.27
829.197	0.55
829.368	0.15
829.538	-0.35
829.709	-0.45
829.879	0.15
830.049	0.12
830.22	0.26
830.39	-0.47
830.56	0.96
830.731	-0.34
830.901	-0.32
831.072	0.15
831.242	0.04
831.412	0.41
831.582	0.61
831.753	-0.86
831.923	0.59
832.093	0
832.263	-0.25
832.434	-0.8
832.604	-0.03
832.774	0.97
832.944	-0.09
833.114	-0.21
833.284	0.72
833.454	-0.54
833.624	-0.27
833.795	0.21
833.965	0.6
834.135	0.37
834.305	-0.89
834.475	-0.35
834.645	0.43
834.815	-0.19
834.985	0.2
835.155	-0.13
835.325	0.1
835.494	0.86
835.664	-0.41
835.834	-0.98
836.004	0.27
836.174	0.97
836.344	0.18
836.514	-0.84
836.684	-0.19
836.853	0.48
837.023	0.38
837.193	0.08
837.363	0.98
837.532	1.11
837.702	0.07
837.872	-1.01
838.041	0.59
838.211	1.4
838.381	-0.78
838.55	0.02
838.72	1.78
838.89	0.91
839.059	-0.24
839.229	-0.59
839.398	1.09
839.568	-0.43
839.738	0.08
839.907	0.71
840.077	0.31
840.246	-0.57
840.416	-0.66
840.585	-0.85
840.755	1.28
840.924	0.87
841.093	-0.41
841.263	0.28
841.432	0.02
841.602	-1.09
841.771	-0.67
841.94	-0.4
842.11	1.73
842.279	0.88
842.448	-0.55
842.617	-1.24
842.787	1.52
842.956	-0.6
843.125	0.4
843.294	0.61
843.464	1.41
843.633	0.48
843.802	-0.39
843.971	-0.35
844.14	0.96
844.309	0.96
844.479	-0.6
844.648	-0.55
844.817	0.13
844.986	0.09
845.155	0.17
845.324	-0.17
845.493	0.19
845.662	-0.56
845.831	1.25
846	0.04
846.169	0.05
846.338	1.5
846.507	-0.11
846.676	0.99
846.844	-0.51
847.013	0.67
847.182	0.3
847.351	-0.03
847.52	0.23
847.689	0.55
847.858	-0.15
848.026	-0.9
848.195	0.1
848.364	-0.52
848.533	-0.07
848.701	-0.67
848.87	0.8
849.039	1.09
849.207	0.95
849.376	1.4
849.545	1.08
849.713	-0.16
849.882	-0.15
850.051	0.46
850.219	-0.21
850.388	0.25
850.556	-0.19
850.725	-0.12
850.893	-0.14
851.062	-0.24
851.23	-0.02
851.399	-0.72
851.567	0.62
851.736	-0.5
851.904	-0.72
852.073	-0.05
852.241	0.5
852.41	0.09
852.578	-0.22
852.746	-1.11
852.915	0.84
853.083	0.26
853.251	-0.96
853.42	-0.1
853.588	0.12
853.756	0.42
853.924	0.23
854.093	-0.06
854.261	-0.34
854.429	-0.77
854.597	-0.42
854.765	-1.13
854.934	-0.09
855.102	0.99
855.27	-1.26
855.438	0.49
855.606	1.37
855.774	1.11
855.942	-1.01
856.11	-0.36
856.278	-0.34
856.446	2.2
856.614	-0.44
856.782	-0.6
856.95	1.48
857.118	1.27
857.286	0.58
857.454	-1.49
857.622	1.48
857.79	1
857.958	-0.2
858.126	-0.54
858.294	-2.4
858.462	0.84
858.629	-0.84
858.797	-0.02
858.965	0.55
859.133	0.49
859.301	-0.31
859.468	-1.13
859.636	0.16
859.804	1.79
859.971	1.68
860.139	-0.14
860.307	1.13
860.474	0.63
860.642	-0.41
860.81	-0.87
860.977	-0.19
861.145	0.84
861.313	-0.48
861.48	0.38
861.648	1.43
861.815	0.36
861.983	-1.21
862.15	-0.79
862.318	-0.02
862.485	2.55
862.653	0.28
862.82	-0.19
862.988	0.7
863.155	0.07
863.322	-0.22
863.49	-0.97
863.657	-1.17
863.824	1.13
863.992	1.7
864.159	-0.08
864.326	1.54
864.494	-0.33
864.661	2.33
864.828	-1.49
864.996	1.7
865.163	1.57
865.33	-0.51
865.497	-1.94
865.664	-0.84
865.832	-1.83
865.999	-1.24
866.166	-1.07
866.333	0.45
866.5	-0.53
866.667	0.14
866.834	-0.79
867.001	3.57
867.168	-1.97
867.335	-0.26
867.502	-1.89
867.669	1.34
867.836	3.13
868.003	-0.68
868.17	0.21
868.337	3.01
868.504	2.53
868.671	-0.96
868.838	0.4
869.005	0.73
869.172	1.31
869.339	0.68
869.505	-0.09
869.672	-0.44
869.839	3.23
870.006	-0.4
870.173	-2.17
870.339	-0.61
870.506	3.23
870.673	0.51
870.84	1.19
871.006	0.23
871.173	0.55
871.34	-0.06
871.506	-0.25
871.673	0.97
871.839	0.15
872.006	0.84
872.173	-0.67
872.339	0.55
872.506	2.46
872.672	-0.13
872.839	-1.24
873.005	1.77
873.172	2.87
873.338	2.16
873.505	-0.51
873.671	0.46
873.838	0.74
874.004	-2.25
874.171	-0.49
874.337	1.02
874.503	2.09
874.67	0.64
874.836	-0.39
875.002	2.43
875.169	2.87
875.335	0.77
875.501	0.04
875.668	-0.49
875.834	0.31
876	-0.33
876.166	-0.31
876.332	-0.21
876.499	2.3
876.665	0.21
876.831	0.5
876.997	3.91
877.163	0.52
877.329	0.08
877.495	1.23
877.662	-0.27
877.828	-0.23
877.994	1.43
878.16	-3.04
878.326	0.58
878.492	0.95
878.658	-1.03
878.824	0.88
878.99	1.94
879.156	0.1
879.322	3.44
879.487	-0.7
879.653	0.76
879.819	1.07
879.985	-0.18
880.151	0.21
880.317	0.61
880.483	0.79
880.648	1.82
880.814	-1.41
880.98	0.38
881.146	-2.38
881.312	-0.74
881.477	-1.64
881.643	-1.14
881.809	1.8
881.974	2.43
882.14	-2.79
882.306	3.28
882.471	2.81
882.637	-1.12
882.803	0.87
882.968	4.2
883.134	4.48
883.299	-0.18
883.465	-2.16
883.63	-0.35
883.796	1.35
883.961	0.87
884.127	1.51
884.292	-2.46
884.458	-1.89
884.623	-1.89
