Data from Apollo_Calib_20240827__AbsoluteIrradiance__654__10-03-00-872.txt Node

Date: Wed Aug 28 10:03:00 BST 2024
User: biology
Spectrometer: FLMT08252
Trigger mode: 0
Integration Time (sec): 5.000000E-1
Scans to average: 5
Electric dark correction enabled: true
Nonlinearity correction enabled: false
Boxcar width: 0
XAxis mode: Wavelengths
Number of Pixels in Spectrum: 3648
>>>>>Begin Spectral Data<<<<<
179.588	-0
179.809	-0
180.03	-0
180.251	-0
180.473	-0
180.694	0
180.915	0
181.136	-0
181.357	0
181.578	-0
181.799	0
182.02	-0
182.241	-0
182.462	0
182.683	0
182.904	-0
183.125	-0
183.346	0
183.567	0
183.788	-0
184.009	-0
184.23	0
184.451	0
184.672	-0
184.892	-0
185.113	0
185.334	0
185.555	-0
185.776	-0
185.996	0
186.217	0
186.438	0
186.659	-0
186.879	0
187.1	0
187.321	-0
187.541	-0
187.762	0
187.983	-0
188.203	-0
188.424	0
188.644	-0
188.865	0
189.086	0
189.306	0
189.527	-0
189.747	0
189.968	0
190.188	0
190.409	0
190.629	0
190.849	-0
191.07	-0
191.29	0
191.511	0
191.731	-0
191.951	-0
192.172	-0
192.392	0
192.612	-0
192.833	-0
193.053	0
193.273	0
193.493	0
193.714	-0
193.934	0
194.154	0
194.374	0
194.594	0
194.815	0
195.035	0
195.255	-0
195.475	-0
195.695	0
195.915	0
196.135	-0
196.355	0
196.575	0
196.795	0
197.015	-0
197.235	-0
197.455	-0
197.675	0
197.895	-0
198.115	-0
198.335	-0
198.555	0
198.775	0
198.995	-0
199.214	0
199.434	0
199.654	-0
199.874	-0
200.094	1.18
200.313	-0.41
200.533	-0.47
200.753	-0.55
200.973	0.55
201.192	0.44
201.412	-0.77
201.632	0.39
201.851	1.13
202.071	-0.69
202.291	-0.32
202.51	-0.67
202.73	0.42
202.95	0.13
203.169	-0.08
203.389	0.17
203.608	0.08
203.828	-0.41
204.047	-0.26
204.267	0.4
204.486	0.08
204.706	-0.12
204.925	0.3
205.145	-0.27
205.364	0.3
205.583	0.74
205.803	-0.12
206.022	-0.48
206.242	0.26
206.461	0.48
206.68	-0.14
206.9	0.28
207.119	0.55
207.338	0.47
207.557	-0.03
207.777	-0.02
207.996	-0.14
208.215	0.46
208.434	-0.36
208.654	-0.45
208.873	0.08
209.092	0.54
209.311	-0.08
209.53	-0.09
209.749	0.17
209.968	-0.12
210.187	-0.01
210.407	-0.34
210.626	-0.19
210.845	0.2
211.064	-0.1
211.283	-0.44
211.502	0.11
211.721	-0.02
211.94	-0.09
212.159	0.34
212.377	0.11
212.596	0.4
212.815	0.1
213.034	0.32
213.253	0.53
213.472	0.16
213.691	-0.22
213.91	-0.19
214.128	-0.18
214.347	0.5
214.566	-0.4
214.785	-0.14
215.003	0.1
215.222	0.15
215.441	-0.08
215.66	-0.31
215.878	0.05
216.097	0.13
216.316	0.06
216.534	-0.07
216.753	-0.06
216.972	-0.01
217.19	-0.04
217.409	-0.18
217.627	-0.14
217.846	0.04
218.064	0.1
218.283	-0.15
218.501	0.52
218.72	0.47
218.938	-0.14
219.157	-0.12
219.375	0.12
219.594	0.09
219.812	-0.13
220.031	-0.15
220.249	0.19
220.467	0.17
220.686	-0.04
220.904	-0.19
221.122	-0.22
221.341	0.33
221.559	0.01
221.777	-0.04
221.995	-0.04
222.214	0.14
222.432	-0.07
222.65	0.3
222.868	0.04
223.086	0.04
223.305	0.16
223.523	-0.1
223.741	0.22
223.959	0.07
224.177	-0.25
224.395	-0.05
224.613	0.16
224.831	0.09
225.049	-0.06
225.267	-0.08
225.485	0.03
225.703	-0.02
225.921	-0.08
226.139	0.06
226.357	0.1
226.575	0.14
226.793	-0.11
227.011	0.58
227.229	0.13
227.447	0.2
227.665	-0.04
227.883	-0.19
228.1	0.11
228.318	0.05
228.536	-0.1
228.754	-0.1
228.972	0.04
229.189	-0.01
229.407	0.01
229.625	-0.06
229.843	0.23
230.06	0.13
230.278	-0.12
230.496	-0.04
230.713	0.11
230.931	0.19
231.149	0.06
231.366	-0.3
231.584	0.01
231.801	0.3
232.019	-0.06
232.236	-0.15
232.454	-0.09
232.671	0.03
232.889	0.08
233.106	-0.07
233.324	0.03
233.541	-0.05
233.759	0.04
233.976	-0.01
234.194	0.02
234.411	-0.06
234.628	-0.17
234.846	-0.07
235.063	0.03
235.28	0.01
235.498	0.01
235.715	-0.1
235.932	0.1
236.149	0.03
236.367	-0.13
236.584	0.06
236.801	0.05
237.018	0.14
237.236	0.06
237.453	-0.12
237.67	0.11
237.887	-0.08
238.104	0.08
238.321	-0.09
238.538	0.02
238.755	0.07
238.973	-0.21
239.19	-0.04
239.407	-0.03
239.624	0.15
239.841	-0.08
240.058	-0.06
240.275	0.01
240.492	-0.02
240.709	0.1
240.925	-0
241.142	-0.08
241.359	-0.12
241.576	-0.05
241.793	0.04
242.01	-0.06
242.227	0.11
242.444	0.17
242.66	0.07
242.877	-0
243.094	-0.07
243.311	-0
243.527	0.01
243.744	-0.02
243.961	0.07
244.178	-0.04
244.394	0.05
244.611	0.07
244.828	0.2
245.044	-0.1
245.261	-0.05
245.477	0
245.694	0.02
245.911	-0.04
246.127	0.08
246.344	0.22
246.56	0.06
246.777	-0.08
246.993	0
247.21	0.05
247.426	-0.05
247.643	-0.06
247.859	-0.06
248.076	0.01
248.292	0.23
248.508	-0.02
248.725	0.06
248.941	0.06
249.157	0.14
249.374	0
249.59	-0.04
249.806	0.04
250.023	0.06
250.239	-0.09
250.455	-0.08
250.671	0.06
250.888	0.06
251.104	0.04
251.32	0.03
251.536	-0.01
251.752	-0.03
251.969	0.01
252.185	-0.01
252.401	0.18
252.617	0.1
252.833	-0.02
253.049	0.05
253.265	0.02
253.481	0.08
253.697	0.02
253.913	-0.11
254.129	0.01
254.345	0.08
254.561	-0
254.777	0.03
254.993	0.04
255.209	0.06
255.425	-0.05
255.641	-0.01
255.857	0.08
256.073	0.04
256.288	-0.05
256.504	-0.01
256.72	0.02
256.936	0.15
257.152	0.04
257.367	-0.01
257.583	0.03
257.799	0.06
258.015	-0.03
258.23	-0.02
258.446	0.05
258.662	-0.01
258.877	-0.04
259.093	-0.02
259.309	0.02
259.524	-0.02
259.74	-0.06
259.955	-0.07
260.171	0.06
260.387	0.06
260.602	0.12
260.818	0.02
261.033	-0.07
261.249	-0.07
261.464	0
261.68	-0.13
261.895	0.08
262.11	0.08
262.326	-0.05
262.541	-0.08
262.757	0.09
262.972	0.08
263.187	0
263.403	-0.02
263.618	0.05
263.833	0.02
264.049	-0.04
264.264	0.04
264.479	0.11
264.694	0.08
264.91	-0.1
265.125	-0.03
265.34	0.08
265.555	0.16
265.77	-0.01
265.986	-0.06
266.201	0.07
266.416	0.16
266.631	-0.06
266.846	0.01
267.061	0.09
267.276	0.02
267.491	-0.1
267.706	0.08
267.921	0.01
268.136	0.02
268.351	-0.05
268.566	-0.07
268.781	0.09
268.996	0
269.211	0.02
269.426	-0.11
269.641	-0.06
269.856	0.04
270.071	-0.04
270.285	-0.09
270.5	0.04
270.715	0.09
270.93	0.03
271.145	0.03
271.359	0.1
271.574	-0.02
271.789	0.03
272.004	0.02
272.218	0.02
272.433	0.03
272.648	-0.04
272.862	0.09
273.077	0.05
273.292	0.02
273.506	-0.03
273.721	-0.01
273.936	0.06
274.15	0.04
274.365	0
274.579	0.07
274.794	0.05
275.008	0.07
275.223	-0.01
275.437	0.05
275.652	0.1
275.866	-0.01
276.081	0.03
276.295	0.08
276.509	-0
276.724	0.06
276.938	-0.01
277.153	0.08
277.367	0.1
277.581	-0.01
277.796	-0.04
278.01	-0.03
278.224	0.05
278.438	0.11
278.653	-0.04
278.867	-0.04
279.081	-0.15
279.295	0.02
279.51	0.05
279.724	-0.05
279.938	0.11
280.152	0.03
280.366	0.02
280.58	0.04
280.794	0.07
281.008	0.03
281.222	0.09
281.437	0.13
281.651	0.03
281.865	0.07
282.079	-0.03
282.293	-0.08
282.507	0.01
282.721	0.02
282.935	-0.02
283.148	-0.1
283.362	-0.04
283.576	-0.05
283.79	0.02
284.004	-0.05
284.218	0.04
284.432	-0.05
284.646	0.03
284.859	-0
285.073	0.01
285.287	0.03
285.501	-0.02
285.714	-0.01
285.928	-0.01
286.142	0.01
286.356	-0.03
286.569	-0.02
286.783	0.13
286.997	0.01
287.21	0.03
287.424	0.02
287.637	0.03
287.851	-0
288.065	0.01
288.278	-0.03
288.492	0.05
288.705	-0.01
288.919	0.06
289.132	-0.08
289.346	0.08
289.559	-0.06
289.773	-0.04
289.986	-0.06
290.2	0.02
290.413	0.06
290.626	-0.03
290.84	0.01
291.053	0.02
291.267	0.05
291.48	0
291.693	0.02
291.906	-0.01
292.12	-0.01
292.333	-0.06
292.546	0.02
292.76	0.06
292.973	0.02
293.186	0.02
293.399	-0
293.612	0.07
293.826	-0
294.039	0.02
294.252	0.02
294.465	0.02
294.678	0.03
294.891	-0.03
295.104	-0.05
295.317	0.04
295.53	-0.04
295.743	0.02
295.956	0
296.169	0.05
296.382	0.1
296.595	0.02
296.808	-0.06
297.021	0.06
297.234	0.06
297.447	0.02
297.66	0.03
297.873	0.02
298.086	0.06
298.299	-0.02
298.511	-0.06
298.724	-0.03
298.937	-0.03
299.15	-0.03
299.363	-0.02
299.575	0.04
299.788	0.02
300.001	-0
300.213	-0.06
300.426	0.05
300.639	0.02
300.852	-0.02
301.064	0.05
301.277	0.07
301.489	0.06
301.702	0.04
301.915	-0.02
302.127	0.01
302.34	0.03
302.552	0.02
302.765	-0.02
302.977	0.03
303.19	-0.03
303.402	-0.01
303.615	-0
303.827	-0.03
304.04	-0.02
304.252	0
304.464	0.03
304.677	0.1
304.889	0.09
305.102	-0.08
305.314	-0.01
305.526	0.06
305.739	0.07
305.951	0
306.163	-0.04
306.375	0.07
306.588	-0.07
306.8	-0.02
307.012	-0.04
307.224	0.02
307.436	0.03
307.649	-0.04
307.861	-0.02
308.073	0.07
308.285	-0.03
308.497	-0.04
308.709	-0.04
308.921	0.01
309.133	0.05
309.346	-0.02
309.558	-0.02
309.77	0.08
309.982	0.03
310.194	0.09
310.406	-0.03
310.617	0.08
310.829	0.01
311.041	0.05
311.253	-0.01
311.465	-0.03
311.677	-0.02
311.889	-0.01
312.101	-0.02
312.313	-0.01
312.524	0.08
312.736	-0.03
312.948	-0
313.16	0.1
313.372	0.01
313.583	0.02
313.795	-0.02
314.007	-0.02
314.218	0.02
314.43	-0.02
314.642	-0.02
314.853	-0.08
315.065	-0.02
315.277	-0.02
315.488	0
315.7	0.05
315.912	-0.01
316.123	0
316.335	0.03
316.546	0.12
316.758	-0
316.969	-0.03
317.181	-0.01
317.392	0.01
317.604	0.06
317.815	-0.02
318.026	-0.03
318.238	-0.02
318.449	-0.02
318.661	-0.05
318.872	-0.05
319.083	-0.02
319.295	0.01
319.506	-0.02
319.717	0.03
319.929	0.03
320.14	-0.01
320.351	0.01
320.562	-0.02
320.774	-0.03
320.985	0.03
321.196	-0.04
321.407	-0.09
321.618	0.03
321.829	0.02
322.041	0.05
322.252	-0.01
322.463	0.04
322.674	0.04
322.885	-0.04
323.096	-0.03
323.307	-0.01
323.518	0.04
323.729	0.02
323.94	-0.07
324.151	-0.02
324.362	0.03
324.573	-0.02
324.784	-0.03
324.995	0.04
325.206	0
325.417	-0.03
325.628	0.03
325.838	-0.02
326.049	0.03
326.26	0.02
326.471	0
326.682	0.01
326.892	0.01
327.103	-0.06
327.314	-0.07
327.525	0.04
327.735	-0.01
327.946	0
328.157	-0.05
328.368	0
328.578	-0.04
328.789	0.02
328.999	0.03
329.21	0
329.421	0.02
329.631	-0.02
329.842	-0.01
330.052	-0
330.263	0.05
330.473	0.02
330.684	0.02
330.894	-0.01
331.105	0.02
331.315	-0.04
331.526	-0.06
331.736	0.07
331.947	0.01
332.157	0.02
332.367	-0
332.578	-0
332.788	0.05
332.999	0.02
333.209	0.02
333.419	-0.04
333.629	0.03
333.84	0.03
334.05	0.01
334.26	0.07
334.47	0.03
334.681	0.05
334.891	0.02
335.101	0.07
335.311	0.11
335.521	0.03
335.732	-0.01
335.942	0.09
336.152	0.05
336.362	-0
336.572	0.01
336.782	0.06
336.992	0.01
337.202	-0.01
337.412	-0.01
337.622	0.01
337.832	0
338.042	-0.02
338.252	-0.01
338.462	-0.05
338.672	0.01
338.882	-0
339.092	0.02
339.302	0.07
339.511	0.02
339.721	-0.01
339.931	-0.05
340.141	-0
340.351	0.04
340.561	0.04
340.77	0.01
340.98	-0
341.19	0.04
341.4	-0.05
341.609	-0.03
341.819	-0.01
342.029	-0.04
342.238	-0.01
342.448	0.02
342.658	0.01
342.867	0.05
343.077	0.03
343.286	0
343.496	0.03
343.706	0.06
343.915	-0.04
344.125	0.03
344.334	0.05
344.544	-0.02
344.753	-0
344.963	0.02
345.172	-0.02
345.381	-0.03
345.591	-0.02
345.8	0
346.01	0.07
346.219	0.06
346.428	-0.1
346.638	0.02
346.847	-0.02
347.056	0.06
347.266	-0.01
347.475	-0.01
347.684	0.01
347.893	0.01
348.103	0.04
348.312	-0.06
348.521	-0.04
348.73	0.01
348.94	0.06
349.149	-0.02
349.358	-0.01
349.567	-0.01
349.776	-0.05
349.985	-0
350.194	0.06
350.403	0.04
350.612	-0.05
350.821	0.02
351.03	0.01
351.239	-0.05
351.448	-0.01
351.657	-0.02
351.866	0.09
352.075	-0.01
352.284	0.03
352.493	-0.06
352.702	0.07
352.911	0.03
353.12	0.04
353.329	-0.02
353.538	0.02
353.746	0.01
353.955	-0.03
354.164	0.02
354.373	-0.01
354.582	0.05
354.79	-0.02
354.999	0.02
355.208	-0.01
355.416	0.03
355.625	-0.01
355.834	-0
356.042	0.07
356.251	0.02
356.46	-0.02
356.668	0.03
356.877	0.05
357.085	0.04
357.294	-0.03
357.503	-0
357.711	0.03
357.92	0.09
358.128	0.05
358.337	-0.01
358.545	0.03
358.754	0.02
358.962	-0.01
359.17	0.01
359.379	0.03
359.587	0
359.796	-0.01
360.004	0.03
360.212	0.02
360.421	0.04
360.629	-0.02
360.837	-0.01
361.046	0.01
361.254	0.06
361.462	-0
361.67	-0.01
361.879	0.01
362.087	0.05
362.295	0.02
362.503	0
362.711	-0.01
362.92	-0.03
363.128	-0.02
363.336	-0.04
363.544	-0.03
363.752	0.01
363.96	-0.02
364.168	-0.01
364.376	0.01
364.584	-0.01
364.792	0.05
365	0.04
365.208	0.01
365.416	0.02
365.624	0.02
365.832	-0.04
366.04	0.06
366.248	0.03
366.456	0.04
366.664	0.04
366.872	-0
367.079	0
367.287	0.01
367.495	0.01
367.703	0.02
367.911	-0.02
368.118	-0.03
368.326	-0.01
368.534	-0.05
368.742	0.05
368.949	-0.06
369.157	-0
369.365	0.01
369.572	0.01
369.78	-0.04
369.988	0.06
370.195	0.05
370.403	0
370.61	-0.03
370.818	0.02
371.026	0.03
371.233	-0.02
371.441	0.01
371.648	-0.03
371.856	-0.01
372.063	-0
372.271	0
372.478	-0.05
372.685	-0.05
372.893	0.04
373.1	-0.01
373.308	-0.01
373.515	0.05
373.722	0.03
373.93	-0.02
374.137	0.03
374.344	0.05
374.552	0.04
374.759	0.03
374.966	0.02
375.173	-0
375.381	0.04
375.588	0.01
375.795	-0.06
376.002	0.03
376.209	0.01
376.417	-0.03
376.624	0.02
376.831	0.02
377.038	0
377.245	-0.05
377.452	0.05
377.659	-0
377.866	0.01
378.073	-0
378.28	-0.02
378.487	0.04
378.694	0.01
378.901	-0.01
379.108	-0
379.315	0.01
379.522	0.06
379.729	0.05
379.936	0.02
380.143	0.04
380.35	0.02
380.557	-0.02
380.763	0
380.97	-0.03
381.177	0.02
381.384	0.04
381.591	-0.05
381.797	0.03
382.004	0.04
382.211	0.04
382.418	-0.02
382.624	0.06
382.831	0.02
383.038	0
383.244	0.01
383.451	-0.01
383.658	-0.01
383.864	-0.03
384.071	-0.03
384.277	0.11
384.484	-0.02
384.69	0.04
384.897	-0.02
385.103	-0.02
385.31	-0.02
385.516	-0.01
385.723	-0.05
385.929	0.06
386.136	-0.01
386.342	-0
386.549	0.01
386.755	0.04
386.961	0.02
387.168	-0.01
387.374	0.01
387.58	0.04
387.787	0.02
387.993	0.03
388.199	-0.04
388.406	0.01
388.612	-0.01
388.818	-0.05
389.024	-0.01
389.231	0.01
389.437	0.09
389.643	0.02
389.849	-0.02
390.055	0.06
390.261	0.01
390.467	0.05
390.674	-0.04
390.88	0
391.086	0.03
391.292	0.01
391.498	0.04
391.704	-0.01
391.91	0.02
392.116	-0.05
392.322	-0.07
392.528	0.02
392.734	-0
392.94	0.01
393.146	-0.01
393.352	-0
393.557	-0.03
393.763	-0.02
393.969	0.03
394.175	-0.01
394.381	0.05
394.587	-0.03
394.792	-0.02
394.998	0.08
395.204	0.07
395.41	-0.05
395.615	0.04
395.821	0.01
396.027	0.06
396.233	-0.04
396.438	0.03
396.644	0.12
396.85	0.05
397.055	-0
397.261	0.06
397.466	0.09
397.672	0
397.878	0.02
398.083	-0.01
398.289	-0.04
398.494	0.07
398.7	0.01
398.905	-0.09
399.111	0.08
399.316	-0.04
399.522	-0.02
399.727	0.01
399.932	-0.04
400.138	0
400.343	0.1
400.549	0.02
400.754	0.01
400.959	0.05
401.165	0.02
401.37	0.04
401.575	0.06
401.78	-0
401.986	-0.05
402.191	-0.02
402.396	-0.02
402.601	0.02
402.807	0.03
403.012	-0.01
403.217	0.07
403.422	0.01
403.627	0.01
403.832	-0.01
404.037	0.01
404.243	0.02
404.448	-0.04
404.653	0.01
404.858	-0
405.063	0.06
405.268	-0
405.473	-0.05
405.678	-0.03
405.883	0.16
406.088	0.05
406.293	-0.06
406.498	-0.01
406.703	0.07
406.907	-0.02
407.112	-0.05
407.317	-0
407.522	0.05
407.727	-0.02
407.932	0.01
408.136	0.09
408.341	-0
408.546	0.05
408.751	0.01
408.956	-0.02
409.16	0.03
409.365	-0.01
409.57	0.03
409.774	0.01
409.979	0.03
410.184	0.01
410.388	-0.03
410.593	0.07
410.798	0.01
411.002	-0.01
411.207	0.03
411.411	0.07
411.616	-0.02
411.82	0.01
412.025	0.04
412.229	-0.02
412.434	0.09
412.638	0.04
412.843	-0.06
413.047	0.03
413.252	-0.03
413.456	0.01
413.66	0.03
413.865	-0.06
414.069	0.07
414.273	-0.03
414.478	-0
414.682	-0.01
414.886	-0.02
415.091	-0.08
415.295	-0.09
415.499	0.02
415.703	-0.01
415.908	0.06
416.112	-0.06
416.316	0.04
416.52	-0.01
416.724	-0.02
416.929	-0.04
417.133	0.1
417.337	-0.03
417.541	-0.03
417.745	-0
417.949	0.01
418.153	-0
418.357	-0.04
418.561	0.08
418.765	0.03
418.969	0.12
419.173	0.04
419.377	-0
419.581	0.04
419.785	0
419.989	-0.06
420.193	-0.03
420.397	-0
420.601	0.02
420.804	-0
421.008	-0.01
421.212	-0.01
421.416	0.07
421.62	-0.02
421.823	-0.05
422.027	0.08
422.231	0.02
422.435	0.02
422.638	0.01
422.842	-0.01
423.046	-0
423.249	0.03
423.453	0.03
423.657	0.01
423.86	-0.05
424.064	-0.02
424.268	0.02
424.471	0
424.675	0.07
424.878	0.08
425.082	-0.01
425.285	0.03
425.489	0.02
425.692	0.02
425.896	-0.04
426.099	0
426.303	-0.05
426.506	-0.07
426.71	-0.01
426.913	0.05
427.116	0.04
427.32	0.01
427.523	-0.03
427.726	0.08
427.93	-0.05
428.133	0
428.336	-0.02
428.54	-0.03
428.743	0.03
428.946	0.06
429.149	-0.05
429.353	0.03
429.556	-0.04
429.759	-0.01
429.962	-0.03
430.165	-0.02
430.368	-0.05
430.571	-0.03
430.775	0.04
430.978	-0
431.181	0.02
431.384	-0.01
431.587	-0.01
431.79	0.02
431.993	0
432.196	0.03
432.399	-0
432.602	0.02
432.805	-0.01
433.008	-0
433.211	-0.04
433.414	0.03
433.616	0.02
433.819	0.01
434.022	-0.11
434.225	0.03
434.428	0.01
434.631	0.1
434.833	0.04
435.036	-0.08
435.239	0.04
435.442	-0
435.645	-0.04
435.847	-0.01
436.05	0.06
436.253	0.02
436.455	-0.07
436.658	0.03
436.861	0
437.063	-0.07
437.266	-0.03
437.468	0
437.671	0.11
437.874	0
438.076	-0.04
438.279	-0.09
438.481	0.03
438.684	-0.06
438.886	0.02
439.089	-0.09
439.291	-0.04
439.494	0.01
439.696	-0.04
439.899	-0.05
440.101	0
440.303	-0.07
440.506	0.03
440.708	-0.05
440.91	0.06
441.113	-0.02
441.315	0.02
441.517	-0.1
441.72	0.02
441.922	-0.09
442.124	-0.06
442.326	0.06
442.529	0.1
442.731	-0.03
442.933	0.11
443.135	-0.02
443.337	-0.01
443.539	-0.02
443.742	-0.01
443.944	0.02
444.146	0.01
444.348	-0.01
444.55	-0.02
444.752	-0.03
444.954	-0.05
445.156	0.01
445.358	-0.02
445.56	0.05
445.762	-0.02
445.964	-0
446.166	-0.06
446.368	-0.01
446.57	0.06
446.772	0.03
446.974	0.01
447.175	-0.01
447.377	-0.04
447.579	-0.05
447.781	-0.1
447.983	0.04
448.184	-0.01
448.386	-0.02
448.588	-0.05
448.79	0.01
448.991	-0.06
449.193	-0.04
449.395	0
449.597	0.05
449.798	-0.01
450	0.02
450.202	0.01
450.403	0.04
450.605	0.03
450.806	-0.02
451.008	-0.07
451.21	0.01
451.411	-0.04
451.613	0.01
451.814	-0.02
452.016	0.05
452.217	0.02
452.419	-0.01
452.62	-0.02
452.821	0
453.023	0.04
453.224	0.03
453.426	-0.03
453.627	0.05
453.828	-0.01
454.03	0.02
454.231	0.01
454.432	-0.05
454.634	0.06
454.835	-0.04
455.036	-0.02
455.238	0.05
455.439	0.07
455.64	-0.04
455.841	-0.01
456.042	0.1
456.244	0.05
456.445	0.01
456.646	-0.07
456.847	0.02
457.048	0.04
457.249	0.05
457.45	0.16
457.651	-0.06
457.852	0.07
458.054	-0.02
458.255	-0.04
458.456	0.03
458.657	0.01
458.858	-0.01
459.058	0.01
459.259	0.06
459.46	0.02
459.661	-0.06
459.862	0.08
460.063	-0.05
460.264	-0.02
460.465	-0.07
460.666	0.08
460.866	-0.01
461.067	-0.02
461.268	-0.06
461.469	-0.02
461.67	-0.02
461.87	0
462.071	-0.04
462.272	-0.04
462.473	0
462.673	0.02
462.874	-0.06
463.075	-0.02
463.275	-0.05
463.476	0.03
463.676	0.02
463.877	-0.02
464.078	0.01
464.278	0.02
464.479	-0.01
464.679	0.02
464.88	-0.06
465.08	0.1
465.281	-0.03
465.481	-0.06
465.682	-0.05
465.882	0.06
466.083	0.01
466.283	-0.03
466.483	-0.05
466.684	-0.05
466.884	-0.04
467.085	-0.01
467.285	0.04
467.485	-0.03
467.686	-0.02
467.886	-0.05
468.086	0.02
468.286	0.02
468.487	-0.04
468.687	-0.01
468.887	-0
469.087	0.03
469.287	-0.03
469.488	-0.03
469.688	0.03
469.888	0
470.088	0.02
470.288	0.01
470.488	0.05
470.688	-0.06
470.888	-0.01
471.088	-0.02
471.288	0.03
471.488	0.02
471.688	0.02
471.888	-0.03
472.088	0.04
472.288	0.02
472.488	-0.05
472.688	-0.03
472.888	-0.02
473.088	-0
473.288	-0
473.488	-0.02
473.688	0.06
473.887	-0.01
474.087	0
474.287	0.01
474.487	-0.04
474.687	0.02
474.886	0.01
475.086	-0
475.286	0.05
475.486	0
475.685	-0.05
475.885	0.01
476.085	0.02
476.284	0.04
476.484	0.02
476.684	0.02
476.883	0.05
477.083	0.04
477.282	-0.04
477.482	0.05
477.681	0.07
477.881	0
478.08	-0.01
478.28	-0.05
478.479	0.04
478.679	0.07
478.878	-0.01
479.078	-0.03
479.277	-0.02
479.477	0.01
479.676	0.02
479.875	-0.02
480.075	-0.07
480.274	-0
480.473	0.03
480.673	-0.04
480.872	0.01
481.071	0.02
481.271	-0.01
481.47	-0.06
481.669	-0.01
481.868	-0.01
482.067	-0.02
482.267	-0.01
482.466	0.01
482.665	-0.03
482.864	-0.03
483.063	-0.04
483.262	-0
483.461	0.03
483.661	0.04
483.86	-0.01
484.059	0.01
484.258	0.02
484.457	-0.01
484.656	-0.02
484.855	0.05
485.054	-0.03
485.253	-0.02
485.452	-0.01
485.651	0
485.849	-0
486.048	-0.03
486.247	-0.03
486.446	-0
486.645	-0.03
486.844	-0.02
487.043	-0.03
487.241	0.02
487.44	-0.02
487.639	-0
487.838	0.02
488.037	0.03
488.235	0.03
488.434	-0
488.633	-0.01
488.831	0.02
489.03	0.02
489.229	-0.01
489.427	-0.04
489.626	0
489.825	0.06
490.023	0.02
490.222	-0.02
490.42	0.03
490.619	0.05
490.817	0.02
491.016	-0.01
491.214	-0
491.413	-0.01
491.611	-0.01
491.81	-0
492.008	0.01
492.207	0
492.405	-0.01
492.604	-0.04
492.802	0
493	0.02
493.199	-0.01
493.397	-0.01
493.595	-0.04
493.794	-0.01
493.992	0.05
494.19	0
494.388	0.02
494.587	-0.02
494.785	0
494.983	-0.06
495.181	-0
495.379	0.01
495.578	-0.02
495.776	0.02
495.974	0.02
496.172	-0.03
496.37	-0
496.568	-0.02
496.766	-0.03
496.964	0.03
497.162	-0.02
497.36	-0.02
497.558	0.02
497.756	0.02
497.954	0.01
498.152	-0.04
498.35	-0.03
498.548	0
498.746	0
498.944	-0.02
499.142	-0
499.34	-0.03
499.538	-0
499.736	-0.04
499.933	0.03
500.131	0.03
500.329	-0.01
500.527	0.04
500.725	0.03
500.922	0.01
501.12	0.02
501.318	0.02
501.516	-0.02
501.713	0
501.911	-0.01
502.109	-0
502.306	-0
502.504	-0.03
502.701	-0.01
502.899	-0.01
503.097	0.04
503.294	0.01
503.492	-0.02
503.689	0.03
503.887	0.03
504.084	0.03
504.282	-0
504.479	-0.05
504.677	-0
504.874	-0.04
505.072	0.01
505.269	-0.02
505.466	0.02
505.664	0.02
505.861	-0.02
506.059	-0.02
506.256	0.01
506.453	-0.03
506.651	0.04
506.848	0.02
507.045	0.03
507.242	0
507.44	0
507.637	0.01
507.834	-0.02
508.031	0.02
508.229	-0.02
508.426	0
508.623	-0
508.82	-0.03
509.017	-0.01
509.214	-0
509.411	0.02
509.608	-0.02
509.805	-0.01
510.003	-0.01
510.2	0
510.397	0.01
510.594	-0.03
510.791	-0.02
510.988	0
511.184	0.02
511.381	0.02
511.578	-0.02
511.775	0
511.972	-0.02
512.169	-0.02
512.366	0.01
512.563	0.01
512.76	-0.03
512.956	0.01
513.153	-0.02
513.35	0
513.547	-0.02
513.744	-0
513.94	-0.04
514.137	0.02
514.334	0
514.53	-0
514.727	0
514.924	0.03
515.12	-0.02
515.317	-0.03
515.514	-0.01
515.71	-0.03
515.907	-0
516.103	-0
516.3	0
516.497	0.04
516.693	0.02
516.89	0
517.086	-0.03
517.283	0.06
517.479	0.03
517.676	-0.01
517.872	-0.01
518.068	-0.02
518.265	-0.02
518.461	0
518.658	-0.04
518.854	0.02
519.05	-0.01
519.247	-0.01
519.443	0.03
519.639	0.03
519.836	0.01
520.032	-0
520.228	0.01
520.424	0.04
520.621	-0.01
520.817	0
521.013	0.02
521.209	0.03
521.405	0.04
521.601	-0.01
521.798	0.01
521.994	0.02
522.19	-0.02
522.386	-0.04
522.582	-0.02
522.778	0.01
522.974	-0.01
523.17	0
523.366	-0
523.562	0.03
523.758	0
523.954	-0.02
524.15	-0.01
524.346	0.02
524.542	-0.02
524.738	-0.01
524.934	-0.02
525.129	-0.07
525.325	-0
525.521	-0.02
525.717	0.02
525.913	0.01
526.109	-0
526.304	-0.03
526.5	0.01
526.696	0.04
526.892	-0.01
527.087	0.01
527.283	-0.03
527.479	0.01
527.674	-0.02
527.87	0
528.066	-0.03
528.261	0.03
528.457	0
528.653	0
528.848	-0.03
529.044	-0.01
529.239	-0
529.435	0.01
529.63	0.01
529.826	0.03
530.021	0.01
530.217	0.03
530.412	-0.02
530.608	-0.01
530.803	-0
530.999	-0.01
531.194	-0.04
531.389	0.03
531.585	-0.06
531.78	0.01
531.975	0.01
532.171	0.02
532.366	-0
532.561	0.01
532.757	-0.02
532.952	-0.01
533.147	0
533.342	-0.01
533.538	-0.02
533.733	0.05
533.928	-0.01
534.123	-0.02
534.318	-0.04
534.513	-0.01
534.709	0.01
534.904	-0.02
535.099	-0.01
535.294	-0.01
535.489	-0
535.684	0.01
535.879	-0.01
536.074	-0.01
536.269	-0.02
536.464	0.02
536.659	-0
536.854	0.02
537.049	0.01
537.244	0
537.439	-0.02
537.634	0.04
537.828	0.01
538.023	-0.01
538.218	-0.03
538.413	-0
538.608	-0.03
538.803	0.02
538.997	-0.04
539.192	0.03
539.387	0.01
539.582	0
539.776	0
539.971	-0.02
540.166	-0.01
540.36	-0.04
540.555	0
540.75	-0.01
540.944	-0.01
541.139	-0.04
541.334	-0
541.528	-0
541.723	-0
541.917	0
542.112	-0.03
542.306	0
542.501	-0.01
542.695	-0
542.89	-0.01
543.084	0.01
543.279	-0.03
543.473	0.01
543.668	0.01
543.862	-0.01
544.056	0.01
544.251	-0.02
544.445	0.01
544.64	0
544.834	-0.03
545.028	0.01
545.222	0.02
545.417	0.02
545.611	-0
545.805	-0.02
546	-0.02
546.194	0
546.388	-0
546.582	0.02
546.776	-0
546.97	-0
547.165	0
547.359	0
547.553	-0.04
547.747	0
547.941	-0
548.135	-0.01
548.329	0.01
548.523	0.01
548.717	-0
548.911	0
549.105	-0
549.299	0.03
549.493	0.01
549.687	0.02
549.881	0.01
550.075	-0.01
550.269	-0.04
550.463	0
550.657	-0.01
550.85	0
551.044	-0.02
551.238	0.01
551.432	-0.01
551.626	-0
551.82	-0.01
552.013	-0.02
552.207	0.02
552.401	0.02
552.594	0
552.788	-0.01
552.982	0
553.176	-0
553.369	-0.01
553.563	0.02
553.756	-0.02
553.95	-0.02
554.144	-0.01
554.337	-0.01
554.531	-0
554.724	-0
554.918	-0.02
555.111	0.01
555.305	0.01
555.498	0.03
555.692	0.01
555.885	-0
556.079	0.01
556.272	-0.01
556.466	0.02
556.659	0
556.852	-0.01
557.046	-0.02
557.239	0.01
557.432	-0.03
557.626	-0.03
557.819	0.01
558.012	0.02
558.206	0.01
558.399	0.01
558.592	-0.02
558.785	-0
558.979	0.02
559.172	0.01
559.365	0.01
559.558	0.01
559.751	-0
559.944	-0.02
560.138	-0.02
560.331	-0.01
560.524	0.01
560.717	-0.01
560.91	0
561.103	0.01
561.296	-0.01
561.489	0.02
561.682	0
561.875	0.03
562.068	0.02
562.261	0.01
562.454	0.02
562.647	-0.01
562.84	0.01
563.032	-0.01
563.225	0
563.418	0.01
563.611	-0
563.804	0.01
563.997	-0.04
564.19	-0.03
564.382	-0.06
564.575	-0.02
564.768	-0.01
564.961	-0.03
565.153	-0.02
565.346	0.04
565.539	0.04
565.731	0.02
565.924	0
566.117	0.01
566.309	-0.01
566.502	-0.02
566.695	-0.01
566.887	0.01
567.08	-0.03
567.272	-0.01
567.465	-0.02
567.657	-0.01
567.85	0.02
568.042	0.01
568.235	0.03
568.427	-0.02
568.62	0
568.812	0.02
569.005	-0.02
569.197	-0.05
569.389	-0
569.582	0.01
569.774	0
569.966	-0.03
570.159	-0.04
570.351	0.01
570.543	-0.01
570.736	-0
570.928	-0.04
571.12	0
571.312	-0.02
571.505	-0.04
571.697	0.03
571.889	-0.03
572.081	-0.01
572.273	-0.04
572.465	0.02
572.658	-0.01
572.85	-0
573.042	-0
573.234	0
573.426	0.04
573.618	-0.04
573.81	0.01
574.002	0.02
574.194	0.04
574.386	-0.04
574.578	-0.07
574.77	-0.04
574.962	0
575.154	-0.02
575.346	-0
575.538	0
575.729	-0.02
575.921	-0.02
576.113	-0
576.305	0.03
576.497	0.01
576.689	-0.01
576.88	-0.03
577.072	-0.01
577.264	-0.01
577.456	-0.01
577.647	-0.09
577.839	0.01
578.031	0.04
578.223	-0.04
578.414	-0.05
578.606	0.02
578.798	-0.01
578.989	-0.03
579.181	0
579.372	-0.01
579.564	-0
579.755	-0
579.947	0.01
580.139	0.01
580.33	-0.04
580.522	-0.03
580.713	-0.05
580.905	-0.01
581.096	-0.01
581.287	-0
581.479	0.02
581.67	0.01
581.862	-0.03
582.053	-0.02
582.244	-0.05
582.436	-0.02
582.627	-0
582.818	-0.03
583.01	-0.04
583.201	0.01
583.392	0.03
583.583	0.02
583.775	-0.01
583.966	-0.01
584.157	0
584.348	-0.01
584.54	-0.03
584.731	0.01
584.922	-0.02
585.113	-0.03
585.304	0.01
585.495	0.02
585.686	0
585.877	0.01
586.068	0.02
586.259	0.01
586.45	0
586.641	-0.01
586.832	-0.06
587.023	-0.02
587.214	-0.01
587.405	-0.01
587.596	-0.01
587.787	0.01
587.978	0.01
588.169	-0.02
588.36	-0.01
588.551	0.02
588.742	-0.02
588.932	0.02
589.123	-0.03
589.314	0.04
589.505	0.02
589.696	-0.02
589.886	-0.02
590.077	-0.04
590.268	0
590.458	-0.04
590.649	-0.04
590.84	0.05
591.03	-0.02
591.221	-0.02
591.412	-0.04
591.602	0.03
591.793	-0
591.984	-0.03
592.174	-0.01
592.365	0.07
592.555	-0.04
592.746	-0
592.936	0.02
593.127	0.03
593.317	0.03
593.508	-0.01
593.698	-0.02
593.889	-0.01
594.079	0.01
594.269	-0.04
594.46	0.01
594.65	0.01
594.84	0.02
595.031	-0.02
595.221	-0.01
595.411	-0.04
595.602	0
595.792	-0
595.982	-0.02
596.172	0.04
596.363	0.01
596.553	0.01
596.743	-0.01
596.933	0.02
597.123	0.02
597.314	-0.04
597.504	-0.05
597.694	-0
597.884	0.01
598.074	0
598.264	-0.04
598.454	-0.03
598.644	0.02
598.834	0
599.024	-0.02
599.214	0
599.404	0.01
599.594	-0.03
599.784	-0.02
599.974	0.03
600.164	0.03
600.354	-0.02
600.544	-0.03
600.734	0.01
600.924	0.05
601.114	-0.03
601.303	-0.01
601.493	0.01
601.683	-0.03
601.873	-0
602.063	-0.03
602.252	0.02
602.442	-0.05
602.632	-0.03
602.821	-0.04
603.011	0.01
603.201	0
603.39	-0.02
603.58	-0.02
603.77	0
603.959	0.02
604.149	-0.02
604.339	-0.01
604.528	0.02
604.718	0.01
604.907	-0.01
605.097	-0.01
605.286	-0.06
605.476	0.02
605.665	0.02
605.855	-0.02
606.044	0.05
606.234	0.02
606.423	-0.02
606.612	-0.03
606.802	0.02
606.991	0.04
607.181	0.01
607.37	-0.04
607.559	-0.01
607.749	-0.03
607.938	-0.01
608.127	-0
608.316	-0.02
608.506	0.01
608.695	-0.02
608.884	-0.03
609.073	0.02
609.263	0.02
609.452	0
609.641	0
609.83	-0.06
610.019	0
610.208	-0.06
610.397	-0.01
610.586	0.02
610.775	-0.01
610.965	-0.03
611.154	-0.03
611.343	-0.01
611.532	0.01
611.721	-0.03
611.91	-0.03
612.099	-0
612.287	0
612.476	-0.03
612.665	0.03
612.854	-0.02
613.043	0.04
613.232	0.01
613.421	-0.06
613.61	-0
613.798	-0.03
613.987	0.01
614.176	-0.03
614.365	0.03
614.554	-0
614.742	0.01
614.931	-0.02
615.12	0.01
615.309	-0.02
615.497	-0.01
615.686	-0.06
615.875	-0.01
616.063	-0
616.252	-0.04
616.44	-0.03
616.629	-0.01
616.818	0.04
617.006	-0.01
617.195	0
617.383	-0.02
617.572	-0.01
617.76	-0.04
617.949	-0.01
618.137	0.04
618.326	0.02
618.514	-0.04
618.703	-0.01
618.891	0.03
619.079	-0.05
619.268	0.02
619.456	-0.03
619.644	0.02
619.833	-0.01
620.021	-0
620.209	-0.04
620.398	0.01
620.586	0
620.774	-0
620.962	-0.02
621.151	0.02
621.339	-0
621.527	-0.03
621.715	-0.03
621.903	-0.03
622.092	-0.06
622.28	0
622.468	-0.03
622.656	-0.04
622.844	0.01
623.032	-0.03
623.22	-0.04
623.408	0.04
623.596	0.01
623.784	0.01
623.972	-0.02
624.16	-0
624.348	0.06
624.536	-0
624.724	-0.01
624.912	0.03
625.1	0.02
625.288	-0.02
625.476	-0
625.664	0.04
625.851	-0.05
626.039	-0
626.227	-0
626.415	-0
626.603	-0.07
626.79	0
626.978	0
627.166	0.01
627.354	0.01
627.541	-0.04
627.729	-0.05
627.917	0.02
628.104	0.04
628.292	-0.02
628.48	0
628.667	0.01
628.855	0.01
629.042	-0.01
629.23	-0.04
629.418	0.01
629.605	-0.03
629.793	-0.04
629.98	-0.03
630.168	-0.01
630.355	0.01
630.543	-0.01
630.73	-0.07
630.917	0
631.105	0.04
631.292	-0.03
631.48	-0.01
631.667	0.07
631.854	0.04
632.042	0.01
632.229	-0.05
632.416	-0
632.604	-0.02
632.791	-0.05
632.978	0.03
633.165	0.02
633.353	0.03
633.54	0.05
633.727	-0.08
633.914	-0.04
634.101	0.01
634.289	0.04
634.476	-0.04
634.663	-0.05
634.85	0.01
635.037	-0.04
635.224	-0.07
635.411	0.04
635.598	0.05
635.785	-0.01
635.972	-0
636.159	0.02
636.346	-0.02
636.533	-0.01
636.72	-0.01
636.907	-0.01
637.094	0.01
637.281	-0.03
637.468	0.01
637.655	-0.02
637.842	-0
638.029	-0.04
638.215	0.01
638.402	0
638.589	-0.04
638.776	-0.02
638.963	-0.02
639.149	0.04
639.336	0.06
639.523	-0
639.709	-0.02
639.896	0
640.083	0.04
640.27	0.03
640.456	-0.04
640.643	0.04
640.829	-0.03
641.016	0.01
641.203	-0.05
641.389	0.04
641.576	0.03
641.762	-0
641.949	-0.04
642.135	0.04
642.322	0
642.508	-0.02
642.695	0.01
642.881	0.01
643.068	-0.04
643.254	-0.03
643.441	0.03
643.627	-0
643.813	-0.04
644	0.02
644.186	-0.03
644.372	-0.04
644.559	0.06
644.745	-0
644.931	-0.01
645.118	-0
645.304	-0.04
645.49	-0.02
645.676	-0
645.862	-0.02
646.049	0.04
646.235	-0.02
646.421	0.04
646.607	0.05
646.793	-0.03
646.979	-0.01
647.165	0.03
647.352	0.01
647.538	0.06
647.724	-0.02
647.91	-0.01
648.096	0.04
648.282	0.04
648.468	0.01
648.654	-0.01
648.84	0.02
649.026	0.02
649.212	0.03
649.397	-0.04
649.583	-0.05
649.769	0.01
649.955	-0.01
650.141	0.03
650.327	0.01
650.513	-0.04
650.698	0.01
650.884	-0.08
651.07	0.01
651.256	0.03
651.442	-0.02
651.627	-0.01
651.813	0
651.999	0.02
652.184	-0.02
652.37	0.01
652.556	-0.03
652.741	0.04
652.927	-0.06
653.113	-0.02
653.298	-0.01
653.484	-0.03
653.669	-0.05
653.855	0.01
654.04	0.03
654.226	0.03
654.412	0
654.597	-0
654.782	0.01
654.968	0.04
655.153	0.04
655.339	-0.01
655.524	-0.04
655.71	0.04
655.895	-0.02
656.08	0
656.266	0.02
656.451	0
656.636	-0.05
656.822	-0.02
657.007	-0.02
657.192	-0.01
657.378	-0.03
657.563	-0
657.748	0.03
657.933	0.01
658.118	0.02
658.304	-0.02
658.489	0.02
658.674	0.01
658.859	-0.06
659.044	0.01
659.229	0.03
659.414	-0.05
659.599	-0.04
659.785	-0.04
659.97	0.01
660.155	0.04
660.34	0.01
660.525	-0.02
660.71	-0.02
660.895	0.04
661.08	-0
661.264	-0.01
661.449	0.03
661.634	0.05
661.819	0.03
662.004	0.02
662.189	-0.06
662.374	-0.02
662.559	-0.03
662.743	-0.04
662.928	0.01
663.113	0.01
663.298	-0.03
663.483	0
663.667	0.02
663.852	-0.03
664.037	0.03
664.221	-0.01
664.406	0.06
664.591	0.01
664.775	0.02
664.96	0.03
665.145	0.02
665.329	0.03
665.514	-0.05
665.698	0.02
665.883	-0.03
666.068	0.09
666.252	0.04
666.437	-0.07
666.621	0
666.806	0.01
666.99	-0.02
667.174	-0.02
667.359	0.08
667.543	0.01
667.728	0.05
667.912	-0.02
668.096	0.08
668.281	-0.01
668.465	0.03
668.649	0.07
668.834	-0.03
669.018	0.02
669.202	-0.01
669.387	0.02
669.571	0.08
669.755	-0.02
669.939	0.03
670.124	0.02
670.308	0.1
670.492	0.03
670.676	0.08
670.86	-0.01
671.044	-0
671.228	0.05
671.413	0.02
671.597	0.02
671.781	-0.01
671.965	0.06
672.149	0.03
672.333	0.04
672.517	0.01
672.701	0.03
672.885	0.06
673.069	-0.01
673.253	0.05
673.437	0.01
673.621	0.01
673.804	-0.01
673.988	0.03
674.172	0.05
674.356	-0.08
674.54	0.03
674.724	0.12
674.908	0.07
675.091	0.06
675.275	0.03
675.459	0.08
675.643	0.05
675.826	0.07
676.01	0.03
676.194	0.08
676.377	0.02
676.561	0.13
676.745	0.06
676.928	0.08
677.112	0.09
677.296	0.04
677.479	0.03
677.663	0.08
677.846	0.11
678.03	0.07
678.213	0.03
678.397	0.03
678.58	0.04
678.764	0.05
678.947	0.01
679.131	-0
679.314	0.13
679.498	0.02
679.681	0.07
679.865	0.07
680.048	0.09
680.231	0.03
680.415	0.06
680.598	0.06
680.781	0.08
680.965	0.03
681.148	0.07
681.331	0.06
681.514	0.07
681.698	0.05
681.881	0.15
682.064	0.07
682.247	0.07
682.43	0.06
682.614	0.09
682.797	0.11
682.98	0.15
683.163	0.04
683.346	0.16
683.529	0.06
683.712	0.03
683.895	0.13
684.078	0.09
684.261	0.12
684.444	0.12
684.627	0.11
684.81	0.08
684.993	0.07
685.176	0.12
685.359	0.09
685.542	0.1
685.725	0.16
685.908	0.15
686.091	0.1
686.274	0.14
686.457	0.12
686.639	0.14
686.822	0.19
687.005	0.11
687.188	0.13
687.371	0.16
687.553	0.21
687.736	0.19
687.919	0.23
688.102	0.2
688.284	0.17
688.467	0.19
688.65	0.14
688.832	0.12
689.015	0.12
689.197	0.1
689.38	0.19
689.563	0.24
689.745	0.12
689.928	0.16
690.11	0.17
690.293	0.27
690.475	0.13
690.658	0.18
690.84	0.16
691.023	0.2
691.205	0.17
691.388	0.17
691.57	0.23
691.752	0.23
691.935	0.11
692.117	0.18
692.3	0.28
692.482	0.23
692.664	0.22
692.847	0.26
693.029	0.31
693.211	0.28
693.393	0.19
693.576	0.25
693.758	0.26
693.94	0.23
694.122	0.24
694.304	0.29
694.487	0.26
694.669	0.32
694.851	0.23
695.033	0.26
695.215	0.27
695.397	0.27
695.579	0.33
695.761	0.26
695.943	0.27
696.125	0.38
696.308	0.34
696.49	0.26
696.671	0.4
696.853	0.3
697.035	0.49
697.217	0.34
697.399	0.38
697.581	0.35
697.763	0.37
697.945	0.33
698.127	0.35
698.309	0.45
698.491	0.38
698.672	0.45
698.854	0.41
699.036	0.44
699.218	0.44
699.399	0.47
699.581	0.48
699.763	0.38
699.945	0.39
700.126	0.38
700.308	0.55
700.49	0.44
700.671	0.41
700.853	0.46
701.035	0.45
701.216	0.45
701.398	0.45
701.579	0.55
701.761	0.53
701.943	0.43
702.124	0.51
702.306	0.56
702.487	0.69
702.669	0.6
702.85	0.55
703.031	0.51
703.213	0.76
703.394	0.62
703.576	0.59
703.757	0.69
703.938	0.75
704.12	0.75
704.301	0.61
704.483	0.65
704.664	0.67
704.845	0.77
705.026	0.7
705.208	0.66
705.389	0.7
705.57	0.75
705.751	0.76
705.933	0.82
706.114	0.87
706.295	0.76
706.476	0.76
706.657	0.96
706.838	0.85
707.02	0.89
707.201	0.81
707.382	0.86
707.563	0.97
707.744	0.87
707.925	0.85
708.106	0.9
708.287	0.96
708.468	1.04
708.649	0.95
708.83	1.02
709.011	0.94
709.192	1.13
709.373	1.01
709.554	1.09
709.734	1.09
709.915	1.06
710.096	1.11
710.277	1.04
710.458	1.21
710.639	1.18
710.819	1.1
711	1.14
711.181	1.35
711.362	1.3
711.542	1.32
711.723	1.34
711.904	1.46
712.085	1.43
712.265	1.39
712.446	1.28
712.627	1.39
712.807	1.52
712.988	1.52
713.168	1.37
713.349	1.54
713.53	1.45
713.71	1.49
713.891	1.49
714.071	1.6
714.252	1.56
714.432	1.65
714.613	1.53
714.793	1.72
714.974	1.76
715.154	1.84
715.334	1.9
715.515	1.93
715.695	1.71
715.876	1.97
716.056	1.9
716.236	1.93
716.417	2.05
716.597	1.94
716.777	2.25
716.957	2.1
717.138	2.09
717.318	2.13
717.498	2.1
717.678	2.26
717.859	2.28
718.039	2.23
718.219	2.39
718.399	2.41
718.579	2.33
718.759	2.42
718.939	2.48
719.12	2.5
719.3	2.61
719.48	2.53
719.66	2.54
719.84	2.76
720.02	2.68
720.2	2.73
720.38	2.89
720.56	3.07
720.74	2.85
720.92	2.95
721.1	3.2
721.279	3.08
721.459	3.15
721.639	3.09
721.819	3.14
721.999	3.26
722.179	3.29
722.359	3.28
722.538	3.48
722.718	3.45
722.898	3.46
723.078	3.55
723.257	3.59
723.437	3.72
723.617	3.73
723.797	3.8
723.976	3.76
724.156	4.07
724.336	3.96
724.515	4.19
724.695	4.14
724.874	4.16
725.054	4.26
725.234	4.22
725.413	4.29
725.593	4.31
725.772	4.3
725.952	4.51
726.131	4.45
726.311	4.58
726.49	4.53
726.67	4.64
726.849	4.68
727.028	4.76
727.208	4.8
727.387	4.97
727.567	5.01
727.746	4.95
727.925	4.88
728.105	4.99
728.284	5.11
728.463	5.18
728.643	5.25
728.822	5.35
729.001	5.39
729.18	5.4
729.359	5.61
729.539	5.83
729.718	5.76
729.897	5.84
730.076	5.84
730.255	5.9
730.434	5.92
730.614	5.98
730.793	6.15
730.972	6.3
731.151	6.4
731.33	6.37
731.509	6.41
731.688	6.37
731.867	6.64
732.046	6.48
732.225	6.88
732.404	6.65
732.583	6.83
732.762	7
732.941	7.11
733.12	7.12
733.298	7.06
733.477	7.22
733.656	7.19
733.835	7.21
734.014	7.43
734.193	7.34
734.371	7.51
734.55	7.66
734.729	7.46
734.908	7.57
735.086	7.75
735.265	7.8
735.444	7.49
735.623	7.72
735.801	7.84
735.98	7.84
736.159	7.81
736.337	7.88
736.516	7.78
736.694	7.73
736.873	7.75
737.052	8.07
737.23	7.76
737.409	7.5
737.587	7.64
737.766	7.54
737.944	7.47
738.123	7.82
738.301	7.53
738.479	7.49
738.658	7.42
738.836	7.07
739.015	7.24
739.193	7.13
739.371	6.6
739.55	6.65
739.728	6.4
739.906	6.73
740.085	6.56
740.263	6.41
740.441	5.92
740.62	6.17
740.798	5.94
740.976	5.8
741.154	5.55
741.332	5.68
741.511	5.18
741.689	5.09
741.867	5.09
742.045	4.83
742.223	4.66
742.401	4.47
742.579	4.37
742.757	4.52
742.935	4.15
743.114	4.1
743.292	3.85
743.47	3.85
743.648	3.84
743.826	3.54
744.004	3.7
744.181	3.26
744.359	3.16
744.537	3.24
744.715	2.95
744.893	2.97
745.071	2.78
745.249	2.8
745.427	2.69
745.605	2.65
745.782	2.4
745.96	2.41
746.138	2.56
746.316	2.35
746.493	2.08
746.671	2.06
746.849	1.94
747.027	2.09
747.204	1.94
747.382	1.95
747.56	1.58
747.737	1.8
747.915	1.55
748.093	1.73
748.27	1.42
748.448	1.51
748.625	1.35
748.803	1.34
748.98	1.25
749.158	1.31
749.335	1.32
749.513	1.12
749.69	1.17
749.868	1.11
750.045	1.03
750.223	1.06
750.4	0.89
750.578	1.26
750.755	1.02
750.932	0.93
751.11	1.02
751.287	0.76
751.464	1.04
751.642	0.76
751.819	0.91
751.996	0.83
752.173	0.77
752.351	0.61
752.528	0.83
752.705	0.68
752.882	0.57
753.06	0.74
753.237	0.75
753.414	0.79
753.591	0.82
753.768	0.55
753.945	0.51
754.122	0.52
754.299	0.62
754.476	0.38
754.654	0.49
754.831	0.54
755.008	0.43
755.185	0.48
755.362	0.22
755.539	0.35
755.716	0.31
755.892	0.39
756.069	0.37
756.246	0.43
756.423	0.25
756.6	0.51
756.777	0.28
756.954	0.39
757.131	0.29
757.307	0.28
757.484	0.21
757.661	0.21
757.838	0.35
758.015	0.28
758.191	0.44
758.368	0.41
758.545	0.41
758.721	0.29
758.898	0.13
759.075	0.26
759.251	0.35
759.428	0.2
759.605	0.12
759.781	0.24
759.958	0.25
760.134	0.22
760.311	0.09
760.488	0.24
760.664	0.34
760.841	0.17
761.017	0.18
761.194	0.23
761.37	0.35
761.547	0.16
761.723	0.09
761.899	0.23
762.076	0.09
762.252	0.06
762.429	0.13
762.605	0.31
762.781	0.16
762.958	0.07
763.134	0.12
763.31	0.03
763.486	0.24
763.663	-0.04
763.839	0.16
764.015	-0.07
764.191	-0.04
764.368	-0.01
764.544	0.02
764.72	0.19
764.896	0.24
765.072	0.13
765.248	0.01
765.425	0.16
765.601	0.16
765.777	0.12
765.953	-0.09
766.129	-0.01
766.305	-0.01
766.481	0.13
766.657	0.14
766.833	0.21
767.009	-0.04
767.185	-0.06
767.361	0.03
767.537	-0.05
767.713	0.22
767.889	0.09
768.065	0.07
768.24	0.07
768.416	0.17
768.592	-0
768.768	0.08
768.944	0.14
769.12	-0.1
769.295	0.02
769.471	0.03
769.647	0.03
769.823	0.08
769.998	-0.03
770.174	-0.07
770.35	0.42
770.525	0.32
770.701	-0.03
770.877	0.01
771.052	-0.07
771.228	0.23
771.403	0.13
771.579	0.14
771.755	0.23
771.93	-0.13
772.106	-0.12
772.281	-0.2
772.457	-0.04
772.632	0.14
772.808	-0.16
772.983	0.03
773.159	-0.07
773.334	0.19
773.509	0.11
773.685	-0.17
773.86	0.45
774.036	0.15
774.211	0.08
774.386	0.06
774.562	0.03
774.737	0.08
774.912	-0.13
775.087	0.07
775.263	0.06
775.438	-0
775.613	-0.2
775.788	0.04
775.964	0.13
776.139	0.43
776.314	-0.26
776.489	0.05
776.664	0.18
776.839	-0.14
777.014	0.33
777.19	-0.01
777.365	0.29
777.54	0.35
777.715	-0.02
777.89	0.03
778.065	-0.22
778.24	0.11
778.415	0.24
778.59	-0.09
778.765	-0.05
778.94	-0.03
779.115	-0.06
779.289	-0.09
779.464	-0.02
779.639	-0.05
779.814	-0.13
779.989	-0.16
780.164	0.05
780.339	0.12
780.513	-0.13
780.688	-0.18
780.863	-0.05
781.038	0.06
781.212	-0.15
781.387	0.02
781.562	0.3
781.737	0.03
781.911	0.34
782.086	-0.08
782.261	0.06
782.435	0.27
782.61	0.11
782.784	0.04
782.959	0.33
783.134	0.14
783.308	-0.23
783.483	-0.03
783.657	0.32
783.832	0.15
784.006	-0.25
784.181	-0.2
784.355	0.15
784.53	-0.31
784.704	-0.04
784.878	0.29
785.053	0.03
785.227	0.19
785.402	0.41
785.576	-0.21
785.75	-0.06
785.925	-0.04
786.099	0.03
786.273	-0.07
786.448	0.1
786.622	0.28
786.796	-0.16
786.97	0.07
787.145	0.47
787.319	-0.24
787.493	0.06
787.667	-0.37
787.841	-0.03
788.015	0.22
788.19	-0.05
788.364	0.17
788.538	0.04
788.712	0.25
788.886	-0.23
789.06	0.2
789.234	0.14
789.408	-0.27
789.582	-0.23
789.756	0.2
789.93	-0.02
790.104	-0.01
790.278	-0.04
790.452	-0.11
790.626	0.28
790.8	-0.17
790.973	0.1
791.147	0.07
791.321	0.2
791.495	0.15
791.669	0.01
791.843	-0.05
792.016	-0.01
792.19	0.49
792.364	-0.12
792.538	0.41
792.711	0.16
792.885	-0.08
793.059	-0.19
793.233	-0.44
793.406	0.28
793.58	0.01
793.754	0.11
793.927	-0.15
794.101	0.18
794.274	0.09
794.448	0.35
794.622	-0.06
794.795	0.18
794.969	0.03
795.142	0.35
795.316	-0.04
795.489	-0.08
795.663	0.13
795.836	0.03
796.009	-0.32
796.183	0.12
796.356	0.16
796.53	-0.02
796.703	-0.38
796.876	0.42
797.05	-0.09
797.223	-0.05
797.396	0.25
797.57	0.16
797.743	0.08
797.916	-0.15
798.09	-0.06
798.263	0.2
798.436	0.3
798.609	-0.06
798.782	-0.16
798.956	0.16
799.129	-0.02
799.302	-0.25
799.475	-0.16
799.648	-0.07
799.821	-0.03
799.994	0.19
800.167	-0.08
800.34	0.12
800.514	0.26
800.687	-0.1
800.86	-0.08
801.033	-0.17
801.206	0.11
801.379	-0.25
801.551	0.24
801.724	0.29
801.897	0.49
802.07	-0.09
802.243	-0.54
802.416	-0.11
802.589	-0.25
802.762	-0.03
802.935	0.11
803.107	0.23
803.28	0.26
803.453	0.05
803.626	-0.16
803.798	-0.05
803.971	-0.27
804.144	0.41
804.317	0.42
804.489	0.54
804.662	0.08
804.835	-0.07
805.007	-0.3
805.18	0.39
805.353	0.02
805.525	-0.1
805.698	-0.14
805.87	-0.04
806.043	0.43
806.215	-0.21
806.388	0.07
806.56	0.13
806.733	0.6
806.905	0.14
807.078	-0.06
807.25	0.04
807.423	0.09
807.595	0.13
807.768	0.13
807.94	0.42
808.112	0.11
808.285	0.19
808.457	-0.19
808.629	0.18
808.802	0.35
808.974	0.06
809.146	-0.01
809.318	-0.15
809.491	0.02
809.663	0.4
809.835	-0.11
810.007	0.33
810.18	0.06
810.352	-0.15
810.524	-0.48
810.696	0.21
810.868	0.22
811.04	-0.03
811.212	-0.03
811.384	0.37
811.556	0.04
811.728	-0.21
811.901	0.68
812.073	-0.29
812.245	0.32
812.417	0.25
812.589	-0.84
812.76	0.18
812.932	0.3
813.104	0.33
813.276	-0.21
813.448	0.37
813.62	0.12
813.792	0.31
813.964	-0.02
814.136	0.3
814.307	-0.06
814.479	-0.23
814.651	-0.33
814.823	0.77
814.995	-0.02
815.166	-0.41
815.338	-0.2
815.51	-0.55
815.681	0.88
815.853	0.1
816.025	-0.08
816.196	0.24
816.368	0.3
816.54	-0.41
816.711	-0.44
816.883	0.29
817.054	0.75
817.226	-0.67
817.398	0.23
817.569	-0.22
817.741	-0.23
817.912	0.12
818.084	-0.1
818.255	0.26
818.426	-0.2
818.598	-0.09
818.769	-0.42
818.941	0.2
819.112	0.25
819.283	0.27
819.455	-0.47
819.626	0.34
819.798	-0.07
819.969	0.25
820.14	0.11
820.311	-0.16
820.483	0.17
820.654	0.12
820.825	0.11
820.996	-0.29
821.168	-0.33
821.339	-0.43
821.51	-0.11
821.681	1.06
821.852	0.06
822.023	-0.21
822.195	-0.35
822.366	0.27
822.537	-0.12
822.708	0.5
822.879	-0.56
823.05	0.67
823.221	0.12
823.392	0.41
823.563	0
823.734	-0.1
823.905	-0.05
824.076	-0.06
824.247	-0.47
824.418	-0.37
824.589	0.41
824.759	-0.39
824.93	-0.13
825.101	-1.18
825.272	-0.16
825.443	0.55
825.614	0.39
825.784	-1.14
825.955	1.11
826.126	0.56
826.297	-0.01
826.467	0.63
826.638	0.97
826.809	-0.99
826.98	0.1
827.15	0.7
827.321	-0.17
827.492	0.93
827.662	-0.18
827.833	0.9
828.003	0.38
828.174	0.02
828.345	-0.25
828.515	0.79
828.686	0.42
828.856	-0.07
829.027	-0
829.197	0.19
829.368	0.42
829.538	-0.41
829.709	-0.23
829.879	0.51
830.049	0.19
830.22	-0.31
830.39	0.4
830.56	0.83
830.731	0.06
830.901	-0.28
831.072	-0.38
831.242	0.6
831.412	-0.21
831.582	0.02
831.753	-0.37
831.923	0.34
832.093	0.08
832.263	0.35
832.434	-0.74
832.604	-0.34
832.774	0.74
832.944	-0.05
833.114	-0.29
833.284	0.28
833.454	-0.71
833.624	0.01
833.795	-0.44
833.965	0.9
834.135	0.62
834.305	-0.53
834.475	-0.66
834.645	0.15
834.815	-0.93
834.985	-0.67
835.155	-0.18
835.325	0.46
835.494	-0.11
835.664	-0.48
835.834	-0.61
836.004	0.2
836.174	-0.35
836.344	-0.18
836.514	-0.88
836.684	-0.18
836.853	0.62
837.023	0.74
837.193	-0.19
837.363	1.16
837.532	1.14
837.702	0.33
837.872	-0.43
838.041	0.42
838.211	1.58
838.381	-0.33
838.55	0.29
838.72	1.72
838.89	0.82
839.059	0.34
839.229	-1.03
839.398	1.17
839.568	0.59
839.738	0.05
839.907	0.15
840.077	0.06
840.246	-0.31
840.416	-1.33
840.585	-0.31
840.755	1.05
840.924	1.02
841.093	-0.9
841.263	0.04
841.432	-0.08
841.602	-0.14
841.771	-1.25
841.94	-0.41
842.11	1.52
842.279	1.66
842.448	-0.3
842.617	-0.22
842.787	1.27
842.956	-1.11
843.125	0.6
843.294	-0.26
843.464	0.95
843.633	-0.33
843.802	-1.19
843.971	-0.06
844.14	0.51
844.309	0.77
844.479	-0.71
844.648	-0.65
844.817	-0.34
844.986	0.05
845.155	-0.33
845.324	-0.18
845.493	0.5
845.662	-0.48
845.831	0.45
846	0.59
846.169	0.44
846.338	0.49
846.507	0.94
846.676	0.18
846.844	-0.61
847.013	0.49
847.182	-0.3
847.351	-0.27
847.52	-0.16
847.689	0.33
847.858	-0.53
848.026	-0.32
848.195	0.88
848.364	-0.65
848.533	-1.02
848.701	-0.63
848.87	-0.33
849.039	1.39
849.207	0.66
849.376	1.07
849.545	0.37
849.713	0.15
849.882	-0.1
850.051	1.18
850.219	0.21
850.388	0.68
850.556	-0.55
850.725	-0.99
850.893	-0.01
851.062	0.01
851.23	0.92
851.399	-1.18
851.567	-0.15
851.736	0.32
851.904	-1.11
852.073	0.03
852.241	0.08
852.41	-0.57
852.578	-0.25
852.746	-0.07
852.915	0.39
853.083	-0.54
853.251	-0.63
853.42	0.2
853.588	-0.24
853.756	0.22
853.924	0.25
854.093	0.83
854.261	0.67
854.429	-0.89
854.597	0.02
854.765	-0.66
854.934	0.85
855.102	1.39
855.27	-0.65
855.438	0.64
855.606	1.67
855.774	1.32
855.942	-1.96
856.11	-2.31
856.278	-0.36
856.446	1.26
856.614	-0.11
856.782	-0.34
856.95	0.38
857.118	1.37
857.286	0.4
857.454	-0.54
857.622	0.63
857.79	0.73
857.958	-1.12
858.126	-0.32
858.294	-3.88
858.462	-0.61
858.629	0.14
858.797	0.18
858.965	0.06
859.133	-0.58
859.301	0.05
859.468	0.67
859.636	-0.32
859.804	0.98
859.971	1.77
860.139	-1.13
860.307	0.62
860.474	0.71
860.642	-0.36
860.81	-0.91
860.977	-0.42
861.145	0.42
861.313	-0.7
861.48	-0.04
861.648	1.77
861.815	-0.08
861.983	-1.13
862.15	-0.77
862.318	1.23
862.485	0.49
862.653	0.71
862.82	-1.78
862.988	1.75
863.155	-0.52
863.322	-1.27
863.49	-0.77
863.657	-0.38
863.824	2.89
863.992	0.96
864.159	0.47
864.326	0.39
864.494	-0.15
864.661	2.57
864.828	-1.71
864.996	0.7
865.163	1.68
865.33	0.38
865.497	-1.57
865.664	-0.23
865.832	-1.12
865.999	-1.87
866.166	-1.02
866.333	-0.9
866.5	-0.59
866.667	0.54
866.834	-0.35
867.001	2.28
867.168	-1.27
867.335	0.78
867.502	-0.92
867.669	0.64
867.836	1.51
868.003	-1.16
868.17	0.34
868.337	1.08
868.504	0.95
868.671	-2.8
868.838	0.11
869.005	0.37
869.172	2.46
869.339	-1.08
869.505	0.69
869.672	0.73
869.839	3.7
870.006	1.05
870.173	-2.44
870.339	-0.11
870.506	2.6
870.673	-1.23
870.84	1.06
871.006	0.38
871.173	0.62
871.34	-0.64
871.506	-0.5
871.673	1.01
871.839	-2.03
872.006	1.05
872.173	-1.33
872.339	0.06
872.506	2.6
872.672	0.21
872.839	-1.22
873.005	1.13
873.172	2.97
873.338	0.37
873.505	0.3
873.671	3.55
873.838	2.52
874.004	-1.53
874.171	-1.57
874.337	0.7
874.503	0.41
874.67	0.22
874.836	-0.16
875.002	1.95
875.169	1.16
875.335	1.27
875.501	-0.39
875.668	1.28
875.834	3.03
876	-0.86
876.166	1.09
876.332	2.8
876.499	2.47
876.665	-1.11
876.831	0.31
876.997	3.02
877.163	2.86
877.329	-1.63
877.495	0.49
877.662	1.9
877.828	1.85
877.994	0.59
878.16	-2.33
878.326	0.05
878.492	-0.82
878.658	-1.61
878.824	2.67
878.99	-0.19
879.156	-1.66
879.322	3.51
879.487	1.16
879.653	0.9
879.819	0.37
879.985	-0.65
880.151	1.58
880.317	0.6
880.483	-0.06
880.648	1.79
880.814	-2.41
880.98	-0.08
881.146	-1.13
881.312	-1.16
881.477	0.04
881.643	2.84
881.809	0.9
881.974	3.42
882.14	-1.73
882.306	-0.32
882.471	3.33
882.637	-1.81
882.803	2.02
882.968	4.19
883.134	4.15
883.299	-1.4
883.465	0.37
883.63	1.21
883.796	1.36
883.961	2.48
884.127	1.19
884.292	-3.43
884.458	-2.79
884.623	-2.79
