Data from Apollo_Calib_20240827__AbsoluteIrradiance__352__05-01-03-160.txt Node

Date: Wed Aug 28 05:01:03 BST 2024
User: biology
Spectrometer: FLMT08252
Trigger mode: 0
Integration Time (sec): 5.000000E-1
Scans to average: 5
Electric dark correction enabled: true
Nonlinearity correction enabled: false
Boxcar width: 0
XAxis mode: Wavelengths
Number of Pixels in Spectrum: 3648
>>>>>Begin Spectral Data<<<<<
179.588	-0
179.809	-0
180.03	-0
180.251	-0
180.473	-0
180.694	0
180.915	0
181.136	0
181.357	0
181.578	-0
181.799	-0
182.02	-0
182.241	0
182.462	-0
182.683	0
182.904	-0
183.125	-0
183.346	0
183.567	0
183.788	0
184.009	-0
184.23	0
184.451	0
184.672	-0
184.892	-0
185.113	0
185.334	0
185.555	0
185.776	0
185.996	0
186.217	0
186.438	0
186.659	-0
186.879	0
187.1	0
187.321	-0
187.541	-0
187.762	0
187.983	0
188.203	0
188.424	0
188.644	0
188.865	0
189.086	0
189.306	0
189.527	0
189.747	0
189.968	-0
190.188	0
190.409	0
190.629	0
190.849	-0
191.07	-0
191.29	0
191.511	0
191.731	-0
191.951	-0
192.172	-0
192.392	0
192.612	0
192.833	0
193.053	0
193.273	0
193.493	-0
193.714	-0
193.934	0
194.154	0
194.374	0
194.594	0
194.815	0
195.035	0
195.255	0
195.475	-0
195.695	0
195.915	0
196.135	0
196.355	0
196.575	0
196.795	0
197.015	-0
197.235	-0
197.455	0
197.675	0
197.895	0
198.115	0
198.335	0
198.555	-0
198.775	0
198.995	0
199.214	0
199.434	0
199.654	-0
199.874	0
200.094	1.4
200.313	-0.7
200.533	-0.11
200.753	0.07
200.973	1.45
201.192	1.48
201.412	-0.59
201.632	0.08
201.851	1.52
202.071	-0.19
202.291	0.41
202.51	-0.27
202.73	0.98
202.95	0.15
203.169	-0.22
203.389	0.31
203.608	0.19
203.828	-0
204.047	0.04
204.267	0.51
204.486	0.23
204.706	0.4
204.925	0.49
205.145	-0.01
205.364	0.76
205.583	0.75
205.803	0.22
206.022	-0.19
206.242	0.06
206.461	-0.15
206.68	-0.05
206.9	-0.06
207.119	0.66
207.338	0.85
207.557	0.09
207.777	0.16
207.996	-0.03
208.215	0.46
208.434	0.14
208.654	-0.18
208.873	0.51
209.092	0.55
209.311	0.18
209.53	0.09
209.749	0.35
209.968	0.23
210.187	-0.31
210.407	-0.29
210.626	0.27
210.845	0.31
211.064	0.24
211.283	-0.09
211.502	0.34
211.721	0.36
211.94	-0.08
212.159	0.48
212.377	0.73
212.596	0.33
212.815	0.35
213.034	0.45
213.253	0.53
213.472	0.58
213.691	0.2
213.91	-0.09
214.128	0.01
214.347	0.61
214.566	-0.18
214.785	-0.35
215.003	0.51
215.222	0.21
215.441	0.09
215.66	-0.14
215.878	0.23
216.097	0.49
216.316	-0.05
216.534	0.06
216.753	0.38
216.972	0.24
217.19	0.17
217.409	-0.07
217.627	0.06
217.846	0.1
218.064	0.29
218.283	-0.06
218.501	0.4
218.72	0.3
218.938	-0
219.157	0.01
219.375	0.25
219.594	0.18
219.812	-0.1
220.031	0
220.249	0.41
220.467	0.45
220.686	-0.06
220.904	-0.04
221.122	0.04
221.341	0.47
221.559	0.18
221.777	-0.01
221.995	0.36
222.214	0.25
222.432	-0.03
222.65	0.22
222.868	0.13
223.086	0.21
223.305	0.26
223.523	-0.01
223.741	0.5
223.959	0.13
224.177	-0.14
224.395	0.03
224.613	0.24
224.831	0.27
225.049	-0.11
225.267	0.11
225.485	0.18
225.703	0.2
225.921	0.11
226.139	0.1
226.357	0.39
226.575	0.18
226.793	0.1
227.011	0.74
227.229	0.21
227.447	0.23
227.665	-0.13
227.883	-0.05
228.1	0.09
228.318	0.19
228.536	-0.15
228.754	0.02
228.972	0.32
229.189	0.23
229.407	0.06
229.625	0
229.843	0.36
230.06	0.29
230.278	0.06
230.496	0.13
230.713	0.19
230.931	0.2
231.149	0.03
231.366	-0.02
231.584	0.16
231.801	0.57
232.019	-0.03
232.236	-0.04
232.454	-0.05
232.671	0.21
232.889	-0.02
233.106	-0
233.324	0.09
233.541	0.04
233.759	0.12
233.976	0
234.194	0.08
234.411	0.11
234.628	0.01
234.846	0.08
235.063	0.1
235.28	0.2
235.498	0.06
235.715	-0.07
235.932	0.24
236.149	0.08
236.367	-0.01
236.584	0.13
236.801	0.04
237.018	0.08
237.236	0.11
237.453	-0.1
237.67	0.25
237.887	0.02
238.104	0.08
238.321	-0.06
238.538	0.05
238.755	0.24
238.973	-0.16
239.19	0.2
239.407	0.23
239.624	0.1
239.841	0.06
240.058	0.03
240.275	0.16
240.492	0.08
240.709	0.08
240.925	0.16
241.142	0.15
241.359	0.01
241.576	0.04
241.793	0.04
242.01	0.03
242.227	0.2
242.444	0.13
242.66	0.28
242.877	0.2
243.094	0.03
243.311	0.15
243.527	0.03
243.744	0.11
243.961	0.1
244.178	0.07
244.394	0.14
244.611	0.2
244.828	0.3
245.044	-0.02
245.261	0.18
245.477	0.19
245.694	0.08
245.911	0.11
246.127	0.13
246.344	0.32
246.56	0.15
246.777	0.03
246.993	0.05
247.21	0.14
247.426	0.19
247.643	-0.01
247.859	-0.08
248.076	-0
248.292	0.33
248.508	-0.03
248.725	0.15
248.941	0.24
249.157	0.21
249.374	0.05
249.59	0.12
249.806	0.08
250.023	0.28
250.239	-0.01
250.455	-0.03
250.671	0.14
250.888	0.05
251.104	0.14
251.32	0.04
251.536	0.04
251.752	0.08
251.969	0.09
252.185	0.11
252.401	0.22
252.617	0.18
252.833	0.05
253.049	0.17
253.265	0.03
253.481	0.15
253.697	0.09
253.913	0.03
254.129	0.09
254.345	0.15
254.561	0.06
254.777	0.12
254.993	0.21
255.209	0.12
255.425	0.07
255.641	0.01
255.857	0.18
256.073	0.13
256.288	-0
256.504	0.04
256.72	0.13
256.936	0.28
257.152	0.03
257.367	0.09
257.583	0.11
257.799	0.19
258.015	0.05
258.23	0.06
258.446	0.23
258.662	0.06
258.877	-0.03
259.093	-0.01
259.309	0.1
259.524	0.14
259.74	-0.01
259.955	-0.01
260.171	0.07
260.387	0.13
260.602	0.13
260.818	0.13
261.033	0.01
261.249	0.06
261.464	0.02
261.68	-0.02
261.895	0.14
262.11	0.13
262.326	0.08
262.541	-0.03
262.757	0.11
262.972	0.16
263.187	0.1
263.403	0.1
263.618	0.11
263.833	0.09
264.049	0.01
264.264	0.1
264.479	0.17
264.694	0.18
264.91	0.01
265.125	0.04
265.34	0.13
265.555	0.21
265.77	0.11
265.986	0.05
266.201	0.12
266.416	0.16
266.631	0.06
266.846	0.07
267.061	0.12
267.276	0.08
267.491	-0.07
267.706	0.09
267.921	0.14
268.136	0.13
268.351	0.1
268.566	0.04
268.781	0.16
268.996	0.17
269.211	0.09
269.426	-0
269.641	0.02
269.856	0.1
270.071	-0
270.285	-0.01
270.5	0.22
270.715	0.18
270.93	0.08
271.145	0.13
271.359	0.21
271.574	0.09
271.789	0.07
272.004	0.05
272.218	0.05
272.433	0.17
272.648	0.06
272.862	0.14
273.077	0.06
273.292	0.13
273.506	0.04
273.721	0.12
273.936	0.14
274.15	0.19
274.365	0.07
274.579	0.09
274.794	0.15
275.008	0.18
275.223	-0.01
275.437	0.07
275.652	0.13
275.866	0.18
276.081	0.12
276.295	0.08
276.509	0.09
276.724	0.08
276.938	0.06
277.153	0.09
277.367	0.18
277.581	0.09
277.796	0.06
278.01	-0.04
278.224	0.18
278.438	0.22
278.653	0.02
278.867	0.03
279.081	-0.07
279.295	0.03
279.51	0.06
279.724	-0.02
279.938	0.1
280.152	0.1
280.366	0.03
280.58	0.1
280.794	0.2
281.008	0.11
281.222	0.15
281.437	0.22
281.651	0.13
281.865	0.19
282.079	-0
282.293	-0
282.507	0.07
282.721	0.09
282.935	0.07
283.148	-0
283.362	0.04
283.576	-0.02
283.79	0.07
284.004	0
284.218	0.17
284.432	0.07
284.646	0.08
284.859	0.06
285.073	0.08
285.287	0.11
285.501	0.05
285.714	0.03
285.928	0.1
286.142	0.09
286.356	0.03
286.569	0.1
286.783	0.17
286.997	0.17
287.21	0.1
287.424	0.1
287.637	0.05
287.851	0.06
288.065	0.11
288.278	0.03
288.492	0.09
288.705	0.08
288.919	0.11
289.132	-0.01
289.346	0.15
289.559	-0.02
289.773	0.05
289.986	0.04
290.2	0.09
290.413	0.15
290.626	0.06
290.84	0.05
291.053	0.12
291.267	0.19
291.48	0.09
291.693	0.13
291.906	0.04
292.12	0.03
292.333	0.01
292.546	0.1
292.76	0.18
292.973	0.1
293.186	0.14
293.399	0.07
293.612	0.11
293.826	0.12
294.039	0.05
294.252	0.07
294.465	0.12
294.678	0.1
294.891	0.1
295.104	0.04
295.317	0.08
295.53	0.1
295.743	0.08
295.956	0.09
296.169	0.14
296.382	0.12
296.595	0.06
296.808	0.02
297.021	0.14
297.234	0.16
297.447	0.07
297.66	0.12
297.873	0.18
298.086	0.16
298.299	0.04
298.511	0.03
298.724	0.06
298.937	0.03
299.15	0.05
299.363	0.08
299.575	0.1
299.788	0.17
300.001	0.01
300.213	0.08
300.426	0.08
300.639	0.07
300.852	0.09
301.064	0.14
301.277	0.21
301.489	0.14
301.702	0.11
301.915	0.06
302.127	0.13
302.34	0.09
302.552	0.11
302.765	0.06
302.977	0.14
303.19	0.08
303.402	0.05
303.615	0.07
303.827	0.08
304.04	0.05
304.252	0.08
304.464	0.02
304.677	0.19
304.889	0.16
305.102	0.07
305.314	0.06
305.526	0.13
305.739	0.15
305.951	0.06
306.163	0.09
306.375	0.19
306.588	0.09
306.8	0.04
307.012	0.04
307.224	0.12
307.436	0.13
307.649	-0
307.861	0.11
308.073	0.12
308.285	0.08
308.497	0.06
308.709	0.08
308.921	0.15
309.133	0.12
309.346	0.09
309.558	0.07
309.77	0.13
309.982	0.13
310.194	0.11
310.406	0.06
310.617	0.21
310.829	0.13
311.041	0.14
311.253	0.01
311.465	0.08
311.677	0.13
311.889	0.08
312.101	0.04
312.313	0.15
312.524	0.16
312.736	0.02
312.948	0.06
313.16	0.18
313.372	0.16
313.583	0.1
313.795	0.09
314.007	0.11
314.218	0.1
314.43	0.1
314.642	0.06
314.853	0.05
315.065	0.13
315.277	0.1
315.488	0.12
315.7	0.15
315.912	0.1
316.123	0.06
316.335	0.1
316.546	0.16
316.758	0.09
316.969	0.08
317.181	0.07
317.392	0.1
317.604	0.13
317.815	0.05
318.026	0.05
318.238	0.08
318.449	0.09
318.661	-0.01
318.872	0.04
319.083	0.03
319.295	0.08
319.506	0.06
319.717	0.1
319.929	0.16
320.14	0.1
320.351	0.12
320.562	0.1
320.774	0.12
320.985	0.13
321.196	0.03
321.407	0.02
321.618	0.12
321.829	0.12
322.041	0.16
322.252	0.12
322.463	0.12
322.674	0.08
322.885	0.02
323.096	0.02
323.307	0.08
323.518	0.11
323.729	0.08
323.94	0.09
324.151	0.08
324.362	0.1
324.573	0.11
324.784	0.09
324.995	0.14
325.206	0.09
325.417	0.09
325.628	0.07
325.838	0.07
326.049	0.1
326.26	0.1
326.471	0.07
326.682	0.12
326.892	0.1
327.103	0.08
327.314	0.07
327.525	0.1
327.735	0.12
327.946	0.1
328.157	0.05
328.368	0.11
328.578	0.04
328.789	0.15
328.999	0.08
329.21	0.05
329.421	0.13
329.631	0.08
329.842	0.06
330.052	0.09
330.263	0.08
330.473	0.11
330.684	0.09
330.894	0.08
331.105	0.07
331.315	0.07
331.526	0.03
331.736	0.17
331.947	0.1
332.157	0.1
332.367	0.06
332.578	0.16
332.788	0.17
332.999	0.09
333.209	0.11
333.419	0.07
333.629	0.13
333.84	0.08
334.05	0.07
334.26	0.19
334.47	0.13
334.681	0.13
334.891	0.1
335.101	0.14
335.311	0.22
335.521	0.12
335.732	0.06
335.942	0.15
336.152	0.12
336.362	0.14
336.572	0.1
336.782	0.13
336.992	0.09
337.202	0.13
337.412	0.07
337.622	0.13
337.832	0.1
338.042	0.07
338.252	0.02
338.462	0.1
338.672	0.09
338.882	0.05
339.092	0.11
339.302	0.13
339.511	0.13
339.721	0.09
339.931	0.06
340.141	0.18
340.351	0.17
340.561	0.13
340.77	0.09
340.98	0.08
341.19	0.11
341.4	0.11
341.609	0.04
341.819	0.06
342.029	0.03
342.238	0.11
342.448	0.08
342.658	0.12
342.867	0.14
343.077	0.11
343.286	0.12
343.496	0.1
343.706	0.17
343.915	0.06
344.125	0.07
344.334	0.1
344.544	0
344.753	0.11
344.963	0.05
345.172	0.06
345.381	0.08
345.591	0.03
345.8	0.1
346.01	0.19
346.219	0.17
346.428	-0.01
346.638	0.11
346.847	0.06
347.056	0.15
347.266	0.06
347.475	0.07
347.684	0.11
347.893	0.09
348.103	0.11
348.312	0.12
348.521	0.13
348.73	0.11
348.94	0.1
349.149	0.09
349.358	0.05
349.567	0.09
349.776	0.01
349.985	0.07
350.194	0.13
350.403	0.13
350.612	0.03
350.821	0.06
351.03	0.1
351.239	-0.01
351.448	0.06
351.657	0.1
351.866	0.18
352.075	0.07
352.284	0.1
352.493	0.05
352.702	0.15
352.911	0.12
353.12	0.06
353.329	0.07
353.538	0.13
353.746	0.1
353.955	0.03
354.164	0.11
354.373	0.09
354.582	0.16
354.79	0.1
354.999	0.11
355.208	0.09
355.416	0.15
355.625	0.03
355.834	0.05
356.042	0.15
356.251	0.05
356.46	0.05
356.668	0.1
356.877	0.19
357.085	0.17
357.294	-0.01
357.503	0.06
357.711	0.05
357.92	0.23
358.128	0.13
358.337	0.09
358.545	0.09
358.754	0.07
358.962	0.14
359.17	0.1
359.379	0.13
359.587	0.09
359.796	0.11
360.004	0.12
360.212	0.14
360.421	0.12
360.629	0.11
360.837	0.1
361.046	0.13
361.254	0.17
361.462	0.07
361.67	0.08
361.879	0.08
362.087	0.15
362.295	0.11
362.503	0.08
362.711	0.08
362.92	0.04
363.128	0.08
363.336	0.08
363.544	0.04
363.752	0.06
363.96	0.06
364.168	0.06
364.376	0.06
364.584	0.1
364.792	0.15
365	0.07
365.208	0.09
365.416	0.15
365.624	0.13
365.832	0.06
366.04	0.16
366.248	0.07
366.456	0.08
366.664	0.07
366.872	0.09
367.079	0.09
367.287	0.06
367.495	0.11
367.703	0.07
367.911	0.08
368.118	0.08
368.326	0.09
368.534	0.08
368.742	0.16
368.949	0.06
369.157	0.04
369.365	0.1
369.572	0.09
369.78	0.07
369.988	0.11
370.195	0.11
370.403	0.17
370.61	0.08
370.818	0.1
371.026	0.14
371.233	0.05
371.441	0.12
371.648	0.09
371.856	0.12
372.063	0.1
372.271	0.08
372.478	0.07
372.685	0.08
372.893	0.13
373.1	0.07
373.308	0.07
373.515	0.17
373.722	0.14
373.93	0.09
374.137	0.11
374.344	0.16
374.552	0.13
374.759	0.15
374.966	0.12
375.173	0.09
375.381	0.12
375.588	0.11
375.795	0.04
376.002	0.07
376.209	0.06
376.417	0.06
376.624	0.11
376.831	0.14
377.038	0.11
377.245	0.03
377.452	0.08
377.659	0.11
377.866	0.07
378.073	0.07
378.28	0.08
378.487	0.15
378.694	0.11
378.901	0.1
379.108	0.1
379.315	0.08
379.522	0.18
379.729	0.11
379.936	0.1
380.143	0.05
380.35	0.17
380.557	0.08
380.763	0.11
380.97	0.15
381.177	0.12
381.384	0.12
381.591	0.13
381.797	0.16
382.004	0.15
382.211	0.16
382.418	0.1
382.624	0.18
382.831	0.16
383.038	0.08
383.244	0.11
383.451	0.08
383.658	0.12
383.864	0.12
384.071	0.09
384.277	0.17
384.484	0.07
384.69	0.16
384.897	0.05
385.103	0.09
385.31	0.11
385.516	0.11
385.723	0.08
385.929	0.1
386.136	0.06
386.342	0.14
386.549	0.07
386.755	0.21
386.961	0.15
387.168	0.05
387.374	0.12
387.58	0.15
387.787	0.11
387.993	0.12
388.199	0.11
388.406	0.08
388.612	0.09
388.818	0.07
389.024	0.05
389.231	0.1
389.437	0.18
389.643	0.16
389.849	0.11
390.055	0.13
390.261	0.13
390.467	0.14
390.674	0.08
390.88	0.11
391.086	0.16
391.292	0.08
391.498	0.16
391.704	0.16
391.91	0.1
392.116	0.11
392.322	0.02
392.528	0.14
392.734	0.08
392.94	0.13
393.146	0.09
393.352	0.13
393.557	0.13
393.763	0.12
393.969	0.14
394.175	0.1
394.381	0.14
394.587	0.05
394.792	0.1
394.998	0.13
395.204	0.2
395.41	0.06
395.615	0.14
395.821	0.12
396.027	0.13
396.233	0.13
396.438	0.17
396.644	0.23
396.85	0.13
397.055	0.13
397.261	0.12
397.466	0.14
397.672	0.15
397.878	0.17
398.083	0.16
398.289	0.13
398.494	0.16
398.7	0.17
398.905	0.07
399.111	0.2
399.316	0.11
399.522	0.12
399.727	0.17
399.932	0.13
400.138	0.08
400.343	0.2
400.549	0.17
400.754	0.19
400.959	0.18
401.165	0.15
401.37	0.17
401.575	0.08
401.78	0.12
401.986	0.13
402.191	0.12
402.396	0.16
402.601	0.17
402.807	0.19
403.012	0.15
403.217	0.22
403.422	0.17
403.627	0.2
403.832	0.17
404.037	0.19
404.243	0.21
404.448	0.13
404.653	0.2
404.858	0.15
405.063	0.22
405.268	0.16
405.473	0.11
405.678	0.16
405.883	0.38
406.088	0.26
406.293	0.18
406.498	0.18
406.703	0.26
406.907	0.2
407.112	0.18
407.317	0.18
407.522	0.26
407.727	0.12
407.932	0.27
408.136	0.28
408.341	0.21
408.546	0.29
408.751	0.25
408.956	0.22
409.16	0.31
409.365	0.27
409.57	0.3
409.774	0.29
409.979	0.29
410.184	0.32
410.388	0.24
410.593	0.39
410.798	0.32
411.002	0.29
411.207	0.33
411.411	0.35
411.616	0.35
411.82	0.36
412.025	0.39
412.229	0.36
412.434	0.47
412.638	0.43
412.843	0.4
413.047	0.45
413.252	0.39
413.456	0.48
413.66	0.51
413.865	0.49
414.069	0.59
414.273	0.44
414.478	0.52
414.682	0.48
414.886	0.52
415.091	0.52
415.295	0.53
415.499	0.7
415.703	0.62
415.908	0.72
416.112	0.61
416.316	0.75
416.52	0.72
416.724	0.76
416.929	0.75
417.133	0.98
417.337	0.86
417.541	0.93
417.745	0.95
417.949	1.03
418.153	0.97
418.357	1.01
418.561	1.22
418.765	1.11
418.969	1.29
419.173	1.28
419.377	1.28
419.581	1.49
419.785	1.41
419.989	1.5
420.193	1.56
420.397	1.55
420.601	1.72
420.804	1.8
421.008	1.67
421.212	1.82
421.416	1.93
421.62	1.86
421.823	1.98
422.027	2.12
422.231	2.04
422.435	2.09
422.638	2.13
422.842	2.24
423.046	2.28
423.249	2.46
423.453	2.47
423.657	2.63
423.86	2.67
424.064	2.78
424.268	2.98
424.471	2.9
424.675	3.12
424.878	3.26
425.082	3.31
425.285	3.59
425.489	3.41
425.692	3.58
425.896	3.68
426.099	3.86
426.303	3.97
426.506	4.13
426.71	4.27
426.913	4.35
427.116	4.69
427.32	4.71
427.523	4.77
427.726	4.99
427.93	5.1
428.133	5.5
428.336	5.56
428.54	5.66
428.743	5.98
428.946	6.14
429.149	6.24
429.353	6.27
429.556	6.41
429.759	6.42
429.962	6.61
430.165	6.82
430.368	6.47
430.571	6.57
430.775	6.67
430.978	6.69
431.181	6.75
431.384	6.9
431.587	7.09
431.79	7.39
431.993	7.46
432.196	7.64
432.399	8.02
432.602	8.05
432.805	8.25
433.008	8.89
433.211	8.72
433.414	8.96
433.616	9.13
433.819	9.14
434.022	9.29
434.225	9.5
434.428	9.49
434.631	10.04
434.833	9.84
435.036	10.11
435.239	10.34
435.442	10.39
435.645	10.62
435.847	10.81
436.05	11.21
436.253	11.31
436.455	11.5
436.658	11.29
436.861	11.92
437.063	11.96
437.266	12.08
437.468	12.43
437.671	12.92
437.874	13.04
438.076	12.89
438.279	13.59
438.481	13.77
438.684	14.51
438.886	14.32
439.089	14.72
439.291	14.71
439.494	15.33
439.696	15.61
439.899	16.36
440.101	16.95
440.303	17.42
440.506	18.27
440.708	18.12
440.91	18.48
441.113	18.97
441.315	19.39
441.517	19.29
441.72	20.16
441.922	19.88
442.124	20.17
442.326	20.67
442.529	21
442.731	21.41
442.933	21.95
443.135	21.65
443.337	21.91
443.539	22.88
443.742	22.62
443.944	23.67
444.146	23.45
444.348	23.74
444.55	23.67
444.752	24.2
444.954	24.29
445.156	24.48
445.358	25.11
445.56	25.56
445.762	25.67
445.964	26.22
446.166	26.04
446.368	26.32
446.57	26.49
446.772	26.07
446.974	25.69
447.175	26.46
447.377	26.21
447.579	26.87
447.781	26.61
447.983	26.34
448.184	25.74
448.386	26.36
448.588	25.8
448.79	25.72
448.991	26.37
449.193	26.29
449.395	25.45
449.597	24.87
449.798	24.77
450	24.2
450.202	24.25
450.403	24.13
450.605	23.97
450.806	23.49
451.008	23.27
451.21	22.91
451.411	22.26
451.613	20.97
451.814	21.56
452.016	21.29
452.217	20.22
452.419	20.1
452.62	19.61
452.821	19.25
453.023	19.01
453.224	18.34
453.426	17.76
453.627	16.56
453.828	16.78
454.03	16.88
454.231	16.66
454.432	16.52
454.634	15.94
454.835	15.47
455.036	15.4
455.238	14.73
455.439	14.26
455.64	13.99
455.841	13.79
456.042	13.71
456.244	13.35
456.445	12.85
456.646	12.48
456.847	12.3
457.048	12.09
457.249	12.22
457.45	11.58
457.651	11.04
457.852	10.79
458.054	10.28
458.255	10.28
458.456	10.24
458.657	10.17
458.858	9.52
459.058	9.22
459.259	9.34
459.46	8.95
459.661	8.96
459.862	8.88
460.063	8.75
460.264	8.61
460.465	8.34
460.666	8.34
460.866	7.91
461.067	7.55
461.268	7.61
461.469	7.45
461.67	7.35
461.87	7.04
462.071	7.12
462.272	6.88
462.473	6.75
462.673	6.97
462.874	6.86
463.075	6.81
463.275	6.74
463.476	6.71
463.676	6.59
463.877	6.35
464.078	6.28
464.278	6.32
464.479	6.2
464.679	5.98
464.88	5.84
465.08	5.73
465.281	5.53
465.481	5.23
465.682	4.98
465.882	4.99
466.083	4.88
466.283	4.77
466.483	4.57
466.684	4.33
466.884	4.24
467.085	4.18
467.285	4.25
467.485	4
467.686	3.93
467.886	3.77
468.086	3.7
468.286	3.56
468.487	3.65
468.687	3.46
468.887	3.32
469.087	3.41
469.287	3.29
469.488	3.03
469.688	3.17
469.888	3.18
470.088	2.99
470.288	2.93
470.488	2.87
470.688	2.63
470.888	2.61
471.088	2.44
471.288	2.53
471.488	2.49
471.688	2.42
471.888	2.34
472.088	2.42
472.288	2.28
472.488	2.16
472.688	2.1
472.888	2.1
473.088	2.09
473.288	2
473.488	1.89
473.688	2.07
473.887	1.88
474.087	1.84
474.287	1.86
474.487	1.77
474.687	1.81
474.886	1.73
475.086	1.62
475.286	1.58
475.486	1.59
475.685	1.49
475.885	1.49
476.085	1.52
476.284	1.5
476.484	1.44
476.684	1.45
476.883	1.43
477.083	1.35
477.282	1.32
477.482	1.36
477.681	1.3
477.881	1.22
478.08	1.18
478.28	1.12
478.479	1.18
478.679	1.24
478.878	1.09
479.078	1.12
479.277	1.08
479.477	1.06
479.676	1.05
479.875	1
480.075	0.94
480.274	0.94
480.473	1.02
480.673	0.93
480.872	0.97
481.071	0.93
481.271	0.88
481.47	0.84
481.669	0.82
481.868	0.83
482.067	0.81
482.267	0.76
482.466	0.74
482.665	0.74
482.864	0.72
483.063	0.66
483.262	0.74
483.461	0.74
483.661	0.74
483.86	0.65
484.059	0.67
484.258	0.64
484.457	0.62
484.656	0.59
484.855	0.67
485.054	0.52
485.253	0.56
485.452	0.51
485.651	0.55
485.849	0.54
486.048	0.5
486.247	0.5
486.446	0.51
486.645	0.44
486.844	0.43
487.043	0.46
487.241	0.46
487.44	0.42
487.639	0.43
487.838	0.42
488.037	0.41
488.235	0.45
488.434	0.41
488.633	0.34
488.831	0.4
489.03	0.43
489.229	0.35
489.427	0.38
489.626	0.37
489.825	0.38
490.023	0.33
490.222	0.28
490.42	0.35
490.619	0.34
490.817	0.3
491.016	0.27
491.214	0.34
491.413	0.27
491.611	0.24
491.81	0.27
492.008	0.3
492.207	0.26
492.405	0.27
492.604	0.22
492.802	0.26
493	0.25
493.199	0.23
493.397	0.25
493.595	0.25
493.794	0.21
493.992	0.27
494.19	0.19
494.388	0.23
494.587	0.19
494.785	0.22
494.983	0.16
495.181	0.19
495.379	0.2
495.578	0.21
495.776	0.21
495.974	0.2
496.172	0.17
496.37	0.18
496.568	0.15
496.766	0.17
496.964	0.21
497.162	0.18
497.36	0.14
497.558	0.17
497.756	0.19
497.954	0.17
498.152	0.16
498.35	0.15
498.548	0.17
498.746	0.15
498.944	0.14
499.142	0.15
499.34	0.11
499.538	0.13
499.736	0.1
499.933	0.16
500.131	0.18
500.329	0.15
500.527	0.19
500.725	0.16
500.922	0.13
501.12	0.13
501.318	0.13
501.516	0.1
501.713	0.17
501.911	0.14
502.109	0.1
502.306	0.13
502.504	0.12
502.701	0.09
502.899	0.12
503.097	0.17
503.294	0.11
503.492	0.12
503.689	0.11
503.887	0.14
504.084	0.17
504.282	0.11
504.479	0.08
504.677	0.11
504.874	0.07
505.072	0.1
505.269	0.1
505.466	0.15
505.664	0.14
505.861	0.05
506.059	0.09
506.256	0.14
506.453	0.11
506.651	0.13
506.848	0.12
507.045	0.11
507.242	0.09
507.44	0.08
507.637	0.09
507.834	0.09
508.031	0.09
508.229	0.06
508.426	0.07
508.623	0.12
508.82	0.09
509.017	0.06
509.214	0.08
509.411	0.1
509.608	0.07
509.805	0.07
510.003	0.07
510.2	0.08
510.397	0.11
510.594	0.06
510.791	0.04
510.988	0.07
511.184	0.11
511.381	0.08
511.578	0.04
511.775	0.1
511.972	0.06
512.169	0.08
512.366	0.07
512.563	0.09
512.76	0.05
512.956	0.06
513.153	0.06
513.35	0.07
513.547	0.06
513.744	0.06
513.94	0.05
514.137	0.09
514.334	0.07
514.53	0.05
514.727	0.06
514.924	0.13
515.12	0.05
515.317	0.02
515.514	0.05
515.71	0.04
515.907	0.06
516.103	0.07
516.3	0.08
516.497	0.07
516.693	0.1
516.89	0.04
517.086	0.03
517.283	0.06
517.479	0.08
517.676	0.04
517.872	0.06
518.068	0.06
518.265	0.05
518.461	0.05
518.658	0.05
518.854	0.06
519.05	0.08
519.247	0.04
519.443	0.06
519.639	0.08
519.836	0.06
520.032	0.05
520.228	0.05
520.424	0.1
520.621	0.06
520.817	0.05
521.013	0.06
521.209	0.07
521.405	0.11
521.601	0.06
521.798	0.06
521.994	0.1
522.19	0.05
522.386	0.03
522.582	0.02
522.778	0.04
522.974	0.04
523.17	0.05
523.366	0.06
523.562	0.09
523.758	0.05
523.954	0.04
524.15	0.03
524.346	0.05
524.542	0.05
524.738	0.03
524.934	0.05
525.129	0.05
525.325	0.04
525.521	0.08
525.717	0.06
525.913	0.06
526.109	0.06
526.304	0.04
526.5	0.04
526.696	0.08
526.892	0.03
527.087	0.04
527.283	0.02
527.479	0.06
527.674	0.04
527.87	0.03
528.066	0.04
528.261	0.06
528.457	0.07
528.653	0.05
528.848	0.02
529.044	0.06
529.239	0.03
529.435	0.09
529.63	0.04
529.826	0.09
530.021	0.05
530.217	0.08
530.412	0.03
530.608	0.03
530.803	0.06
530.999	0.05
531.194	0
531.389	0.06
531.585	-0.01
531.78	0.05
531.975	0.01
532.171	0.04
532.366	0.04
532.561	0.05
532.757	0.01
532.952	0.04
533.147	0.06
533.342	0.05
533.538	0.03
533.733	0.06
533.928	0.05
534.123	0.03
534.318	0.03
534.513	0.04
534.709	0.04
534.904	0.02
535.099	0.03
535.294	0.04
535.489	0.04
535.684	0.02
535.879	0.02
536.074	0.04
536.269	0.03
536.464	0.05
536.659	0.05
536.854	0.05
537.049	0.05
537.244	0.03
537.439	0.03
537.634	0.08
537.828	0.06
538.023	0.03
538.218	0.02
538.413	0.05
538.608	0.02
538.803	0.05
538.997	0.02
539.192	0.07
539.387	0.04
539.582	0.05
539.776	0.05
539.971	0.04
540.166	0.06
540.36	0.01
540.555	0.03
540.75	0.03
540.944	0.07
541.139	0.02
541.334	0.05
541.528	0.05
541.723	0.08
541.917	0.02
542.112	-0.01
542.306	0.03
542.501	0.01
542.695	0.03
542.89	0.05
543.084	0.03
543.279	0.04
543.473	0.04
543.668	0.02
543.862	0.04
544.056	0.07
544.251	0.03
544.445	0.05
544.64	0.02
544.834	0.03
545.028	0.05
545.222	0.04
545.417	0.05
545.611	0.05
545.805	0.03
546	0.01
546.194	0.05
546.388	0.02
546.582	0.04
546.776	0.03
546.97	0.04
547.165	0.06
547.359	0.05
547.553	0.02
547.747	0.03
547.941	0.04
548.135	0.04
548.329	0.05
548.523	0.06
548.717	0.02
548.911	0.02
549.105	0.04
549.299	0.05
549.493	0.08
549.687	0.04
549.881	0.04
550.075	0.03
550.269	-0.01
550.463	0.05
550.657	0.03
550.85	0.07
551.044	0.02
551.238	0
551.432	0.03
551.626	0.01
551.82	0.04
552.013	0.03
552.207	0.04
552.401	0.05
552.594	0.05
552.788	0.04
552.982	0.03
553.176	0.02
553.369	0.03
553.563	0.03
553.756	-0
553.95	0.02
554.144	0.04
554.337	0.07
554.531	0.06
554.724	0.04
554.918	0.01
555.111	0.04
555.305	0.03
555.498	0.09
555.692	0.05
555.885	0.02
556.079	0.05
556.272	0.02
556.466	0.06
556.659	0.06
556.852	0.03
557.046	0.02
557.239	0.05
557.432	0
557.626	0.04
557.819	0.06
558.012	0.08
558.206	0.04
558.399	0.02
558.592	0.07
558.785	0.03
558.979	0.06
559.172	0.04
559.365	0.04
559.558	0.06
559.751	0.04
559.944	0.03
560.138	0.01
560.331	0.03
560.524	0
560.717	0.03
560.91	0.04
561.103	0.05
561.296	0.04
561.489	0.03
561.682	0.03
561.875	0.07
562.068	0.04
562.261	0.03
562.454	0.08
562.647	0.03
562.84	0.04
563.032	0.03
563.225	0.05
563.418	0.02
563.611	0.02
563.804	0.03
563.997	0
564.19	-0
564.382	0.06
564.575	0.04
564.768	0.01
564.961	0.02
565.153	0.03
565.346	0.05
565.539	0.04
565.731	0.06
565.924	0.05
566.117	0.06
566.309	0.05
566.502	0.01
566.695	0.02
566.887	0.04
567.08	0.01
567.272	0.02
567.465	0.04
567.657	0.04
567.85	0.04
568.042	0.04
568.235	0.06
568.427	0.02
568.62	0.05
568.812	0.04
569.005	0.02
569.197	-0.02
569.389	0.03
569.582	0.04
569.774	0.02
569.966	-0.01
570.159	0.01
570.351	0.06
570.543	0.01
570.736	0.03
570.928	-0
571.12	0.03
571.312	-0.01
571.505	-0.01
571.697	0.07
571.889	-0.02
572.081	0.02
572.273	0
572.465	0.06
572.658	0.02
572.85	0.05
573.042	0.02
573.234	0.03
573.426	0.06
573.618	0.02
573.81	0.04
574.002	0.07
574.194	0.08
574.386	-0.01
574.578	-0.04
574.77	0.01
574.962	0.03
575.154	-0.04
575.346	0.03
575.538	0.03
575.729	-0.01
575.921	0.01
576.113	0.01
576.305	0.04
576.497	0.01
576.689	-0.01
576.88	-0
577.072	0.07
577.264	0.02
577.456	0.03
577.647	-0.04
577.839	0.01
578.031	0.06
578.223	-0.01
578.414	-0.01
578.606	0.02
578.798	0.04
578.989	0
579.181	0.04
579.372	0.01
579.564	0.02
579.755	0.03
579.947	0.02
580.139	0.04
580.33	-0.02
580.522	-0.02
580.713	-0.05
580.905	0.02
581.096	0.03
581.287	-0
581.479	0.03
581.67	0.04
581.862	0.04
582.053	-0
582.244	-0.02
582.436	0.01
582.627	0.03
582.818	0.03
583.01	-0.02
583.201	0.06
583.392	0.06
583.583	0.02
583.775	0.03
583.966	0.01
584.157	0.01
584.348	0
584.54	-0.01
584.731	0.04
584.922	0.01
585.113	0.01
585.304	0.06
585.495	0.06
585.686	0.01
585.877	0.05
586.068	0.05
586.259	0.05
586.45	0.04
586.641	-0.02
586.832	-0.01
587.023	0.04
587.214	0.01
587.405	0.02
587.596	0.01
587.787	0.09
587.978	0.03
588.169	0.02
588.36	0
588.551	0.05
588.742	0.01
588.932	0.02
589.123	0.04
589.314	0.04
589.505	0.04
589.696	0.06
589.886	0
590.077	-0.01
590.268	0.06
590.458	0.02
590.649	-0.02
590.84	0.06
591.03	-0.01
591.221	-0.02
591.412	-0
591.602	0.02
591.793	0.06
591.984	-0.02
592.174	0.02
592.365	0.09
592.555	-0
592.746	0.04
592.936	0.05
593.127	0.06
593.317	0.05
593.508	0.01
593.698	-0.01
593.889	0.04
594.079	0.03
594.269	0.01
594.46	0.02
594.65	0.02
594.84	0.01
595.031	-0.01
595.221	-0
595.411	-0.02
595.602	0.04
595.792	0.02
595.982	0
596.172	0.07
596.363	0.04
596.553	0.02
596.743	0.01
596.933	0.03
597.123	0.06
597.314	0
597.504	0
597.694	0.03
597.884	0.05
598.074	0.02
598.264	0
598.454	0.04
598.644	0.01
598.834	0.03
599.024	-0.03
599.214	0
599.404	0.06
599.594	-0
599.784	0.01
599.974	0.05
600.164	0.05
600.354	0
600.544	-0.04
600.734	0.03
600.924	0.04
601.114	0.01
601.303	0.01
601.493	0.01
601.683	0.02
601.873	0.02
602.063	-0.04
602.252	0.05
602.442	-0.02
602.632	0.01
602.821	-0.02
603.011	-0.01
603.201	0.01
603.39	-0.02
603.58	-0
603.77	0.04
603.959	0.04
604.149	0.02
604.339	0.01
604.528	0.05
604.718	0.02
604.907	0.03
605.097	0
605.286	-0.01
605.476	0.07
605.665	0.03
605.855	-0.01
606.044	0.05
606.234	0.05
606.423	0.02
606.612	-0.03
606.802	0.03
606.991	0.06
607.181	0.04
607.37	-0.04
607.559	0.01
607.749	-0
607.938	0
608.127	0.01
608.316	-0
608.506	0.05
608.695	0.01
608.884	-0.02
609.073	0.01
609.263	0.04
609.452	0.01
609.641	0.02
609.83	0
610.019	0.02
610.208	-0.01
610.397	-0.01
610.586	0.05
610.775	0.01
610.965	-0.01
611.154	-0.01
611.343	0.04
611.532	0.03
611.721	-0.02
611.91	-0.03
612.099	0.04
612.287	0.01
612.476	-0.01
612.665	0.01
612.854	0.01
613.043	0.05
613.232	0.01
613.421	-0.01
613.61	0.02
613.798	-0
613.987	0.05
614.176	0.03
614.365	0.03
614.554	0.04
614.742	0.04
614.931	-0.01
615.12	0.06
615.309	0.02
615.497	0.04
615.686	-0.02
615.875	0.03
616.063	0
616.252	-0.02
616.44	-0
616.629	0.01
616.818	0.06
617.006	-0
617.195	-0.02
617.383	0.03
617.572	0
617.76	0.02
617.949	0.01
618.137	0.01
618.326	0.04
618.514	-0.04
618.703	-0.04
618.891	0.1
619.079	-0.04
619.268	0.03
619.456	-0.01
619.644	0.08
619.833	-0
620.021	0.01
620.209	-0.04
620.398	0.02
620.586	0.07
620.774	0.05
620.962	-0
621.151	0.07
621.339	0.03
621.527	-0.04
621.715	-0.02
621.903	-0.01
622.092	-0.03
622.28	0.04
622.468	-0
622.656	-0
622.844	0.04
623.032	0.03
623.22	-0.02
623.408	0.06
623.596	0.02
623.784	0.03
623.972	-0.04
624.16	0.01
624.348	0.08
624.536	-0
624.724	0.01
624.912	0.06
625.1	0.07
625.288	-0.01
625.476	-0
625.664	0.02
625.851	0.02
626.039	0
626.227	0.03
626.415	-0.01
626.603	-0.03
626.79	-0.01
626.978	0.01
627.166	0.07
627.354	-0.02
627.541	-0.03
627.729	-0.03
627.917	0.05
628.104	0.05
628.292	0.03
628.48	0.02
628.667	0.04
628.855	0.01
629.042	0.03
629.23	0.01
629.418	0.01
629.605	0
629.793	-0.03
629.98	-0.04
630.168	0.02
630.355	0.01
630.543	0.03
630.73	-0.02
630.917	0.01
631.105	0.06
631.292	0
631.48	0.02
631.667	0.08
631.854	-0
632.042	0.02
632.229	-0.02
632.416	0.02
632.604	0
632.791	-0
632.978	0.04
633.165	0.03
633.353	0.09
633.54	0.05
633.727	-0.05
633.914	-0
634.101	-0.08
634.289	0.1
634.476	-0
634.663	0
634.85	0.04
635.037	-0.03
635.224	-0.04
635.411	0.05
635.598	0.07
635.785	-0.01
635.972	0.01
636.159	0.04
636.346	-0
636.533	-0
636.72	-0.01
636.907	0.02
637.094	0.05
637.281	0
637.468	0.02
637.655	0.01
637.842	-0
638.029	-0.01
638.215	0.08
638.402	0.02
638.589	-0
638.776	-0.01
638.963	-0.01
639.149	0.02
639.336	0.06
639.523	0.01
639.709	0
639.896	-0
640.083	0.02
640.27	0.04
640.456	0.01
640.643	0.03
640.829	-0.04
641.016	0.02
641.203	-0.03
641.389	0.04
641.576	0.04
641.762	0.02
641.949	-0.03
642.135	0.03
642.322	0.03
642.508	-0.03
642.695	0.03
642.881	0.01
643.068	0.03
643.254	0.02
643.441	0.07
643.627	-0
643.813	-0.01
644	0.05
644.186	-0.02
644.372	0.08
644.559	0.03
644.745	0
644.931	-0
645.118	0.03
645.304	-0.01
645.49	0.01
645.676	-0
645.862	0.03
646.049	0.05
646.235	0.03
646.421	0.07
646.607	0.02
646.793	0.01
646.979	-0.01
647.165	0.01
647.352	0.03
647.538	0.03
647.724	0.02
647.91	0.02
648.096	0.02
648.282	0.04
648.468	-0.01
648.654	-0.01
648.84	-0
649.026	0
649.212	-0.01
649.397	-0
649.583	-0.04
649.769	0.04
649.955	0.01
650.141	0.05
650.327	0.05
650.513	0.03
650.698	0.06
650.884	-0.04
651.07	0.01
651.256	0.03
651.442	0.01
651.627	-0.01
651.813	0.04
651.999	0
652.184	0.05
652.37	-0
652.556	-0
652.741	0.07
652.927	-0.07
653.113	-0.02
653.298	0.02
653.484	0.01
653.669	-0.04
653.855	-0.02
654.04	0.03
654.226	0.02
654.412	-0.02
654.597	-0.05
654.782	0
654.968	0.07
655.153	0.05
655.339	-0.02
655.524	-0.02
655.71	0.03
655.895	-0.01
656.08	0
656.266	0.04
656.451	0.04
656.636	-0.03
656.822	-0
657.007	-0.01
657.192	-0.04
657.378	-0.06
657.563	0.01
657.748	0.07
657.933	0.03
658.118	0.01
658.304	-0.04
658.489	0.03
658.674	0.01
658.859	-0.02
659.044	0.02
659.229	0.05
659.414	-0.01
659.599	0.02
659.785	-0.04
659.97	-0.04
660.155	0.01
660.34	0.02
660.525	-0.01
660.71	-0.02
660.895	0.06
661.08	-0.04
661.264	0.01
661.449	0.08
661.634	0.05
661.819	0.03
662.004	0.03
662.189	-0.06
662.374	-0.03
662.559	-0.04
662.743	-0.05
662.928	0.02
663.113	0
663.298	-0.05
663.483	-0.01
663.667	0.04
663.852	-0.01
664.037	0.04
664.221	-0.03
664.406	0.04
664.591	0.03
664.775	0.02
664.96	0.03
665.145	0
665.329	0.05
665.514	-0.04
665.698	0
665.883	-0.06
666.068	0.07
666.252	0.01
666.437	-0.04
666.621	0
666.806	0.07
666.99	0
667.174	-0.02
667.359	0.04
667.543	-0.01
667.728	-0.01
667.912	-0.06
668.096	0.05
668.281	0
668.465	0.01
668.649	-0
668.834	0.01
669.018	-0.04
669.202	-0.02
669.387	-0.07
669.571	0.03
669.755	-0.02
669.939	-0
670.124	0.04
670.308	0.09
670.492	0.03
670.676	0.04
670.86	-0.02
671.044	-0.03
671.228	0.05
671.413	-0.03
671.597	0
671.781	-0.02
671.965	-0
672.149	0
672.333	0.01
672.517	-0.04
672.701	0.05
672.885	-0.04
673.069	-0.09
673.253	0.09
673.437	-0.01
673.621	-0.04
673.804	0.01
673.988	0.03
674.172	-0.02
674.356	-0.08
674.54	0
674.724	0.07
674.908	0.05
675.091	0.07
675.275	-0.02
675.459	0.03
675.643	0.08
675.826	0.03
676.01	0.03
676.194	0.04
676.377	0.07
676.561	0.07
676.745	0.04
676.928	0.05
677.112	0.07
677.296	-0.01
677.479	-0.02
677.663	0.02
677.846	0.04
678.03	-0
678.213	0.01
678.397	-0.01
678.58	0.02
678.764	0.01
678.947	-0.04
679.131	0
679.314	0.03
679.498	0
679.681	-0.02
679.865	0.05
680.048	0.01
680.231	0.03
680.415	0.02
680.598	-0.01
680.781	-0.04
680.965	-0.01
681.148	0.03
681.331	0
681.514	0.02
681.698	0.03
681.881	0.03
682.064	-0
682.247	0.04
682.43	-0.03
682.614	0.08
682.797	0.07
682.98	0.07
683.163	-0.01
683.346	0.06
683.529	-0
683.712	-0.01
683.895	0.08
684.078	-0.01
684.261	0.01
684.444	0.03
684.627	0.02
684.81	-0.01
684.993	-0
685.176	0.05
685.359	-0
685.542	0.01
685.725	0.09
685.908	-0.02
686.091	0.02
686.274	0.07
686.457	0.03
686.639	-0.01
686.822	0.04
687.005	0.05
687.188	0.04
687.371	0.11
687.553	0.03
687.736	0.01
687.919	0.11
688.102	0.09
688.284	0
688.467	0.02
688.65	0
688.832	-0.01
689.015	0.02
689.197	-0.03
689.38	0.15
689.563	0.12
689.745	0.02
689.928	-0.03
690.11	0.02
690.293	0.07
690.475	-0.04
690.658	0.04
690.84	-0
691.023	0.02
691.205	-0.01
691.388	-0.02
691.57	0.04
691.752	0.08
691.935	-0.07
692.117	-0
692.3	0.08
692.482	0.01
692.664	-0
692.847	0.02
693.029	0.07
693.211	0.06
693.393	-0
693.576	-0.04
693.758	0.01
693.94	-0.05
694.122	0
694.304	0.02
694.487	-0.01
694.669	0.05
694.851	-0.02
695.033	0.01
695.215	0.01
695.397	-0
695.579	0.04
695.761	-0.07
695.943	-0.07
696.125	0.08
696.308	0.03
696.49	-0.08
696.671	0.12
696.853	-0.01
697.035	0.11
697.217	-0.01
697.399	0.03
697.581	-0.07
697.763	0.01
697.945	-0.03
698.127	0.02
698.309	0.05
698.491	0.04
698.672	0.06
698.854	0.11
699.036	0.06
699.218	0.02
699.399	0.07
699.581	0.06
699.763	0.05
699.945	-0.01
700.126	-0.01
700.308	0.05
700.49	0.02
700.671	-0.08
700.853	-0.02
701.035	0.03
701.216	0.02
701.398	-0.04
701.579	0.03
701.761	0.05
701.943	-0.02
702.124	-0.02
702.306	0.02
702.487	0.09
702.669	-0.02
702.85	0.02
703.031	-0
703.213	0.13
703.394	0.05
703.576	0.06
703.757	0.08
703.938	-0
704.12	0.17
704.301	-0.01
704.483	-0.01
704.664	0.04
704.845	0.12
705.026	0.03
705.208	-0
705.389	-0.01
705.57	0.01
705.751	-0.02
705.933	0.01
706.114	0.09
706.295	0.02
706.476	-0.03
706.657	0.08
706.838	0.06
707.02	0.03
707.201	-0
707.382	0.02
707.563	0.04
707.744	-0.01
707.925	-0
708.106	-0.04
708.287	0.04
708.468	0.12
708.649	0
708.83	0.08
709.011	-0.01
709.192	0.05
709.373	-0.05
709.554	0
709.734	0.07
709.915	0.15
710.096	0.03
710.277	-0.12
710.458	0.03
710.639	0.05
710.819	-0.12
711	-0.01
711.181	0.15
711.362	0.04
711.542	0.07
711.723	0.01
711.904	0.08
712.085	-0
712.265	0.01
712.446	-0.02
712.627	-0.01
712.807	0.01
712.988	0.02
713.168	-0.09
713.349	0.1
713.53	-0.12
713.71	-0.05
713.891	-0.06
714.071	-0.02
714.252	-0.05
714.432	-0.02
714.613	-0.06
714.793	-0.01
714.974	0.13
715.154	0.03
715.334	0.04
715.515	0.17
715.695	-0.1
715.876	0.01
716.056	-0.01
716.236	0.01
716.417	-0.02
716.597	0
716.777	0.22
716.957	0.02
717.138	0.01
717.318	0.02
717.498	-0.07
717.678	0.05
717.859	-0.01
718.039	0.01
718.219	0.04
718.399	0.07
718.579	-0.05
718.759	-0.08
718.939	0.03
719.12	0.06
719.3	-0.01
719.48	-0.14
719.66	-0.15
719.84	0.11
720.02	0.02
720.2	-0.04
720.38	-0.02
720.56	0.06
720.74	-0.08
720.92	0.01
721.1	0.13
721.279	0.06
721.459	-0.01
721.639	-0.08
721.819	0.08
721.999	-0.07
722.179	0.07
722.359	-0.09
722.538	-0.04
722.718	0.03
722.898	-0.01
723.078	0.04
723.257	-0.02
723.437	0
723.617	0.03
723.797	-0.07
723.976	0.04
724.156	0.14
724.336	0.05
724.515	0.08
724.695	-0.09
724.874	0
725.054	0.02
725.234	-0.03
725.413	0.06
725.593	0.02
725.772	-0.1
725.952	-0.03
726.131	0.02
726.311	0.02
726.49	0.05
726.67	-0.11
726.849	0.01
727.028	0.03
727.208	-0.02
727.387	0.08
727.567	-0.11
727.746	0.05
727.925	-0.03
728.105	-0.08
728.284	-0.02
728.463	0.01
728.643	0.14
728.822	-0.08
729.001	0.03
729.18	0.12
729.359	0.13
729.539	0.01
729.718	0.02
729.897	0.07
730.076	-0.01
730.255	-0.07
730.434	-0.04
730.614	0.09
730.793	0.09
730.972	0.06
731.151	0.09
731.33	0.14
731.509	0.09
731.688	0.03
731.867	0.03
732.046	-0.17
732.225	0.24
732.404	-0.03
732.583	-0.04
732.762	0.06
732.941	0.07
733.12	-0.05
733.298	0.01
733.477	0.14
733.656	-0.03
733.835	-0.09
734.014	0.09
734.193	-0
734.371	0.12
734.55	-0
734.729	-0.12
734.908	0.04
735.086	0.07
735.265	0.1
735.444	-0.13
735.623	-0.07
735.801	-0.22
735.98	0.02
736.159	-0.05
736.337	0.14
736.516	0.04
736.694	0.02
736.873	-0.01
737.052	0.21
737.23	0.18
737.409	0.02
737.587	0.22
737.766	-0.15
737.944	-0.05
738.123	0.19
738.301	0.05
738.479	0.03
738.658	0.11
738.836	-0.23
739.015	0.09
739.193	0.13
739.371	-0.03
739.55	-0.08
739.728	-0.12
739.906	0.15
740.085	0.28
740.263	0.07
740.441	-0.21
740.62	0.13
740.798	0.03
740.976	-0.05
741.154	-0.07
741.332	0.25
741.511	-0.02
741.689	0.03
741.867	0.04
742.045	0.14
742.223	0.05
742.401	-0.15
742.579	0
742.757	0.08
742.935	0.03
743.114	-0.14
743.292	-0.03
743.47	-0.06
743.648	0.03
743.826	0.02
744.004	0.08
744.181	0.05
744.359	-0.08
744.537	0.1
744.715	-0.04
744.893	0.07
745.071	0.04
745.249	-0.06
745.427	-0.03
745.605	-0.02
745.782	0.07
745.96	0.13
746.138	0.07
746.316	-0.01
746.493	-0.01
746.671	-0.04
746.849	-0.04
747.027	0.19
747.204	-0.14
747.382	0.1
747.56	-0
747.737	0.01
747.915	-0.08
748.093	0.06
748.27	-0.02
748.448	0
748.625	-0.01
748.803	-0.04
748.98	-0.07
749.158	0.02
749.335	0.11
749.513	0.04
749.69	-0.02
749.868	-0
750.045	0.09
750.223	0.04
750.4	-0.15
750.578	0.13
750.755	0.02
750.932	-0.18
751.11	0.14
751.287	-0.12
751.464	0.15
751.642	-0.06
751.819	0.02
751.996	0.08
752.173	-0.04
752.351	-0.15
752.528	0.09
752.705	0.06
752.882	0.02
753.06	-0.04
753.237	0.11
753.414	0.14
753.591	0.15
753.768	-0.05
753.945	0.01
754.122	-0.01
754.299	0.13
754.476	-0.09
754.654	0.03
754.831	0.12
755.008	0.1
755.185	-0.05
755.362	-0.07
755.539	0.01
755.716	-0.03
755.892	-0.05
756.069	-0.07
756.246	-0.01
756.423	0.02
756.6	0.14
756.777	-0.01
756.954	0.07
757.131	0
757.307	0.03
757.484	-0.11
757.661	0.16
757.838	0.12
758.015	-0.15
758.191	0.06
758.368	-0.02
758.545	0.28
758.721	0.06
758.898	0.01
759.075	0.1
759.251	0.12
759.428	0.04
759.605	-0.17
759.781	0.05
759.958	0.12
760.134	-0.03
760.311	-0.01
760.488	0.07
760.664	0.1
760.841	0.03
761.017	-0.01
761.194	0.08
761.37	0.08
761.547	0.07
761.723	-0.06
761.899	0.18
762.076	-0.14
762.252	0.05
762.429	0.01
762.605	0.19
762.781	-0.08
762.958	0.09
763.134	0.03
763.31	-0.03
763.486	0.24
763.663	-0.13
763.839	0.06
764.015	-0.22
764.191	-0.09
764.368	-0.11
764.544	-0.2
764.72	0.09
764.896	0.12
765.072	0.05
765.248	-0.03
765.425	-0.06
765.601	0.06
765.777	0.05
765.953	-0.3
766.129	0.03
766.305	0.02
766.481	0.1
766.657	0.07
766.833	0.07
767.009	-0.13
767.185	-0.05
767.361	-0.09
767.537	-0.15
767.713	0.17
767.889	-0.01
768.065	0.03
768.24	0.09
768.416	0.13
768.592	0.08
768.768	-0.02
768.944	0.15
769.12	-0.16
769.295	-0.09
769.471	-0.1
769.647	-0.02
769.823	0.17
769.998	-0.25
770.174	-0.07
770.35	0.3
770.525	0.36
770.701	0.06
770.877	-0
771.052	0
771.228	0.2
771.403	-0.03
771.579	0.13
771.755	0.29
771.93	-0.04
772.106	-0.13
772.281	-0.17
772.457	0.15
772.632	0.15
772.808	-0.13
772.983	-0.02
773.159	-0.08
773.334	0.1
773.509	0.09
773.685	-0.15
773.86	0.34
774.036	0.32
774.211	0.11
774.386	-0.17
774.562	0.14
774.737	0.18
774.912	0.04
775.087	0.1
775.263	0.09
775.438	0.07
775.613	-0.05
775.788	-0.15
775.964	0.18
776.139	0.42
776.314	-0.18
776.489	0.08
776.664	0.04
776.839	-0.06
777.014	0.16
777.19	0.17
777.365	0.35
777.54	0.19
777.715	-0.21
777.89	0
778.065	0.01
778.24	-0
778.415	0.08
778.59	-0.18
778.765	0.02
778.94	0.18
779.115	-0.01
779.289	-0.13
779.464	-0.06
779.639	0.09
779.814	-0.22
779.989	-0
780.164	0.2
780.339	0.12
780.513	-0.14
780.688	-0.04
780.863	0.14
781.038	0.19
781.212	-0.28
781.387	0.13
781.562	0.29
781.737	-0.09
781.911	0.32
782.086	0.04
782.261	0.07
782.435	0.25
782.61	0.01
782.784	0.02
782.959	0.13
783.134	-0.13
783.308	-0.32
783.483	-0.03
783.657	0.43
783.832	0.1
784.006	-0.35
784.181	-0.07
784.355	0.44
784.53	-0.31
784.704	-0.06
784.878	0.32
785.053	0.04
785.227	0.21
785.402	0.26
785.576	-0.3
785.75	0.07
785.925	0.15
786.099	0
786.273	0.08
786.448	0.25
786.622	-0.01
786.796	0.04
786.97	-0.19
787.145	0.51
787.319	-0.11
787.493	0.1
787.667	-0.4
787.841	-0.04
788.015	0.28
788.19	-0.03
788.364	0.12
788.538	0.17
788.712	0.18
788.886	0.09
789.06	0.14
789.234	0.21
789.408	-0.35
789.582	0.01
789.756	0.04
789.93	-0.12
790.104	-0.17
790.278	-0.12
790.452	-0.22
790.626	0.33
790.8	0.01
790.973	-0
791.147	0.15
791.321	0.33
791.495	0.26
791.669	0.22
791.843	0.07
792.016	0.13
792.19	0.32
792.364	-0.17
792.538	0.34
792.711	-0.1
792.885	-0.13
793.059	-0.03
793.233	-0.16
793.406	0.32
793.58	-0.12
793.754	0.14
793.927	-0.12
794.101	0.27
794.274	0
794.448	0.11
794.622	-0.08
794.795	0.23
794.969	-0.13
795.142	0.38
795.316	-0.06
795.489	-0.17
795.663	0.36
795.836	-0.07
796.009	-0.15
796.183	0.11
796.356	0.12
796.53	-0.06
796.703	-0.11
796.876	0.36
797.05	-0.11
797.223	-0.2
797.396	0
797.57	0.15
797.743	0.14
797.916	0.31
798.09	0.18
798.263	0.15
798.436	0.27
798.609	-0.01
798.782	-0.14
798.956	0.3
799.129	-0.06
799.302	0.02
799.475	-0.24
799.648	-0.26
799.821	-0.01
799.994	0.02
800.167	-0.41
800.34	-0.1
800.514	0.09
800.687	-0.03
800.86	-0.13
801.033	-0
801.206	0.06
801.379	-0.22
801.551	0.22
801.724	0.07
801.897	0.38
802.07	-0.24
802.243	-0.47
802.416	-0.17
802.589	-0.25
802.762	0.21
802.935	0.18
803.107	0.24
803.28	0.51
803.453	0.43
803.626	-0.07
803.798	0.1
803.971	0.02
804.144	0.41
804.317	-0
804.489	0.29
804.662	0.01
804.835	-0.12
805.007	-0.26
805.18	0.46
805.353	0.06
805.525	-0.18
805.698	-0.42
805.87	0.05
806.043	0.44
806.215	-0.18
806.388	-0.28
806.56	0.16
806.733	0.48
806.905	0.16
807.078	-0.38
807.25	-0.09
807.423	0.36
807.595	-0.07
807.768	0.16
807.94	0.36
808.112	0.03
808.285	0.07
808.457	-0.17
808.629	0.22
808.802	0.22
808.974	0.15
809.146	-0.35
809.318	-0.64
809.491	0.09
809.663	0.05
809.835	-0.12
810.007	0.1
810.18	-0.22
810.352	-0.66
810.524	-0.16
810.696	0.31
810.868	0.31
811.04	0.25
811.212	-0.08
811.384	0.44
811.556	0.17
811.728	-0.22
811.901	0.5
812.073	0.12
812.245	0.35
812.417	0.07
812.589	-0.73
812.76	0.31
812.932	-0.01
813.104	0.25
813.276	-0.22
813.448	0.12
813.62	0.12
813.792	0.23
813.964	0.47
814.136	0.29
814.307	-0.18
814.479	-0.31
814.651	-0.4
814.823	0.82
814.995	-0.3
815.166	-0.01
815.338	-0.1
815.51	-0.4
815.681	1.02
815.853	0.24
816.025	0.25
816.196	0.53
816.368	0.32
816.54	-0.6
816.711	-0.68
816.883	0.47
817.054	1.01
817.226	-0.67
817.398	0.18
817.569	-0.12
817.741	0.22
817.912	-0.22
818.084	-0.3
818.255	0.06
818.426	-0.15
818.598	-0.01
818.769	-0.17
818.941	0.08
819.112	0.56
819.283	-0.24
819.455	-0.12
819.626	-0.08
819.798	0.08
819.969	0.19
820.14	-0.22
820.311	-0.08
820.483	0.16
820.654	0.04
820.825	0.14
820.996	-0.06
821.168	-0.2
821.339	-0.3
821.51	-0.48
821.681	-0.09
821.852	-0.18
822.023	-0.85
822.195	-0.9
822.366	0.24
822.537	0.34
822.708	0.14
822.879	-0.79
823.05	0.59
823.221	-0.25
823.392	0.33
823.563	-0.22
823.734	0.29
823.905	0.09
824.076	-0.4
824.247	-0.52
824.418	-0.45
824.589	0.88
824.759	-0.18
824.93	-0.03
825.101	-0.46
825.272	0.46
825.443	0.06
825.614	0.19
825.784	-0.72
825.955	1.09
826.126	0.36
826.297	-0.4
826.467	0.24
826.638	0.59
826.809	-1.02
826.98	0.26
827.15	0.16
827.321	-0.01
827.492	0.92
827.662	0.27
827.833	0.68
828.003	0.7
828.174	-0.52
828.345	-0.2
828.515	0.32
828.686	0.29
828.856	0.1
829.027	0.21
829.197	0.26
829.368	0.32
829.538	-0.43
829.709	-0.84
829.879	0.55
830.049	0.02
830.22	-0.74
830.39	-0.2
830.56	0.57
830.731	-0.05
830.901	-0.51
831.072	0.29
831.242	-0.17
831.412	0.06
831.582	-0.2
831.753	-0.37
831.923	0.81
832.093	0.34
832.263	0.12
832.434	-0.07
832.604	0.2
832.774	0.32
832.944	0.17
833.114	-0.06
833.284	0.03
833.454	-0.19
833.624	-0.25
833.795	-0.01
833.965	0.89
834.135	0.75
834.305	-0.63
834.475	-1.13
834.645	-0.19
834.815	0.49
834.985	-0.59
835.155	-0.59
835.325	0.41
835.494	0.19
835.664	-0.23
835.834	-0.49
836.004	-0.4
836.174	0.44
836.344	0.46
836.514	-1.33
836.684	-0.5
836.853	-0.61
837.023	0.03
837.193	-0.4
837.363	0.98
837.532	0.18
837.702	-0.08
837.872	-0.56
838.041	0.36
838.211	1.42
838.381	-1.54
838.55	-0.29
838.72	1.45
838.89	1.18
839.059	0.11
839.229	-0.94
839.398	1.57
839.568	0.25
839.738	0.11
839.907	0.82
840.077	0.29
840.246	-0.57
840.416	-0.73
840.585	-0.57
840.755	1.52
840.924	0.52
841.093	-0.66
841.263	0.02
841.432	-0.09
841.602	-0.4
841.771	-0.49
841.94	-0.3
842.11	1.91
842.279	0.61
842.448	-0.77
842.617	-0.3
842.787	1.71
842.956	-0.8
843.125	-0.11
843.294	-0.12
843.464	1.12
843.633	-0.17
843.802	-1.18
843.971	-0.42
844.14	0.01
844.309	0.13
844.479	-0.68
844.648	-1.29
844.817	0.24
844.986	0.34
845.155	-0.75
845.324	0.23
845.493	0.14
845.662	-0.22
845.831	0.52
846	0.71
846.169	0.01
846.338	0.89
846.507	0.16
846.676	0.23
846.844	-0.41
847.013	1.42
847.182	0.11
847.351	-0.49
847.52	-0.48
847.689	0.61
847.858	0.04
848.026	-0.45
848.195	0.23
848.364	-0.21
848.533	-0.43
848.701	-0.38
848.87	0.04
849.039	1.47
849.207	0.02
849.376	1.13
849.545	1.07
849.713	-0.71
849.882	0.62
850.051	-0.12
850.219	0.52
850.388	1.07
850.556	-0.35
850.725	-0.65
850.893	0.12
851.062	-0.38
851.23	-0.05
851.399	-1.03
851.567	-0.53
851.736	-0.29
851.904	-1.25
852.073	-0.33
852.241	0.36
852.41	-0.03
852.578	-0.64
852.746	-0.65
852.915	1.05
853.083	0.36
853.251	-1.5
853.42	-0.81
853.588	0.1
853.756	1.13
853.924	0.28
854.093	-0.43
854.261	-0.19
854.429	-1.91
854.597	0.71
854.765	-2.27
854.934	1.12
855.102	1.85
855.27	-1.03
855.438	0.47
855.606	1.25
855.774	1.87
855.942	-1.51
856.11	-2.5
856.278	-0.5
856.446	0.97
856.614	0.13
856.782	-0.61
856.95	1.44
857.118	0.72
857.286	-0.17
857.454	-1.06
857.622	0.92
857.79	0.62
857.958	-2.18
858.126	-0.16
858.294	-3
858.462	-0.04
858.629	-1.01
858.797	-0.99
858.965	0.2
859.133	1.08
859.301	-0.33
859.468	-0.23
859.636	-0.57
859.804	1.24
859.971	0.76
860.139	-1.35
860.307	1.05
860.474	1.05
860.642	-0.44
860.81	-1.09
860.977	0.06
861.145	0.72
861.313	0.15
861.48	0.95
861.648	1.13
861.815	-0.61
861.983	-1.37
862.15	-0.01
862.318	-0.37
862.485	1.01
862.653	-1.52
862.82	-0.62
862.988	2.27
863.155	1.36
863.322	-0.82
863.49	-1.67
863.657	-1.04
863.824	1.98
863.992	-0.71
864.159	1.06
864.326	1.28
864.494	-1.16
864.661	2.31
864.828	-0.56
864.996	1.01
865.163	2.86
865.33	-1.08
865.497	-2.92
865.664	-0.49
865.832	-1.17
865.999	-1.1
866.166	-1.16
866.333	-0.17
866.5	-0.78
866.667	-0.32
866.834	0.21
867.001	1.22
867.168	-0.54
867.335	-0.77
867.502	-1.38
867.669	0.62
867.836	2.68
868.003	-0.4
868.17	0.64
868.337	-1.2
868.504	3.56
868.671	-2.37
868.838	-2.08
869.005	1.82
869.172	-0.19
869.339	-0.61
869.505	-1.03
869.672	0.93
869.839	0.53
870.006	-0.25
870.173	-1.15
870.339	0.99
870.506	3.55
870.673	-1.23
870.84	1.53
871.006	0.12
871.173	-0.78
871.34	1.24
871.506	-2.01
871.673	2.3
871.839	-0.35
872.006	-0.51
872.173	-2.37
872.339	-1.41
872.506	0.99
872.672	0.08
872.839	-2.2
873.005	0.21
873.172	3.28
873.338	2.22
873.505	-0.32
873.671	1.12
873.838	0.88
874.004	-2.81
874.171	-0.94
874.337	-0.12
874.503	2.61
874.67	0.39
874.836	0.6
875.002	1.6
875.169	0.74
875.335	-0.58
875.501	-2.05
875.668	2.15
875.834	0.74
876	-1.53
876.166	0.98
876.332	1.09
876.499	2.61
876.665	0.2
876.831	1.35
876.997	3.35
877.163	0.84
877.329	-1.5
877.495	0.82
877.662	1.5
877.828	0.8
877.994	-0.21
878.16	-2.39
878.326	-2
878.492	1.81
878.658	0.42
878.824	-1.97
878.99	-0.49
879.156	-2.35
879.322	2.63
879.487	-0.1
879.653	-0.55
879.819	2.96
879.985	-0.5
880.151	-0.47
880.317	-0.41
880.483	-0.06
880.648	1.19
880.814	-2.86
880.98	2.02
881.146	-2.97
881.312	-1.8
881.477	-0.27
881.643	0.56
881.809	2.46
881.974	2.14
882.14	-1.11
882.306	-1.32
882.471	3.76
882.637	0.52
882.803	1.89
882.968	3.08
883.134	2.63
883.299	-0.17
883.465	-0
883.63	2.42
883.796	-0.56
883.961	-0.85
884.127	1.04
884.292	-3.58
884.458	-1.39
884.623	-1.39
