Data from Apollo_Calib_20240827__AbsoluteIrradiance__426__06-15-01-392.txt Node

Date: Wed Aug 28 06:15:01 BST 2024
User: biology
Spectrometer: FLMT08252
Trigger mode: 0
Integration Time (sec): 5.000000E-1
Scans to average: 5
Electric dark correction enabled: true
Nonlinearity correction enabled: false
Boxcar width: 0
XAxis mode: Wavelengths
Number of Pixels in Spectrum: 3648
>>>>>Begin Spectral Data<<<<<
179.588	-0
179.809	-0
180.03	-0
180.251	-0
180.473	-0
180.694	0
180.915	0
181.136	-0
181.357	0
181.578	-0
181.799	-0
182.02	-0
182.241	0
182.462	-0
182.683	0
182.904	-0
183.125	-0
183.346	0
183.567	0
183.788	0
184.009	0
184.23	0
184.451	0
184.672	-0
184.892	0
185.113	0
185.334	0
185.555	-0
185.776	0
185.996	0
186.217	0
186.438	0
186.659	0
186.879	0
187.1	0
187.321	0
187.541	0
187.762	0
187.983	0
188.203	0
188.424	0
188.644	0
188.865	0
189.086	0
189.306	0
189.527	0
189.747	0
189.968	0
190.188	0
190.409	0
190.629	0
190.849	0
191.07	0
191.29	0
191.511	0
191.731	0
191.951	0
192.172	0
192.392	0
192.612	0
192.833	0
193.053	0
193.273	0
193.493	0
193.714	0
193.934	0
194.154	0
194.374	0
194.594	0
194.815	0
195.035	0
195.255	0
195.475	-0
195.695	0
195.915	0
196.135	0
196.355	0
196.575	0
196.795	0
197.015	0
197.235	0
197.455	0
197.675	0
197.895	0
198.115	0
198.335	0
198.555	0
198.775	0
198.995	0
199.214	0
199.434	0
199.654	0
199.874	0
200.094	1.7
200.313	0.8
200.533	0.34
200.753	-0.09
200.973	1.64
201.192	1.51
201.412	-0.09
201.632	0.19
201.851	1.51
202.071	0.37
202.291	0.38
202.51	-0.31
202.73	1.3
202.95	0.08
203.169	0.17
203.389	0.51
203.608	0.77
203.828	0.35
204.047	0.25
204.267	0.77
204.486	0.55
204.706	0.65
204.925	0.6
205.145	0.37
205.364	1
205.583	0.98
205.803	0.13
206.022	0.11
206.242	0.53
206.461	0.86
206.68	0.05
206.9	0.42
207.119	1.31
207.338	0.9
207.557	0.29
207.777	0.38
207.996	0.19
208.215	1.04
208.434	-0.05
208.654	0.11
208.873	0.27
209.092	0.91
209.311	0.22
209.53	0.42
209.749	0.49
209.968	0.15
210.187	0.13
210.407	0.03
210.626	0.31
210.845	0.71
211.064	0.46
211.283	0.11
211.502	0.76
211.721	0.34
211.94	0.15
212.159	0.47
212.377	0.45
212.596	0.85
212.815	0.34
213.034	0.25
213.253	0.51
213.472	0.55
213.691	0.23
213.91	-0.02
214.128	0.3
214.347	0.7
214.566	-0.1
214.785	0.01
215.003	0.61
215.222	0.26
215.441	0.34
215.66	0.02
215.878	0.43
216.097	0.69
216.316	-0.09
216.534	0.16
216.753	0.36
216.972	0.46
217.19	0.25
217.409	0.14
217.627	0.06
217.846	0.22
218.064	0.25
218.283	0.07
218.501	0.62
218.72	0.32
218.938	0.19
219.157	0.07
219.375	0.42
219.594	0.29
219.812	0.03
220.031	0.16
220.249	0.58
220.467	0.51
220.686	0.18
220.904	0.05
221.122	0.19
221.341	0.5
221.559	0.31
221.777	0.15
221.995	0.32
222.214	0.46
222.432	0.24
222.65	0.43
222.868	0.25
223.086	0.37
223.305	0.32
223.523	0.2
223.741	0.46
223.959	0.22
224.177	0.09
224.395	0.2
224.613	0.13
224.831	0.36
225.049	0.04
225.267	0.16
225.485	0.27
225.703	0.2
225.921	0.23
226.139	0.17
226.357	0.28
226.575	0.24
226.793	0.12
227.011	0.83
227.229	0.27
227.447	0.36
227.665	0.16
227.883	0.07
228.1	0.09
228.318	0.29
228.536	0.05
228.754	0.13
228.972	0.15
229.189	0.33
229.407	0.19
229.625	0.23
229.843	0.3
230.06	0.35
230.278	0.02
230.496	0.28
230.713	0.16
230.931	0.32
231.149	0.16
231.366	-0.09
231.584	0.09
231.801	0.49
232.019	0.11
232.236	0.02
232.454	0.07
232.671	0.27
232.889	0.16
233.106	0.09
233.324	0.14
233.541	0.08
233.759	0.23
233.976	0.02
234.194	0.2
234.411	0.24
234.628	0.12
234.846	0.1
235.063	0.16
235.28	0.08
235.498	0.22
235.715	0.03
235.932	0.25
236.149	0.17
236.367	-0.05
236.584	0.19
236.801	0.2
237.018	0.21
237.236	0.22
237.453	0.03
237.67	0.21
237.887	0.21
238.104	0.07
238.321	-0.01
238.538	0.06
238.755	0.38
238.973	0.01
239.19	0.18
239.407	0.2
239.624	0.08
239.841	-0.06
240.058	0.07
240.275	0.18
240.492	0.08
240.709	0.12
240.925	0.09
241.142	0.16
241.359	0.06
241.576	0.07
241.793	0.22
242.01	0.1
242.227	0.21
242.444	0.13
242.66	0.31
242.877	0.03
243.094	0.11
243.311	0.23
243.527	0.12
243.744	0.15
243.961	0.26
244.178	0.11
244.394	0.1
244.611	0.23
244.828	0.29
245.044	0.03
245.261	0.16
245.477	0.16
245.694	0.22
245.911	0.03
246.127	0.18
246.344	0.31
246.56	0.21
246.777	0.13
246.993	0.1
247.21	0.15
247.426	0.14
247.643	0.08
247.859	0.04
248.076	0.05
248.292	0.32
248.508	0.1
248.725	0.18
248.941	0.19
249.157	0.2
249.374	0.16
249.59	0.06
249.806	0.18
250.023	0.3
250.239	0.11
250.455	0.05
250.671	0.09
250.888	0.2
251.104	0.23
251.32	0.11
251.536	0.07
251.752	0.07
251.969	0.18
252.185	0.08
252.401	0.34
252.617	0.03
252.833	0.08
253.049	0.12
253.265	0.14
253.481	0.17
253.697	0.07
253.913	-0.02
254.129	0.17
254.345	0.09
254.561	0.06
254.777	0.07
254.993	0.18
255.209	0.1
255.425	0.06
255.641	0.04
255.857	0.19
256.073	0.16
256.288	-0.01
256.504	0.07
256.72	0.07
256.936	0.21
257.152	0.14
257.367	0.04
257.583	0.17
257.799	0.16
258.015	0.02
258.23	0.11
258.446	0.22
258.662	0.11
258.877	0.04
259.093	0.02
259.309	0.08
259.524	0.18
259.74	0.05
259.955	-0.01
260.171	0.07
260.387	0.08
260.602	0.17
260.818	0.24
261.033	0.01
261.249	0.07
261.464	0.08
261.68	0.01
261.895	0.18
262.11	0.14
262.326	0.05
262.541	0.04
262.757	0.16
262.972	0.09
263.187	0.15
263.403	0.16
263.618	0.13
263.833	0.1
264.049	0.02
264.264	0.09
264.479	0.18
264.694	0.23
264.91	0.04
265.125	0.08
265.34	0.19
265.555	0.26
265.77	0.11
265.986	0.09
266.201	0.14
266.416	0.2
266.631	0.03
266.846	0.1
267.061	0.11
267.276	0.15
267.491	-0.08
267.706	0.15
267.921	0.11
268.136	0.15
268.351	0.1
268.566	0.06
268.781	0.25
268.996	0.15
269.211	0.11
269.426	0.05
269.641	0.07
269.856	0.2
270.071	0.03
270.285	0.07
270.5	0.18
270.715	0.19
270.93	0.03
271.145	0.17
271.359	0.12
271.574	0.03
271.789	0.06
272.004	0.04
272.218	0.09
272.433	0.18
272.648	0.06
272.862	0.16
273.077	0.17
273.292	0.12
273.506	0.05
273.721	0.07
273.936	0.17
274.15	0.14
274.365	0.07
274.579	0.16
274.794	0.16
275.008	0.22
275.223	-0.03
275.437	0.09
275.652	0.21
275.866	0.12
276.081	0.17
276.295	0.12
276.509	0.13
276.724	0.11
276.938	0.15
277.153	0.12
277.367	0.17
277.581	0.04
277.796	0.06
278.01	0.02
278.224	0.21
278.438	0.2
278.653	0.02
278.867	0.1
279.081	-0.1
279.295	0.11
279.51	0.13
279.724	0
279.938	0.1
280.152	0.09
280.366	0.01
280.58	0.15
280.794	0.23
281.008	0.11
281.222	0.12
281.437	0.2
281.651	0.12
281.865	0.21
282.079	0.12
282.293	-0.02
282.507	0.05
282.721	0.12
282.935	0.16
283.148	-0.05
283.362	0.06
283.576	0.05
283.79	0.1
284.004	0.04
284.218	0.14
284.432	0.07
284.646	0.15
284.859	-0
285.073	0.11
285.287	0.15
285.501	0.07
285.714	0.08
285.928	0.13
286.142	0.08
286.356	0.09
286.569	0.07
286.783	0.17
286.997	0.11
287.21	0.11
287.424	0.1
287.637	0.1
287.851	0.12
288.065	0.14
288.278	0.07
288.492	0.11
288.705	0.1
288.919	0.08
289.132	0.02
289.346	0.16
289.559	0.03
289.773	0.06
289.986	0.09
290.2	0.07
290.413	0.1
290.626	0.08
290.84	0.04
291.053	0.09
291.267	0.21
291.48	0.06
291.693	0.1
291.906	0.06
292.12	0.12
292.333	0.05
292.546	0.05
292.76	0.14
292.973	0.09
293.186	0.13
293.399	0.06
293.612	0.11
293.826	0.1
294.039	0.08
294.252	0.08
294.465	0.08
294.678	0.09
294.891	0.09
295.104	0.04
295.317	0.09
295.53	0.09
295.743	0.08
295.956	0.08
296.169	0.13
296.382	0.17
296.595	0.08
296.808	-0.01
297.021	0.17
297.234	0.13
297.447	0.06
297.66	0.1
297.873	0.18
298.086	0.14
298.299	0.05
298.511	0.06
298.724	0.09
298.937	0.01
299.15	0.08
299.363	0.1
299.575	0.07
299.788	0.08
300.001	0.07
300.213	0.04
300.426	0.09
300.639	0.05
300.852	0.03
301.064	0.11
301.277	0.16
301.489	0.1
301.702	0.15
301.915	0.08
302.127	0.09
302.34	0.1
302.552	0.1
302.765	0.06
302.977	0.13
303.19	0.07
303.402	0.07
303.615	0.07
303.827	0.02
304.04	0.11
304.252	0.13
304.464	0.04
304.677	0.16
304.889	0.12
305.102	0.02
305.314	0.02
305.526	0.15
305.739	0.16
305.951	0.07
306.163	0.04
306.375	0.16
306.588	0.03
306.8	0.03
307.012	0
307.224	0.08
307.436	0.13
307.649	0.03
307.861	0.09
308.073	0.09
308.285	0.05
308.497	0.05
308.709	0.04
308.921	0.07
309.133	0.12
309.346	0.06
309.558	0.05
309.77	0.1
309.982	0.11
310.194	0.11
310.406	0.04
310.617	0.13
310.829	0.08
311.041	0.1
311.253	0.03
311.465	0.05
311.677	0.1
311.889	0.04
312.101	0.03
312.313	0.15
312.524	0.15
312.736	0.04
312.948	0.05
313.16	0.15
313.372	0.13
313.583	0.1
313.795	0.03
314.007	0.06
314.218	0.09
314.43	0.08
314.642	0.08
314.853	0.02
315.065	0.12
315.277	0.05
315.488	0.09
315.7	0.13
315.912	0.1
316.123	0.09
316.335	0.1
316.546	0.18
316.758	0.1
316.969	0.07
317.181	0.06
317.392	0.07
317.604	0.15
317.815	0.04
318.026	0.03
318.238	0.05
318.449	0.11
318.661	0
318.872	0.03
319.083	0.06
319.295	0.1
319.506	0.03
319.717	0.09
319.929	0.12
320.14	0.05
320.351	0.12
320.562	0.06
320.774	0.06
320.985	0.11
321.196	0.03
321.407	0.01
321.618	0.12
321.829	0.13
322.041	0.08
322.252	0.06
322.463	0.07
322.674	0.11
322.885	0
323.096	0.07
323.307	0.06
323.518	0.06
323.729	0.02
323.94	0.06
324.151	0.05
324.362	0.06
324.573	0.05
324.784	0.04
324.995	0.11
325.206	0.09
325.417	0.09
325.628	0.11
325.838	0.07
326.049	0.04
326.26	0.14
326.471	0.07
326.682	0.11
326.892	0.08
327.103	-0.01
327.314	0.03
327.525	0.17
327.735	0.08
327.946	0.05
328.157	0.05
328.368	0.09
328.578	0.05
328.789	0.06
328.999	0.09
329.21	0.04
329.421	0.07
329.631	-0.01
329.842	0.05
330.052	0.1
330.263	0.08
330.473	0.18
330.684	0.09
330.894	0.12
331.105	0.08
331.315	0.06
331.526	0.06
331.736	0.12
331.947	0.11
332.157	0.09
332.367	0.05
332.578	0.1
332.788	0.15
332.999	0.15
333.209	0.09
333.419	0.04
333.629	0.09
333.84	0.1
334.05	0.1
334.26	0.12
334.47	0.08
334.681	0.16
334.891	0.06
335.101	0.13
335.311	0.14
335.521	0.07
335.732	0.01
335.942	0.16
336.152	0.1
336.362	0.1
336.572	0.09
336.782	0.07
336.992	0.05
337.202	0.04
337.412	0.06
337.622	0.09
337.832	0.1
338.042	0.06
338.252	0.07
338.462	0.05
338.672	0.1
338.882	0.08
339.092	0.09
339.302	0.17
339.511	0.07
339.721	0.04
339.931	0.06
340.141	0.19
340.351	0.15
340.561	0.09
340.77	0.07
340.98	0.11
341.19	0.08
341.4	0.08
341.609	0.03
341.819	0.08
342.029	0.04
342.238	0.09
342.448	0.04
342.658	0.05
342.867	0.05
343.077	0.08
343.286	0.07
343.496	0.1
343.706	0.1
343.915	0.02
344.125	0.07
344.334	0.12
344.544	-0.02
344.753	0.06
344.963	0.07
345.172	0.06
345.381	0.08
345.591	0.03
345.8	0.06
346.01	0.13
346.219	0.13
346.428	-0.09
346.638	0.08
346.847	0.1
347.056	0.13
347.266	0.05
347.475	0.11
347.684	0.06
347.893	0.08
348.103	0.1
348.312	0.05
348.521	0.07
348.73	0.04
348.94	0.07
349.149	0.07
349.358	0.03
349.567	0.06
349.776	0.06
349.985	0.07
350.194	0.12
350.403	0.14
350.612	0.03
350.821	0.05
351.03	0.07
351.239	0.05
351.448	0.05
351.657	0.04
351.866	0.12
352.075	0.04
352.284	0.12
352.493	0.04
352.702	0.15
352.911	0.09
353.12	0.12
353.329	0.05
353.538	0.1
353.746	0.11
353.955	0.02
354.164	0.12
354.373	0.05
354.582	0.06
354.79	0.1
354.999	0.11
355.208	0.06
355.416	0.16
355.625	0.03
355.834	0.09
356.042	0.05
356.251	0.09
356.46	0.02
356.668	0.11
356.877	0.15
357.085	0.12
357.294	0.01
357.503	0.08
357.711	0.07
357.92	0.18
358.128	0.11
358.337	0.06
358.545	0.11
358.754	0.11
358.962	0.06
359.17	0.06
359.379	0.07
359.587	0.11
359.796	0.04
360.004	0.15
360.212	0.09
360.421	0.1
360.629	0.04
360.837	0.04
361.046	0.09
361.254	0.18
361.462	0.07
361.67	0.05
361.879	0.06
362.087	0.14
362.295	0.07
362.503	0.04
362.711	0.03
362.92	0.09
363.128	0.03
363.336	0.03
363.544	0
363.752	0.06
363.96	0.07
364.168	0.08
364.376	0.06
364.584	0.06
364.792	0.11
365	0.11
365.208	0.09
365.416	0.04
365.624	0.1
365.832	0.05
366.04	0.13
366.248	0.1
366.456	0.09
366.664	0.07
366.872	0.05
367.079	0.09
367.287	0.09
367.495	0.12
367.703	0.08
367.911	0.07
368.118	0.06
368.326	0.05
368.534	0.03
368.742	0.13
368.949	0.03
369.157	0.07
369.365	0.12
369.572	0.06
369.78	0.03
369.988	0.12
370.195	0.1
370.403	0.11
370.61	0.02
370.818	0.09
371.026	0.11
371.233	0.05
371.441	0.13
371.648	0.07
371.856	0.08
372.063	0.07
372.271	0.05
372.478	0.04
372.685	0.04
372.893	0.11
373.1	0.08
373.308	0.05
373.515	0.14
373.722	0.1
373.93	0.08
374.137	0.12
374.344	0.13
374.552	0.12
374.759	0.08
374.966	0.08
375.173	0.08
375.381	0.13
375.588	0.06
375.795	0.02
376.002	0.05
376.209	0.06
376.417	0.08
376.624	0.06
376.831	0.11
377.038	0.1
377.245	0.01
377.452	0.07
377.659	0.09
377.866	0.05
378.073	0.12
378.28	0.08
378.487	0.09
378.694	0.11
378.901	0.06
379.108	0.07
379.315	0.1
379.522	0.14
379.729	0.11
379.936	0.08
380.143	0.07
380.35	0.1
380.557	0.09
380.763	0.12
380.97	0.07
381.177	0.1
381.384	0.1
381.591	0.03
381.797	0.1
382.004	0.12
382.211	0.13
382.418	0.06
382.624	0.13
382.831	0.15
383.038	0.06
383.244	0.1
383.451	0.11
383.658	0.11
383.864	0.04
384.071	0.05
384.277	0.15
384.484	0.04
384.69	0.11
384.897	0.05
385.103	0.08
385.31	0.09
385.516	0.01
385.723	0.08
385.929	0.07
386.136	0.09
386.342	0.09
386.549	0.06
386.755	0.12
386.961	0.11
387.168	0.08
387.374	0.12
387.58	0.13
387.787	0.09
387.993	0.1
388.199	0.06
388.406	0.06
388.612	0.1
388.818	0.06
389.024	0.06
389.231	0.07
389.437	0.17
389.643	0.13
389.849	0.06
390.055	0.09
390.261	0.07
390.467	0.11
390.674	0.1
390.88	0.1
391.086	0.1
391.292	0.03
391.498	0.14
391.704	0.12
391.91	0.06
392.116	0.08
392.322	0.03
392.528	0.12
392.734	0.07
392.94	0.09
393.146	0.09
393.352	0.05
393.557	0.12
393.763	0.07
393.969	0.09
394.175	0.07
394.381	0.12
394.587	0.06
394.792	0.08
394.998	0.1
395.204	0.16
395.41	0.05
395.615	0.14
395.821	0.11
396.027	0.13
396.233	0.07
396.438	0.11
396.644	0.09
396.85	0.16
397.055	0.1
397.261	0.08
397.466	0.21
397.672	0.09
397.878	0.11
398.083	0.12
398.289	0.1
398.494	0.12
398.7	0.09
398.905	0.03
399.111	0.17
399.316	0.08
399.522	0.1
399.727	0.09
399.932	0.07
400.138	0.07
400.343	0.17
400.549	0.13
400.754	0.13
400.959	0.11
401.165	0.1
401.37	0.12
401.575	0.13
401.78	0.14
401.986	0.12
402.191	0.1
402.396	0.12
402.601	0.13
402.807	0.13
403.012	0.15
403.217	0.14
403.422	0.09
403.627	0.07
403.832	0.08
404.037	0.11
404.243	0.19
404.448	0.14
404.653	0.1
404.858	0.08
405.063	0.13
405.268	0.06
405.473	0.08
405.678	0.1
405.883	0.24
406.088	0.13
406.293	0.09
406.498	0.06
406.703	0.15
406.907	0.11
407.112	0.05
407.317	0.13
407.522	0.12
407.727	0.07
407.932	0.14
408.136	0.16
408.341	0.13
408.546	0.16
408.751	0.12
408.956	0.12
409.16	0.09
409.365	0.13
409.57	0.09
409.774	0.12
409.979	0.16
410.184	0.13
410.388	0.07
410.593	0.14
410.798	0.09
411.002	0.13
411.207	0.1
411.411	0.13
411.616	0.07
411.82	0.08
412.025	0.13
412.229	0.12
412.434	0.19
412.638	0.06
412.843	0.09
413.047	0.14
413.252	0.09
413.456	0.09
413.66	0.14
413.865	0.06
414.069	0.21
414.273	0.08
414.478	0.06
414.682	0.09
414.886	0.14
415.091	0.08
415.295	0.01
415.499	0.13
415.703	0.12
415.908	0.11
416.112	0.03
416.316	0.13
416.52	0.11
416.724	0.05
416.929	0.08
417.133	0.18
417.337	0.08
417.541	0.1
417.745	0.08
417.949	0.15
418.153	0.1
418.357	0.04
418.561	0.2
418.765	0.09
418.969	0.24
419.173	0.15
419.377	0.09
419.581	0.17
419.785	0.12
419.989	0.1
420.193	0.11
420.397	0.14
420.601	0.15
420.804	0.2
421.008	0.11
421.212	0.13
421.416	0.18
421.62	0.08
421.823	0.15
422.027	0.18
422.231	0.14
422.435	0.16
422.638	0.13
422.842	0.17
423.046	0.13
423.249	0.18
423.453	0.16
423.657	0.14
423.86	0.14
424.064	0.12
424.268	0.18
424.471	0.11
424.675	0.18
424.878	0.2
425.082	0.13
425.285	0.19
425.489	0.13
425.692	0.16
425.896	0.12
426.099	0.15
426.303	0.11
426.506	0.05
426.71	0.18
426.913	0.15
427.116	0.2
427.32	0.19
427.523	0.1
427.726	0.23
427.93	0.13
428.133	0.13
428.336	0.13
428.54	0.07
428.743	0.14
428.946	0.2
429.149	0.11
429.353	0.15
429.556	0.12
429.759	0.15
429.962	0.13
430.165	0.16
430.368	0.1
430.571	0.13
430.775	0.15
430.978	0.13
431.181	0.17
431.384	0.12
431.587	0.12
431.79	0.12
431.993	0.08
432.196	0.1
432.399	0.15
432.602	0.22
432.805	0.14
433.008	0.16
433.211	0.07
433.414	0.15
433.616	0.19
433.819	0.16
434.022	0.06
434.225	0.26
434.428	0.16
434.631	0.21
434.833	0.1
435.036	0.16
435.239	0.19
435.442	0.16
435.645	0.1
435.847	0.15
436.05	0.21
436.253	0.21
436.455	0.11
436.658	0.15
436.861	0.18
437.063	0.13
437.266	0.16
437.468	0.18
437.671	0.27
437.874	0.15
438.076	0.13
438.279	0.06
438.481	0.15
438.684	0.13
438.886	0.22
439.089	0.09
439.291	0.17
439.494	0.14
439.696	0.11
439.899	0.19
440.101	0.22
440.303	0.05
440.506	0.21
440.708	0.18
440.91	0.24
441.113	0.09
441.315	0.24
441.517	0.13
441.72	0.24
441.922	0.13
442.124	0.15
442.326	0.2
442.529	0.24
442.731	0.14
442.933	0.25
443.135	0.11
443.337	0.15
443.539	0.12
443.742	0.12
443.944	0.15
444.146	0.11
444.348	0.15
444.55	0.11
444.752	0.13
444.954	0.08
445.156	0.16
445.358	0.17
445.56	0.22
445.762	0.17
445.964	0.18
446.166	0.17
446.368	0.15
446.57	0.25
446.772	0.06
446.974	0.13
447.175	0.14
447.377	0.16
447.579	0.11
447.781	0.09
447.983	0.23
448.184	0.16
448.386	0.23
448.588	0.07
448.79	0.17
448.991	0.12
449.193	0.18
449.395	0.16
449.597	0.19
449.798	0.16
450	0.21
450.202	0.16
450.403	0.13
450.605	0.25
450.806	0.19
451.008	0.08
451.21	0.19
451.411	0.16
451.613	0.19
451.814	0.21
452.016	0.23
452.217	0.19
452.419	0.2
452.62	0.15
452.821	0.17
453.023	0.28
453.224	0.23
453.426	0.18
453.627	0.2
453.828	0.19
454.03	0.12
454.231	0.19
454.432	0.18
454.634	0.26
454.835	0.17
455.036	0.17
455.238	0.26
455.439	0.26
455.64	0.12
455.841	0.16
456.042	0.26
456.244	0.23
456.445	0.19
456.646	0.09
456.847	0.17
457.048	0.23
457.249	0.26
457.45	0.4
457.651	0.15
457.852	0.25
458.054	0.2
458.255	0.21
458.456	0.23
458.657	0.2
458.858	0.18
459.058	0.21
459.259	0.23
459.46	0.21
459.661	0.19
459.862	0.33
460.063	0.19
460.264	0.27
460.465	0.11
460.666	0.28
460.866	0.2
461.067	0.21
461.268	0.18
461.469	0.21
461.67	0.19
461.87	0.24
462.071	0.19
462.272	0.15
462.473	0.23
462.673	0.28
462.874	0.19
463.075	0.22
463.275	0.15
463.476	0.27
463.676	0.26
463.877	0.24
464.078	0.22
464.278	0.31
464.479	0.23
464.679	0.22
464.88	0.23
465.08	0.31
465.281	0.28
465.481	0.24
465.682	0.26
465.882	0.32
466.083	0.3
466.283	0.24
466.483	0.25
466.684	0.16
466.884	0.22
467.085	0.23
467.285	0.26
467.485	0.23
467.686	0.25
467.886	0.24
468.086	0.25
468.286	0.29
468.487	0.26
468.687	0.23
468.887	0.25
469.087	0.33
469.287	0.28
469.488	0.23
469.688	0.28
469.888	0.33
470.088	0.34
470.288	0.33
470.488	0.32
470.688	0.24
470.888	0.28
471.088	0.26
471.288	0.37
471.488	0.32
471.688	0.34
471.888	0.29
472.088	0.38
472.288	0.34
472.488	0.32
472.688	0.34
472.888	0.35
473.088	0.34
473.288	0.38
473.488	0.36
473.688	0.45
473.887	0.4
474.087	0.37
474.287	0.39
474.487	0.34
474.687	0.43
474.886	0.37
475.086	0.41
475.286	0.46
475.486	0.43
475.685	0.44
475.885	0.38
476.085	0.43
476.284	0.47
476.484	0.46
476.684	0.51
476.883	0.54
477.083	0.48
477.282	0.46
477.482	0.55
477.681	0.55
477.881	0.48
478.08	0.51
478.28	0.49
478.479	0.55
478.679	0.57
478.878	0.53
479.078	0.53
479.277	0.55
479.477	0.53
479.676	0.57
479.875	0.57
480.075	0.52
480.274	0.63
480.473	0.64
480.673	0.62
480.872	0.7
481.071	0.63
481.271	0.72
481.47	0.67
481.669	0.68
481.868	0.68
482.067	0.7
482.267	0.68
482.466	0.69
482.665	0.71
482.864	0.73
483.063	0.73
483.262	0.84
483.461	0.9
483.661	0.9
483.86	0.86
484.059	0.88
484.258	0.91
484.457	0.9
484.656	0.9
484.855	0.99
485.054	0.85
485.253	0.95
485.452	0.98
485.651	1.04
485.849	1.06
486.048	1.03
486.247	1.01
486.446	1.09
486.645	1.07
486.844	1.08
487.043	1.1
487.241	1.2
487.44	1.19
487.639	1.23
487.838	1.24
488.037	1.29
488.235	1.34
488.434	1.34
488.633	1.24
488.831	1.4
489.03	1.44
489.229	1.39
489.427	1.44
489.626	1.53
489.825	1.6
490.023	1.58
490.222	1.54
490.42	1.59
490.619	1.69
490.817	1.69
491.016	1.7
491.214	1.75
491.413	1.81
491.611	1.77
491.81	1.82
492.008	1.86
492.207	1.93
492.405	1.97
492.604	1.94
492.802	1.99
493	2.08
493.199	2.13
493.397	2.2
493.595	2.24
493.794	2.2
493.992	2.35
494.19	2.34
494.388	2.43
494.587	2.37
494.785	2.42
494.983	2.44
495.181	2.55
495.379	2.63
495.578	2.7
495.776	2.7
495.974	2.71
496.172	2.79
496.37	2.95
496.568	2.98
496.766	3.01
496.964	3.08
497.162	3.17
497.36	3.2
497.558	3.28
497.756	3.3
497.954	3.36
498.152	3.5
498.35	3.6
498.548	3.56
498.746	3.59
498.944	3.71
499.142	3.71
499.34	3.88
499.538	3.99
499.736	3.94
499.933	4.06
500.131	4.09
500.329	4.3
500.527	4.37
500.725	4.51
500.922	4.57
501.12	4.62
501.318	4.78
501.516	4.78
501.713	4.91
501.911	4.98
502.109	4.99
502.306	5.18
502.504	5.08
502.701	5.29
502.899	5.46
503.097	5.65
503.294	5.53
503.492	5.86
503.689	5.9
503.887	5.91
504.084	6.07
504.282	6.14
504.479	6.15
504.677	6.44
504.874	6.49
505.072	6.42
505.269	6.77
505.466	6.88
505.664	6.99
505.861	6.93
506.059	7.21
506.256	7.25
506.453	7.43
506.651	7.62
506.848	7.72
507.045	7.78
507.242	7.83
507.44	8.01
507.637	8.19
507.834	8.18
508.031	8.52
508.229	8.43
508.426	8.44
508.623	8.77
508.82	8.95
509.017	8.99
509.214	8.99
509.411	9.34
509.608	9.31
509.805	9.62
510.003	9.62
510.2	9.76
510.397	10.02
510.594	9.96
510.791	10.24
510.988	10.28
511.184	10.29
511.381	10.13
511.578	10.58
511.775	10.87
511.972	10.81
512.169	10.97
512.366	11.02
512.563	11.36
512.76	11.49
512.956	11.58
513.153	11.55
513.35	11.5
513.547	11.52
513.744	11.88
513.94	11.96
514.137	12.14
514.334	12.14
514.53	12.26
514.727	12.7
514.924	12.45
515.12	12.55
515.317	12.59
515.514	12.55
515.71	12.55
515.907	13.03
516.103	13.13
516.3	12.89
516.497	13.2
516.693	13.16
516.89	13.24
517.086	13.35
517.283	13.42
517.479	13.12
517.676	13.63
517.872	13.56
518.068	13.65
518.265	13.57
518.461	13.42
518.658	13.8
518.854	13.66
519.05	13.86
519.247	13.93
519.443	13.7
519.639	14.01
519.836	13.77
520.032	13.71
520.228	13.91
520.424	13.72
520.621	13.85
520.817	13.92
521.013	13.71
521.209	14.1
521.405	13.94
521.601	13.91
521.798	13.71
521.994	13.61
522.19	13.58
522.386	13.68
522.582	13.75
522.778	13.76
522.974	13.52
523.17	13.49
523.366	13.35
523.562	13.34
523.758	13.34
523.954	13.03
524.15	13.27
524.346	13.19
524.542	13.14
524.738	12.87
524.934	13.16
525.129	12.96
525.325	12.73
525.521	12.64
525.717	12.94
525.913	12.57
526.109	12.44
526.304	12.59
526.5	12.34
526.696	12.29
526.892	12.09
527.087	12.39
527.283	12.1
527.479	11.9
527.674	11.6
527.87	11.77
528.066	11.57
528.261	11.49
528.457	11.27
528.653	11.42
528.848	11.25
529.044	11.29
529.239	10.94
529.435	10.84
529.63	10.75
529.826	10.58
530.021	10.45
530.217	10.59
530.412	10.34
530.608	10.27
530.803	10.14
530.999	9.87
531.194	9.93
531.389	9.92
531.585	9.9
531.78	9.84
531.975	9.57
532.171	9.58
532.366	9.44
532.561	9.41
532.757	9.29
532.952	9.31
533.147	8.92
533.342	8.98
533.538	8.76
533.733	8.84
533.928	8.39
534.123	8.55
534.318	8.51
534.513	8.3
534.709	8.39
534.904	8.21
535.099	8.21
535.294	8.08
535.489	8.06
535.684	7.87
535.879	7.8
536.074	7.73
536.269	7.68
536.464	7.62
536.659	7.45
536.854	7.36
537.049	7.41
537.244	7.24
537.439	7.18
537.634	7.09
537.828	7.05
538.023	6.94
538.218	6.86
538.413	6.72
538.608	6.72
538.803	6.59
538.997	6.53
539.192	6.5
539.387	6.41
539.582	6.3
539.776	6.23
539.971	6.24
540.166	6.2
540.36	6.04
540.555	6.07
540.75	6
540.944	5.92
541.139	5.87
541.334	5.76
541.528	5.7
541.723	5.66
541.917	5.62
542.112	5.45
542.306	5.34
542.501	5.35
542.695	5.35
542.89	5.21
543.084	5.21
543.279	5.15
543.473	5.13
543.668	5.06
543.862	4.9
544.056	4.89
544.251	4.9
544.445	4.9
544.64	4.8
544.834	4.58
545.028	4.53
545.222	4.58
545.417	4.65
545.611	4.55
545.805	4.45
546	4.27
546.194	4.33
546.388	4.31
546.582	4.23
546.776	4.17
546.97	4.15
547.165	4.08
547.359	4.02
547.553	3.97
547.747	3.95
547.941	3.93
548.135	3.78
548.329	3.81
548.523	3.77
548.717	3.66
548.911	3.6
549.105	3.58
549.299	3.56
549.493	3.54
549.687	3.46
549.881	3.47
550.075	3.36
550.269	3.27
550.463	3.33
550.657	3.23
550.85	3.22
551.044	3.14
551.238	3.16
551.432	3.02
551.626	3.07
551.82	3.02
552.013	2.92
552.207	2.96
552.401	2.94
552.594	2.8
552.788	2.82
552.982	2.77
553.176	2.71
553.369	2.75
553.563	2.7
553.756	2.6
553.95	2.6
554.144	2.58
554.337	2.55
554.531	2.48
554.724	2.49
554.918	2.47
555.111	2.41
555.305	2.36
555.498	2.4
555.692	2.34
555.885	2.28
556.079	2.26
556.272	2.19
556.466	2.19
556.659	2.15
556.852	2.11
557.046	2.07
557.239	2.04
557.432	2.02
557.626	2
557.819	2.05
558.012	2.01
558.206	1.96
558.399	1.92
558.592	1.92
558.785	1.83
558.979	1.84
559.172	1.84
559.365	1.8
559.558	1.74
559.751	1.72
559.944	1.75
560.138	1.66
560.331	1.7
560.524	1.64
560.717	1.64
560.91	1.61
561.103	1.58
561.296	1.55
561.489	1.55
561.682	1.55
561.875	1.53
562.068	1.55
562.261	1.46
562.454	1.5
562.647	1.42
562.84	1.44
563.032	1.38
563.225	1.39
563.418	1.37
563.611	1.38
563.804	1.34
563.997	1.3
564.19	1.22
564.382	1.29
564.575	1.28
564.768	1.25
564.961	1.23
565.153	1.19
565.346	1.22
565.539	1.22
565.731	1.16
565.924	1.2
566.117	1.18
566.309	1.15
566.502	1.11
566.695	1.08
566.887	1.12
567.08	1.07
567.272	1.06
567.465	1.03
567.657	1.02
567.85	1.03
568.042	1.03
568.235	1.06
568.427	0.97
568.62	1
568.812	0.96
569.005	0.95
569.197	0.89
569.389	0.93
569.582	0.9
569.774	0.93
569.966	0.86
570.159	0.8
570.351	0.87
570.543	0.84
570.736	0.86
570.928	0.8
571.12	0.8
571.312	0.8
571.505	0.75
571.697	0.82
571.889	0.72
572.081	0.77
572.273	0.76
572.465	0.8
572.658	0.74
572.85	0.75
573.042	0.72
573.234	0.7
573.426	0.73
573.618	0.67
573.81	0.71
574.002	0.68
574.194	0.71
574.386	0.62
574.578	0.57
574.77	0.63
574.962	0.63
575.154	0.58
575.346	0.6
575.538	0.62
575.729	0.59
575.921	0.56
576.113	0.61
576.305	0.63
576.497	0.55
576.689	0.55
576.88	0.51
577.072	0.59
577.264	0.55
577.456	0.56
577.647	0.5
577.839	0.54
578.031	0.56
578.223	0.47
578.414	0.46
578.606	0.52
578.798	0.5
578.989	0.48
579.181	0.5
579.372	0.48
579.564	0.45
579.755	0.48
579.947	0.47
580.139	0.48
580.33	0.37
580.522	0.45
580.713	0.35
580.905	0.43
581.096	0.45
581.287	0.4
581.479	0.42
581.67	0.42
581.862	0.39
582.053	0.39
582.244	0.36
582.436	0.41
582.627	0.4
582.818	0.37
583.01	0.36
583.201	0.39
583.392	0.38
583.583	0.38
583.775	0.37
583.966	0.33
584.157	0.36
584.348	0.34
584.54	0.3
584.731	0.36
584.922	0.32
585.113	0.3
585.304	0.33
585.495	0.38
585.686	0.36
585.877	0.34
586.068	0.3
586.259	0.31
586.45	0.3
586.641	0.28
586.832	0.28
587.023	0.32
587.214	0.33
587.405	0.32
587.596	0.25
587.787	0.31
587.978	0.31
588.169	0.26
588.36	0.25
588.551	0.28
588.742	0.24
588.932	0.3
589.123	0.24
589.314	0.28
589.505	0.26
589.696	0.28
589.886	0.23
590.077	0.22
590.268	0.26
590.458	0.2
590.649	0.21
590.84	0.29
591.03	0.2
591.221	0.18
591.412	0.22
591.602	0.27
591.793	0.25
591.984	0.19
592.174	0.22
592.365	0.31
592.555	0.19
592.746	0.26
592.936	0.27
593.127	0.23
593.317	0.26
593.508	0.2
593.698	0.2
593.889	0.23
594.079	0.21
594.269	0.19
594.46	0.22
594.65	0.2
594.84	0.2
595.031	0.16
595.221	0.2
595.411	0.15
595.602	0.22
595.792	0.19
595.982	0.18
596.172	0.24
596.363	0.19
596.553	0.18
596.743	0.19
596.933	0.2
597.123	0.21
597.314	0.16
597.504	0.17
597.694	0.21
597.884	0.2
598.074	0.18
598.264	0.14
598.454	0.17
598.644	0.16
598.834	0.16
599.024	0.12
599.214	0.16
599.404	0.18
599.594	0.18
599.784	0.17
599.974	0.19
600.164	0.16
600.354	0.12
600.544	0.12
600.734	0.15
600.924	0.18
601.114	0.13
601.303	0.15
601.493	0.14
601.683	0.14
601.873	0.14
602.063	0.13
602.252	0.19
602.442	0.09
602.632	0.12
602.821	0.11
603.011	0.15
603.201	0.11
603.39	0.11
603.58	0.13
603.77	0.15
603.959	0.19
604.149	0.12
604.339	0.11
604.528	0.15
604.718	0.17
604.907	0.13
605.097	0.11
605.286	0.07
605.476	0.17
605.665	0.14
605.855	0.12
606.044	0.18
606.234	0.14
606.423	0.12
606.612	0.09
606.802	0.12
606.991	0.14
607.181	0.15
607.37	0.09
607.559	0.11
607.749	0.1
607.938	0.11
608.127	0.11
608.316	0.1
608.506	0.1
608.695	0.12
608.884	0.07
609.073	0.11
609.263	0.13
609.452	0.15
609.641	0.13
609.83	0.1
610.019	0.12
610.208	0.08
610.397	0.12
610.586	0.16
610.775	0.11
610.965	0.1
611.154	0.09
611.343	0.12
611.532	0.1
611.721	0.08
611.91	0.08
612.099	0.12
612.287	0.1
612.476	0.07
612.665	0.11
612.854	0.09
613.043	0.16
613.232	0.08
613.421	0.08
613.61	0.12
613.798	0.07
613.987	0.14
614.176	0.1
614.365	0.14
614.554	0.14
614.742	0.13
614.931	0.07
615.12	0.11
615.309	0.08
615.497	0.13
615.686	0.08
615.875	0.09
616.063	0.11
616.252	0.1
616.44	0.08
616.629	0.11
616.818	0.14
617.006	0.1
617.195	0.09
617.383	0.11
617.572	0.1
617.76	0.11
617.949	0.08
618.137	0.11
618.326	0.09
618.514	0.06
618.703	0.07
618.891	0.15
619.079	0.03
619.268	0.12
619.456	0.07
619.644	0.15
619.833	0.11
620.021	0.07
620.209	0.07
620.398	0.1
620.586	0.08
620.774	0.12
620.962	0.09
621.151	0.17
621.339	0.1
621.527	0.05
621.715	0.06
621.903	0.06
622.092	0.05
622.28	0.1
622.468	0.08
622.656	0.09
622.844	0.13
623.032	0.08
623.22	0.06
623.408	0.12
623.596	0.11
623.784	0.11
623.972	0.07
624.16	0.1
624.348	0.12
624.536	0.04
624.724	0.08
624.912	0.14
625.1	0.1
625.288	0.06
625.476	0.06
625.664	0.13
625.851	0.05
626.039	0.09
626.227	0.11
626.415	0.07
626.603	0.04
626.79	0.09
626.978	0.04
627.166	0.1
627.354	0.1
627.541	0.09
627.729	0.04
627.917	0.09
628.104	0.11
628.292	0.1
628.48	0.04
628.667	0.1
628.855	0.1
629.042	0.1
629.23	0.06
629.418	0.07
629.605	0.08
629.793	0.06
629.98	0.07
630.168	0.07
630.355	0.07
630.543	0.11
630.73	0.09
630.917	0.12
631.105	0.11
631.292	0.04
631.48	0.07
631.667	0.17
631.854	0.08
632.042	0.08
632.229	0.03
632.416	0.09
632.604	0.08
632.791	0.05
632.978	0.1
633.165	0.12
633.353	0.14
633.54	0.1
633.727	0.01
633.914	0.06
634.101	0.03
634.289	0.12
634.476	0.04
634.663	0.02
634.85	0.09
635.037	0.02
635.224	0.01
635.411	0.11
635.598	0.11
635.785	0.08
635.972	0.09
636.159	0.09
636.346	0.06
636.533	0.05
636.72	0.04
636.907	0.06
637.094	0.09
637.281	0.07
637.468	0.08
637.655	0.08
637.842	0.06
638.029	0.04
638.215	0.08
638.402	0.08
638.589	0.05
638.776	0.06
638.963	0.03
639.149	0.12
639.336	0.11
639.523	0.1
639.709	0.07
639.896	0.06
640.083	0.11
640.27	0.1
640.456	0.06
640.643	0.08
640.829	0.01
641.016	0.05
641.203	0.04
641.389	0.12
641.576	0.11
641.762	0.08
641.949	0.02
642.135	0.08
642.322	0.09
642.508	0.03
642.695	0.05
642.881	0.08
643.068	0.09
643.254	0.05
643.441	0.09
643.627	0.07
643.813	0.02
644	0.09
644.186	0.05
644.372	0
644.559	0.09
644.745	0.07
644.931	0.03
645.118	0.07
645.304	0.09
645.49	0.05
645.676	0.06
645.862	0.07
646.049	0.15
646.235	0.05
646.421	0.17
646.607	0.11
646.793	0.06
646.979	0.03
647.165	0.12
647.352	0.07
647.538	0.09
647.724	0.08
647.91	0.06
648.096	0.12
648.282	0.12
648.468	0.08
648.654	0.07
648.84	0.06
649.026	0.09
649.212	0.08
649.397	0.04
649.583	0.01
649.769	0.09
649.955	0.09
650.141	0.07
650.327	0.12
650.513	0.06
650.698	0.08
650.884	-0.02
651.07	0.05
651.256	0.09
651.442	0.06
651.627	0.07
651.813	0.07
651.999	0.08
652.184	0.09
652.37	0.07
652.556	0.06
652.741	0.14
652.927	-0.03
653.113	0.03
653.298	0.08
653.484	0.07
653.669	0.01
653.855	0.07
654.04	0.1
654.226	0.04
654.412	0.06
654.597	0.04
654.782	0.06
654.968	0.09
655.153	0.09
655.339	0.04
655.524	0.01
655.71	0.09
655.895	0.05
656.08	0.08
656.266	0.1
656.451	0.04
656.636	0.02
656.822	0.07
657.007	0.06
657.192	0.04
657.378	0
657.563	0.07
657.748	0.08
657.933	0.07
658.118	0.06
658.304	0.06
658.489	0.08
658.674	0.08
658.859	0.05
659.044	0.08
659.229	0.08
659.414	0.04
659.599	0.05
659.785	0.01
659.97	0.07
660.155	0.06
660.34	0.08
660.525	0.05
660.71	0.03
660.895	0.08
661.08	0.05
661.264	0.06
661.449	0.12
661.634	0.14
661.819	0.07
662.004	0.11
662.189	0.01
662.374	0.07
662.559	0.05
662.743	0.01
662.928	0.08
663.113	0.03
663.298	0.03
663.483	0.07
663.667	0.1
663.852	0.04
664.037	0.1
664.221	0.03
664.406	0.1
664.591	0.05
664.775	0.07
664.96	0.02
665.145	0.09
665.329	0.1
665.514	0.06
665.698	0.08
665.883	0.02
666.068	0.13
666.252	0.08
666.437	0.04
666.621	0.04
666.806	0.08
666.99	0.1
667.174	0.04
667.359	0.15
667.543	0.04
667.728	0.1
667.912	0.01
668.096	0.13
668.281	0.07
668.465	0.07
668.649	0.08
668.834	0.06
669.018	0.06
669.202	0.07
669.387	0
669.571	0.12
669.755	0.05
669.939	0.06
670.124	0.09
670.308	0.13
670.492	0.08
670.676	0.09
670.86	0.04
671.044	0.02
671.228	0.1
671.413	0.04
671.597	0.06
671.781	0.06
671.965	0.12
672.149	0.06
672.333	0.07
672.517	0.09
672.701	0.1
672.885	0.06
673.069	0.04
673.253	0.18
673.437	0.07
673.621	0.08
673.804	0.08
673.988	0.09
674.172	0.11
674.356	0.04
674.54	0.08
674.724	0.16
674.908	0.07
675.091	0.11
675.275	0.06
675.459	0.13
675.643	0.12
675.826	0.06
676.01	0.1
676.194	0.08
676.377	0.16
676.561	0.12
676.745	0.12
676.928	0.15
677.112	0.15
677.296	0.07
677.479	0.06
677.663	0.09
677.846	0.1
678.03	0.06
678.213	0.11
678.397	0.1
678.58	0.09
678.764	0.08
678.947	0.04
679.131	0.05
679.314	0.17
679.498	0.08
679.681	0.1
679.865	0.21
680.048	0.08
680.231	0.09
680.415	0.06
680.598	0.1
680.781	0.1
680.965	0.09
681.148	0.13
681.331	0.09
681.514	0.09
681.698	0.07
681.881	0.11
682.064	0.08
682.247	0.08
682.43	-0
682.614	0.11
682.797	0.14
682.98	0.15
683.163	0.01
683.346	0.13
683.529	0.09
683.712	0.03
683.895	0.12
684.078	0.01
684.261	0.01
684.444	0.08
684.627	0.13
684.81	0.07
684.993	0.1
685.176	0.08
685.359	0.07
685.542	0.06
685.725	0.13
685.908	0.06
686.091	0.08
686.274	0.13
686.457	0.13
686.639	0.04
686.822	0.08
687.005	0.05
687.188	0.1
687.371	0.16
687.553	0.13
687.736	0.15
687.919	0.16
688.102	0.15
688.284	0.1
688.467	0.12
688.65	0.06
688.832	0.08
689.015	0.06
689.197	-0.01
689.38	0.17
689.563	0.18
689.745	0.02
689.928	0.06
690.11	0.1
690.293	0.14
690.475	0.03
690.658	0.09
690.84	0.09
691.023	0.03
691.205	0.05
691.388	0.04
691.57	0.13
691.752	0.13
691.935	0.02
692.117	0.05
692.3	0.11
692.482	0.05
692.664	0.08
692.847	0.08
693.029	0.16
693.211	0.11
693.393	0.05
693.576	0.06
693.758	0.08
693.94	0.08
694.122	0.06
694.304	0.09
694.487	0.08
694.669	0.21
694.851	0.03
695.033	0.06
695.215	0.04
695.397	0.03
695.579	0.1
695.761	0.05
695.943	-0.01
696.125	0.18
696.308	0.13
696.49	0.01
696.671	0.17
696.853	0.07
697.035	0.22
697.217	0.1
697.399	0.06
697.581	0.03
697.763	0.08
697.945	0.02
698.127	0.06
698.309	-0
698.491	0.08
698.672	0.14
698.854	0.11
699.036	0.17
699.218	0.11
699.399	0.12
699.581	0.13
699.763	0.07
699.945	0.01
700.126	0.02
700.308	0.09
700.49	0.07
700.671	0.02
700.853	0.01
701.035	0.03
701.216	0.08
701.398	0.01
701.579	0.05
701.761	0.13
701.943	0.05
702.124	0.06
702.306	0.06
702.487	0.24
702.669	0.09
702.85	0.1
703.031	0.07
703.213	0.13
703.394	0.16
703.576	0.1
703.757	0.13
703.938	0.15
704.12	0.21
704.301	0.11
704.483	0.09
704.664	0.14
704.845	0.17
705.026	0.12
705.208	0.08
705.389	0.13
705.57	0.09
705.751	0.09
705.933	0.06
706.114	0.16
706.295	0.08
706.476	0.03
706.657	0.19
706.838	0.14
707.02	0.16
707.201	0.03
707.382	0.09
707.563	0.13
707.744	0.06
707.925	0.01
708.106	-0
708.287	0.13
708.468	0.19
708.649	0.11
708.83	0.14
709.011	0.05
709.192	0.18
709.373	0.04
709.554	0.07
709.734	0.18
709.915	0.11
710.096	0.07
710.277	0.05
710.458	0.12
710.639	0.08
710.819	0.03
711	0.08
711.181	0.16
711.362	0.14
711.542	0.11
711.723	0.04
711.904	0.11
712.085	0.12
712.265	0.18
712.446	0.07
712.627	0.03
712.807	0.1
712.988	0.07
713.168	0.02
713.349	0.1
713.53	-0.03
713.71	0.07
713.891	0.01
714.071	0.05
714.252	0.04
714.432	0.05
714.613	0
714.793	0.15
714.974	0.16
715.154	0.22
715.334	0.2
715.515	0.22
715.695	0.01
715.876	0.14
716.056	0.07
716.236	0.05
716.417	0.07
716.597	0.04
716.777	0.2
716.957	0.06
717.138	0.1
717.318	0.1
717.498	0.02
717.678	0.12
717.859	0.11
718.039	0.01
718.219	0.06
718.399	0.13
718.579	0.01
718.759	0.05
718.939	0.05
719.12	0.13
719.3	0.07
719.48	-0.03
719.66	-0.01
719.84	0.23
720.02	0.07
720.2	0.09
720.38	0.11
720.56	0.2
720.74	0.01
720.92	0.14
721.1	0.2
721.279	0.21
721.459	0.05
721.639	-0.02
721.819	0.06
721.999	0.07
722.179	0.08
722.359	-0.04
722.538	0.09
722.718	0.09
722.898	0.09
723.078	0.11
723.257	0.05
723.437	0.14
723.617	0.05
723.797	0.1
723.976	0.04
724.156	0.13
724.336	0.18
724.515	0.16
724.695	-0.06
724.874	0.11
725.054	0.15
725.234	0.11
725.413	0.11
725.593	0.04
725.772	0.13
725.952	0.11
726.131	0.06
726.311	0.02
726.49	0.11
726.67	0.02
726.849	0.06
727.028	0.15
727.208	0.06
727.387	0.09
727.567	0.04
727.746	0.1
727.925	0.02
728.105	0.06
728.284	0.06
728.463	0.12
728.643	0.17
728.822	0.03
729.001	0.07
729.18	0.06
729.359	0.12
729.539	0.09
729.718	0.15
729.897	0.13
730.076	0.1
730.255	0.04
730.434	0.13
730.614	0.14
730.793	0.25
730.972	0.08
731.151	0.09
731.33	0.16
731.509	0.14
731.688	0.03
731.867	0.07
732.046	-0.05
732.225	0.35
732.404	0.01
732.583	-0
732.762	0.13
732.941	0.17
733.12	0.09
733.298	0.03
733.477	0.07
733.656	0.02
733.835	-0.02
734.014	0.22
734.193	0.11
734.371	0.14
734.55	0.05
734.729	0.05
734.908	0.14
735.086	0.14
735.265	0.11
735.444	-0.01
735.623	0.08
735.801	0.05
735.98	0.11
736.159	0.02
736.337	0.19
736.516	0.01
736.694	0.09
736.873	0.11
737.052	0.19
737.23	0.24
737.409	-0.01
737.587	0.22
737.766	-0.09
737.944	0.11
738.123	0.13
738.301	0.15
738.479	0.13
738.658	0.17
738.836	0
739.015	0.18
739.193	0.19
739.371	0
739.55	0.06
739.728	-0.01
739.906	0.25
740.085	0.23
740.263	0.17
740.441	0
740.62	0.32
740.798	0.17
740.976	-0.05
741.154	0.02
741.332	0.37
741.511	0.07
741.689	0.2
741.867	0.18
742.045	0.1
742.223	-0.11
742.401	-0
742.579	0
742.757	0.14
742.935	-0.09
743.114	0.11
743.292	0.03
743.47	0.06
743.648	0.17
743.826	0.1
744.004	0.19
744.181	0.15
744.359	0.05
744.537	0.11
744.715	0.12
744.893	0.12
745.071	-0.01
745.249	0.05
745.427	0.16
745.605	0.14
745.782	0.05
745.96	0.15
746.138	0.12
746.316	0.17
746.493	0.09
746.671	0.05
746.849	0.11
747.027	0.25
747.204	0.01
747.382	0.15
747.56	-0.13
747.737	0.06
747.915	0.03
748.093	0.17
748.27	0.03
748.448	-0.02
748.625	-0.02
748.803	-0.03
748.98	0.05
749.158	0.1
749.335	0.17
749.513	0.09
749.69	0.14
749.868	0.03
750.045	0.09
750.223	0.01
750.4	-0.12
750.578	0.26
750.755	0.07
750.932	-0.03
751.11	0.21
751.287	-0.07
751.464	0.17
751.642	-0.06
751.819	0.17
751.996	0.06
752.173	0.05
752.351	-0.04
752.528	0.2
752.705	0.13
752.882	-0
753.06	0.25
753.237	0.21
753.414	0.22
753.591	0.18
753.768	0.16
753.945	-0.01
754.122	0.01
754.299	0.22
754.476	-0.01
754.654	0.03
754.831	0.14
755.008	0.1
755.185	0.01
755.362	-0.07
755.539	0.11
755.716	0.01
755.892	0.06
756.069	0.09
756.246	0.02
756.423	0.15
756.6	0.27
756.777	0.03
756.954	0.08
757.131	0.17
757.307	0.06
757.484	-0.11
757.661	0.15
757.838	0.14
758.015	0.01
758.191	0.16
758.368	0.24
758.545	0.23
758.721	0.15
758.898	-0.12
759.075	0.11
759.251	0.1
759.428	0.07
759.605	0
759.781	0.05
759.958	0.13
760.134	0.21
760.311	0.02
760.488	0.22
760.664	0.21
760.841	0.07
761.017	0.13
761.194	0.15
761.37	0.28
761.547	0.19
761.723	0.09
761.899	0.18
762.076	0.06
762.252	-0.01
762.429	-0.01
762.605	0.15
762.781	0.08
762.958	0.18
763.134	0.14
763.31	0.02
763.486	0.27
763.663	-0.01
763.839	0.06
764.015	-0.24
764.191	0.08
764.368	0.03
764.544	-0.06
764.72	0.14
764.896	0.22
765.072	0.08
765.248	0.06
765.425	0
765.601	0.05
765.777	0.16
765.953	-0.13
766.129	-0.03
766.305	0.04
766.481	0.23
766.657	0.14
766.833	0.28
767.009	-0.01
767.185	0.04
767.361	0.08
767.537	0.04
767.713	0.23
767.889	0
768.065	0.03
768.24	0.09
768.416	0.21
768.592	-0.04
768.768	0.03
768.944	0.16
769.12	0.03
769.295	0.02
769.471	0.04
769.647	0.09
769.823	0.25
769.998	0.07
770.174	0.01
770.35	0.41
770.525	0.32
770.701	0.15
770.877	0.03
771.052	0.07
771.228	0.23
771.403	0.16
771.579	0.11
771.755	0.39
771.93	0.03
772.106	0.02
772.281	-0.06
772.457	0.09
772.632	0.11
772.808	-0.17
772.983	0.03
773.159	-0.12
773.334	0.31
773.509	0.11
773.685	-0.08
773.86	0.38
774.036	0.27
774.211	0.03
774.386	-0.03
774.562	0.07
774.737	0.19
774.912	-0.11
775.087	0.03
775.263	0.06
775.438	0.15
775.613	-0.12
775.788	0.07
775.964	0.16
776.139	0.42
776.314	-0.1
776.489	0.1
776.664	0.14
776.839	-0.01
777.014	0.27
777.19	0.12
777.365	0.27
777.54	0.23
777.715	0.05
777.89	0.06
778.065	0.03
778.24	0.12
778.415	0.25
778.59	-0.04
778.765	-0.11
778.94	0.01
779.115	0.06
779.289	-0.09
779.464	-0.11
779.639	0.1
779.814	-0.11
779.989	-0.01
780.164	0.32
780.339	0.1
780.513	-0.06
780.688	0.09
780.863	0.01
781.038	0.2
781.212	-0.15
781.387	0.11
781.562	0.37
781.737	0.08
781.911	0.33
782.086	-0.01
782.261	0.04
782.435	0.28
782.61	-0.02
782.784	0.14
782.959	0.24
783.134	0.12
783.308	-0.09
783.483	-0.1
783.657	0.38
783.832	0.29
784.006	-0.11
784.181	0.09
784.355	0.42
784.53	-0.09
784.704	0.04
784.878	0.34
785.053	0.18
785.227	0.38
785.402	0.49
785.576	0.06
785.75	0.2
785.925	0.03
786.099	0.02
786.273	0.29
786.448	0.3
786.622	0.29
786.796	0.14
786.97	0.01
787.145	0.48
787.319	-0.28
787.493	0.03
787.667	-0.23
787.841	0.17
788.015	0.41
788.19	0.05
788.364	0.02
788.538	0.21
788.712	0.19
788.886	0.12
789.06	0.34
789.234	0.27
789.408	-0.24
789.582	0.16
789.756	-0.01
789.93	-0.12
790.104	0.15
790.278	0.03
790.452	-0.21
790.626	0.31
790.8	-0.09
790.973	0.13
791.147	0.29
791.321	0.54
791.495	0.26
791.669	0.14
791.843	0.18
792.016	0.05
792.19	0.54
792.364	-0.29
792.538	0.41
792.711	0.45
792.885	0.03
793.059	-0.17
793.233	-0.33
793.406	0.26
793.58	0.11
793.754	0.25
793.927	0.07
794.101	0.28
794.274	0.01
794.448	0.24
794.622	-0.11
794.795	0.69
794.969	-0.22
795.142	0.64
795.316	0.15
795.489	-0.27
795.663	0.45
795.836	-0.09
796.009	-0.11
796.183	0.28
796.356	0.17
796.53	0.12
796.703	0.09
796.876	0.58
797.05	0.21
797.223	-0.03
797.396	0.33
797.57	0.09
797.743	0.48
797.916	0.08
798.09	0.41
798.263	0.21
798.436	0.19
798.609	0.12
798.782	0.12
798.956	0.2
799.129	0.25
799.302	0.03
799.475	0.01
799.648	-0.11
799.821	0.04
799.994	0.03
800.167	-0.22
800.34	-0.04
800.514	0.23
800.687	-0.09
800.86	0.02
801.033	0.07
801.206	0.1
801.379	-0.38
801.551	0.42
801.724	0.22
801.897	0.45
802.07	0.07
802.243	-0.81
802.416	-0.02
802.589	0.22
802.762	0.36
802.935	0.16
803.107	0.74
803.28	0.38
803.453	0.34
803.626	-0.06
803.798	0.19
803.971	0.06
804.144	0.35
804.317	0.18
804.489	0.43
804.662	-0.07
804.835	0.13
805.007	-0.1
805.18	0.42
805.353	0.22
805.525	0.08
805.698	-0.14
805.87	0.3
806.043	0.33
806.215	-0.07
806.388	-0.01
806.56	0.55
806.733	0.43
806.905	-0.09
807.078	-0.03
807.25	-0
807.423	0.07
807.595	0.27
807.768	-0.02
807.94	0.58
808.112	0.21
808.285	0.36
808.457	-0.26
808.629	0.29
808.802	0.3
808.974	0.47
809.146	0.05
809.318	-0.19
809.491	0.34
809.663	0.2
809.835	0.02
810.007	-0.11
810.18	0.21
810.352	-0.32
810.524	-0.17
810.696	0.31
810.868	0.57
811.04	-0.04
811.212	0.19
811.384	0.42
811.556	0.3
811.728	-0.05
811.901	0.75
812.073	0.13
812.245	0.42
812.417	-0
812.589	-0.35
812.76	0.17
812.932	0.54
813.104	0.47
813.276	-0.07
813.448	0.38
813.62	0.13
813.792	0.54
813.964	0.07
814.136	0.4
814.307	0.34
814.479	-0.29
814.651	0.21
814.823	1.12
814.995	-0.01
815.166	0.27
815.338	-0.44
815.51	-0.12
815.681	1.17
815.853	0.24
816.025	0.2
816.196	0.64
816.368	0.3
816.54	-0.26
816.711	-0.48
816.883	0.46
817.054	1.31
817.226	-0.46
817.398	0.22
817.569	-0.33
817.741	0.14
817.912	0.43
818.084	0.31
818.255	0.9
818.426	-0.16
818.598	0.45
818.769	0.04
818.941	0.33
819.112	0.88
819.283	0.15
819.455	0.16
819.626	0.07
819.798	0.24
819.969	0.18
820.14	-0.07
820.311	-0.15
820.483	0.17
820.654	0.54
820.825	0.09
820.996	-0.03
821.168	-0.03
821.339	0.29
821.51	-0.19
821.681	-0.05
821.852	0.35
822.023	-0.54
822.195	-0.83
822.366	0.82
822.537	0.34
822.708	0.25
822.879	0.15
823.05	0.71
823.221	-0.24
823.392	-0.09
823.563	0.57
823.734	0.34
823.905	-0.02
824.076	-0.25
824.247	-0.35
824.418	-0.28
824.589	0.41
824.759	0.67
824.93	0.26
825.101	-0.01
825.272	0.6
825.443	0.79
825.614	0.41
825.784	-0.77
825.955	0.8
826.126	0.67
826.297	0.15
826.467	0.15
826.638	0.73
826.809	-0.56
826.98	0.44
827.15	0.92
827.321	0.31
827.492	1.42
827.662	0.23
827.833	1
828.003	0.76
828.174	-0.46
828.345	-0.56
828.515	1.47
828.686	0.44
828.856	-0.11
829.027	0.54
829.197	-0.16
829.368	0.76
829.538	-0.37
829.709	0.01
829.879	0.25
830.049	0.02
830.22	0.66
830.39	0.56
830.56	0.49
830.731	-0.29
830.901	-0.43
831.072	0.25
831.242	0.3
831.412	0.39
831.582	0.04
831.753	-0.48
831.923	0.57
832.093	0.62
832.263	0.52
832.434	0.37
832.604	-0.31
832.774	0.42
832.944	-0.25
833.114	-0.32
833.284	0.74
833.454	-0.41
833.624	-0.25
833.795	-0.28
833.965	0.73
834.135	0.16
834.305	-0.5
834.475	-0.42
834.645	0.29
834.815	-0.97
834.985	-0.03
835.155	-0.33
835.325	0.4
835.494	0.52
835.664	0.13
835.834	-0.37
836.004	0.11
836.174	0.22
836.344	-0.2
836.514	-0.69
836.684	0.4
836.853	0.71
837.023	-0.46
837.193	-0.16
837.363	1.03
837.532	0.83
837.702	-0.35
837.872	-0.52
838.041	0.82
838.211	1.63
838.381	-0.27
838.55	-0.16
838.72	2.26
838.89	1.27
839.059	0.4
839.229	-0.37
839.398	1.58
839.568	1.2
839.738	-0.4
839.907	1.21
840.077	0.62
840.246	-0.28
840.416	-1.24
840.585	-0.46
840.755	1.26
840.924	1.57
841.093	-0.62
841.263	0.31
841.432	-0.46
841.602	-0.01
841.771	-0.62
841.94	0.14
842.11	1.98
842.279	1.62
842.448	-0.29
842.617	-0.49
842.787	1.16
842.956	-0.67
843.125	0.53
843.294	0.19
843.464	1
843.633	0.25
843.802	-0.84
843.971	0.8
844.14	0.17
844.309	0.69
844.479	-0.06
844.648	-0.34
844.817	0.19
844.986	0.2
845.155	0.52
845.324	-0.22
845.493	0.29
845.662	0.06
845.831	0.62
846	0.63
846.169	0.22
846.338	1.66
846.507	0.6
846.676	0.88
846.844	0.07
847.013	1.31
847.182	0.57
847.351	-0.08
847.52	0.38
847.689	0.47
847.858	0.48
848.026	-0.11
848.195	0.38
848.364	-0.34
848.533	-0.09
848.701	0.11
848.87	0.28
849.039	1.59
849.207	1.62
849.376	0.98
849.545	1.87
849.713	-0.09
849.882	-0.28
850.051	-0.24
850.219	0.82
850.388	0.73
850.556	-0.04
850.725	0.3
850.893	0.29
851.062	0.22
851.23	0.94
851.399	-1.79
851.567	-0.33
851.736	-0.17
851.904	-0.7
852.073	-0.5
852.241	0.46
852.41	0.74
852.578	-0.72
852.746	-0.29
852.915	1.51
853.083	-0.1
853.251	-0.05
853.42	0.45
853.588	0.32
853.756	1.61
853.924	-0.02
854.093	-0.53
854.261	-0.12
854.429	-0.98
854.597	0.34
854.765	-1.02
854.934	0.25
855.102	1.46
855.27	0.36
855.438	1.08
855.606	1.5
855.774	2.28
855.942	-1.5
856.11	-1.8
856.278	1.38
856.446	1.37
856.614	-0.18
856.782	0.43
856.95	0.81
857.118	0.95
857.286	0.85
857.454	-0.75
857.622	0.53
857.79	0.89
857.958	-0.84
858.126	0.03
858.294	-2.24
858.462	0.55
858.629	-0.28
858.797	-0.59
858.965	0.13
859.133	0.91
859.301	-0.07
859.468	1
859.636	0.08
859.804	1.23
859.971	0.02
860.139	0.27
860.307	1.28
860.474	0.35
860.642	-1.33
860.81	-0.67
860.977	0.7
861.145	1.63
861.313	-0.41
861.48	-0.03
861.648	0.89
861.815	0.01
861.983	-1.02
862.15	-0.19
862.318	0.74
862.485	1.35
862.653	-1.05
862.82	-0.36
862.988	1.8
863.155	0.43
863.322	0.54
863.49	0.04
863.657	-0.32
863.824	1.92
863.992	-0.06
864.159	2.02
864.326	1.56
864.494	1.74
864.661	1.61
864.828	-1.64
864.996	1.4
865.163	2.31
865.33	-0.56
865.497	-1.73
865.664	0.73
865.832	-2.3
865.999	-0.79
866.166	-0.17
866.333	0.21
866.5	0.3
866.667	0.4
866.834	0.34
867.001	1.97
867.168	-1.31
867.335	1.04
867.502	-0.4
867.669	1.57
867.836	3.11
868.003	-1.19
868.17	1.92
868.337	-1.29
868.504	2.56
868.671	-0.5
868.838	-0.43
869.005	0.65
869.172	0.25
869.339	-0.94
869.505	0.08
869.672	-0.6
869.839	3.07
870.006	0.03
870.173	-1.22
870.339	0.55
870.506	2.84
870.673	-1.47
870.84	1.39
871.006	2.82
871.173	0.06
871.34	1.13
871.506	-0.44
871.673	0.84
871.839	-0.53
872.006	1.39
872.173	-0.38
872.339	1.83
872.506	1.5
872.672	-0.09
872.839	-0
873.005	0.78
873.172	3.96
873.338	1.11
873.505	0.23
873.671	0.67
873.838	1.22
874.004	-1.58
874.171	-0.05
874.337	0.9
874.503	2.51
874.67	0.15
874.836	-0.31
875.002	2.94
875.169	1.07
875.335	0.33
875.501	-0.21
875.668	0.33
875.834	-0.11
876	1.06
876.166	1.2
876.332	1.38
876.499	2.88
876.665	0.85
876.831	-1.17
876.997	2.67
877.163	0.51
877.329	-0.53
877.495	0.36
877.662	2.19
877.828	0.36
877.994	0.18
878.16	-0.74
878.326	-1.06
878.492	-0.11
878.658	0.2
878.824	0.81
878.99	2.23
879.156	0.28
879.322	2.87
879.487	1.79
879.653	1.25
879.819	0.61
879.985	-0.19
880.151	1.17
880.317	3.12
880.483	0.59
880.648	2.22
880.814	-1.53
880.98	0.15
881.146	-2.61
881.312	0.35
881.477	-1.09
881.643	-1.22
881.809	0.77
881.974	1.69
882.14	-1.19
882.306	-0.49
882.471	3.05
882.637	-0.74
882.803	2.6
882.968	4.2
883.134	3.23
883.299	-0.02
883.465	-0.41
883.63	0.24
883.796	0.84
883.961	2.8
884.127	0.46
884.292	-2.69
884.458	-1.11
884.623	-1.11
