Data from Apollo_Calib_20240827__AbsoluteIrradiance__605__09-14-00-181.txt Node

Date: Wed Aug 28 09:14:00 BST 2024
User: biology
Spectrometer: FLMT08252
Trigger mode: 0
Integration Time (sec): 5.000000E-1
Scans to average: 5
Electric dark correction enabled: true
Nonlinearity correction enabled: false
Boxcar width: 0
XAxis mode: Wavelengths
Number of Pixels in Spectrum: 3648
>>>>>Begin Spectral Data<<<<<
179.588	-0
179.809	-0
180.03	-0
180.251	-0
180.473	-0
180.694	0
180.915	0
181.136	-0
181.357	0
181.578	-0
181.799	-0
182.02	-0
182.241	-0
182.462	-0
182.683	0
182.904	-0
183.125	0
183.346	-0
183.567	0
183.788	0
184.009	-0
184.23	0
184.451	0
184.672	-0
184.892	-0
185.113	0
185.334	0
185.555	0
185.776	0
185.996	0
186.217	0
186.438	0
186.659	0
186.879	0
187.1	0
187.321	0
187.541	0
187.762	0
187.983	0
188.203	0
188.424	0
188.644	0
188.865	0
189.086	0
189.306	0
189.527	0
189.747	0
189.968	0
190.188	0
190.409	0
190.629	0
190.849	0
191.07	0
191.29	0
191.511	0
191.731	0
191.951	0
192.172	0
192.392	0
192.612	0
192.833	0
193.053	0
193.273	0
193.493	0
193.714	0
193.934	0
194.154	0
194.374	0
194.594	0
194.815	0
195.035	0
195.255	0
195.475	0
195.695	0
195.915	0
196.135	0
196.355	0
196.575	0
196.795	0
197.015	-0
197.235	0
197.455	0
197.675	0
197.895	0
198.115	0
198.335	0
198.555	0
198.775	0
198.995	0
199.214	0
199.434	0
199.654	0
199.874	0
200.094	1.69
200.313	1.01
200.533	0.29
200.753	-0.09
200.973	1.65
201.192	1.13
201.412	-0.09
201.632	0.86
201.851	1.96
202.071	0.94
202.291	-0.05
202.51	-0.05
202.73	1.04
202.95	0.62
203.169	0.12
203.389	0.53
203.608	0.87
203.828	0.17
204.047	0.02
204.267	1.19
204.486	0.91
204.706	0.91
204.925	0.14
205.145	0.42
205.364	1.05
205.583	1.15
205.803	0.59
206.022	0.18
206.242	0.65
206.461	0.85
206.68	0.39
206.9	0.73
207.119	0.91
207.338	1.14
207.557	0.32
207.777	0.21
207.996	0.46
208.215	0.77
208.434	0.13
208.654	0.15
208.873	0.56
209.092	1.02
209.311	0.64
209.53	0.24
209.749	0.34
209.968	0.28
210.187	0.49
210.407	-0.02
210.626	0.48
210.845	0.63
211.064	0.55
211.283	0.02
211.502	0.68
211.721	0.38
211.94	0.34
212.159	0.63
212.377	0.39
212.596	0.73
212.815	0.16
213.034	0.61
213.253	0.4
213.472	0.55
213.691	0.44
213.91	0.17
214.128	0.1
214.347	0.6
214.566	-0.03
214.785	0.04
215.003	0.46
215.222	0.28
215.441	0.26
215.66	0.09
215.878	0.52
216.097	0.64
216.316	-0.05
216.534	0.31
216.753	0.41
216.972	0.24
217.19	0.33
217.409	0.16
217.627	0.26
217.846	0.24
218.064	0.41
218.283	0.14
218.501	0.73
218.72	0.57
218.938	0.09
219.157	0.11
219.375	0.35
219.594	0.42
219.812	0.14
220.031	0.07
220.249	0.58
220.467	0.51
220.686	0.33
220.904	0.1
221.122	0.1
221.341	0.45
221.559	0.27
221.777	0.21
221.995	0.38
222.214	0.37
222.432	0.18
222.65	0.43
222.868	0.43
223.086	0.34
223.305	0.34
223.523	0.18
223.741	0.56
223.959	0.03
224.177	0
224.395	0.27
224.613	0.34
224.831	0.38
225.049	0.09
225.267	0.23
225.485	0.26
225.703	0.21
225.921	0.24
226.139	0.24
226.357	0.4
226.575	0.18
226.793	0.09
227.011	0.83
227.229	0.2
227.447	0.35
227.665	0.07
227.883	-0.05
228.1	0.15
228.318	0.38
228.536	0.01
228.754	0.1
228.972	0.26
229.189	0.44
229.407	0.04
229.625	0.12
229.843	0.42
230.06	0.32
230.278	0.09
230.496	0.31
230.713	0.23
230.931	0.32
231.149	0.09
231.366	0.01
231.584	0.17
231.801	0.57
232.019	0.29
232.236	0.06
232.454	0.03
232.671	0.27
232.889	0.18
233.106	-0.03
233.324	0.09
233.541	0.09
233.759	0.16
233.976	0.09
234.194	0.26
234.411	0.23
234.628	0.13
234.846	0.05
235.063	0.17
235.28	0.12
235.498	0.21
235.715	0.13
235.932	0.32
236.149	0.15
236.367	-0.09
236.584	0.15
236.801	0.14
237.018	0.26
237.236	0.18
237.453	0.02
237.67	0.34
237.887	0.06
238.104	0.14
238.321	0.09
238.538	0.07
238.755	0.26
238.973	0.04
239.19	0.11
239.407	0.18
239.624	0.09
239.841	-0.03
240.058	0.13
240.275	0.1
240.492	0.06
240.709	0.12
240.925	0.07
241.142	0.17
241.359	0.05
241.576	0.06
241.793	0.01
242.01	0.21
242.227	0.23
242.444	0.21
242.66	0.22
242.877	0.13
243.094	0.11
243.311	0.23
243.527	0.08
243.744	0.09
243.961	0.14
244.178	0.01
244.394	0.2
244.611	0.21
244.828	0.25
245.044	0.01
245.261	0.14
245.477	0.13
245.694	0.2
245.911	0.11
246.127	0.17
246.344	0.35
246.56	0.19
246.777	0.05
246.993	0.08
247.21	0.17
247.426	0.22
247.643	0.15
247.859	-0.01
248.076	0.07
248.292	0.33
248.508	0.06
248.725	0.14
248.941	0.23
249.157	0.25
249.374	0.15
249.59	0.09
249.806	0.13
250.023	0.19
250.239	0.04
250.455	0.06
250.671	0.18
250.888	0.15
251.104	0.14
251.32	0.07
251.536	0.09
251.752	0.13
251.969	0.08
252.185	0.14
252.401	0.26
252.617	0.16
252.833	0.04
253.049	0.03
253.265	0.2
253.481	0.16
253.697	0.05
253.913	0.07
254.129	0.19
254.345	0.21
254.561	0.13
254.777	0.16
254.993	0.17
255.209	0.17
255.425	0.06
255.641	0.07
255.857	0.16
256.073	0.11
256.288	0.03
256.504	0.08
256.72	0.18
256.936	0.24
257.152	0.11
257.367	0.02
257.583	0.04
257.799	0.13
258.015	0.06
258.23	0.08
258.446	0.25
258.662	0.03
258.877	0.11
259.093	0.11
259.309	0.08
259.524	0.16
259.74	0.1
259.955	0.03
260.171	0.08
260.387	0.11
260.602	0.22
260.818	0.09
261.033	0.01
261.249	0.12
261.464	0.05
261.68	0.02
261.895	0.06
262.11	0.2
262.326	0.15
262.541	0.03
262.757	0.19
262.972	0.13
263.187	0.08
263.403	0.11
263.618	0.2
263.833	0.12
264.049	0.12
264.264	0.1
264.479	0.16
264.694	0.21
264.91	0.03
265.125	0.12
265.34	0.22
265.555	0.32
265.77	0.15
265.986	0.07
266.201	0.15
266.416	0.19
266.631	0.09
266.846	0.11
267.061	0.2
267.276	0.2
267.491	-0.04
267.706	0.15
267.921	0.17
268.136	0.18
268.351	0.14
268.566	0.01
268.781	0.23
268.996	0.1
269.211	0.1
269.426	0.1
269.641	0.14
269.856	0.18
270.071	-0.01
270.285	-0.02
270.5	0.17
270.715	0.11
270.93	0.08
271.145	0.14
271.359	0.16
271.574	0.05
271.789	0.08
272.004	0.05
272.218	0.1
272.433	0.12
272.648	0.04
272.862	0.19
273.077	0.13
273.292	0.11
273.506	0.06
273.721	0.05
273.936	0.14
274.15	0.09
274.365	0.03
274.579	0.16
274.794	0.11
275.008	0.19
275.223	0.06
275.437	0.08
275.652	0.16
275.866	0.08
276.081	0.09
276.295	0.18
276.509	0.13
276.724	0.08
276.938	0.1
277.153	0.11
277.367	0.14
277.581	0.02
277.796	0.06
278.01	0.01
278.224	0.14
278.438	0.23
278.653	-0.01
278.867	0.07
279.081	-0.1
279.295	0.13
279.51	0.11
279.724	0.03
279.938	0.13
280.152	0.1
280.366	0.08
280.58	0.16
280.794	0.18
281.008	0.13
281.222	0.16
281.437	0.22
281.651	0.08
281.865	0.19
282.079	0.08
282.293	-0.03
282.507	0.02
282.721	0.08
282.935	0.07
283.148	0.06
283.362	0.05
283.576	0.01
283.79	0.14
284.004	0.04
284.218	0.2
284.432	0.08
284.646	0.06
284.859	0.04
285.073	0.04
285.287	0.07
285.501	0.05
285.714	0.09
285.928	0.11
286.142	0.06
286.356	-0
286.569	0.04
286.783	0.16
286.997	0.16
287.21	0.15
287.424	0.13
287.637	0.1
287.851	0.09
288.065	0.11
288.278	0.05
288.492	0.09
288.705	0.09
288.919	0.13
289.132	0
289.346	0.14
289.559	-0.01
289.773	-0
289.986	0.06
290.2	0.06
290.413	0.1
290.626	0.07
290.84	0.09
291.053	0.05
291.267	0.15
291.48	0.08
291.693	0.12
291.906	0.06
292.12	0.04
292.333	0.04
292.546	0.05
292.76	0.17
292.973	0.09
293.186	0.09
293.399	0.04
293.612	0.12
293.826	0.08
294.039	0.05
294.252	0.07
294.465	0.13
294.678	0.15
294.891	0.1
295.104	0.03
295.317	0.06
295.53	0.12
295.743	0.1
295.956	0.04
296.169	0.16
296.382	0.13
296.595	0.04
296.808	0.04
297.021	0.15
297.234	0.13
297.447	0.06
297.66	0.14
297.873	0.13
298.086	0.08
298.299	0
298.511	0.04
298.724	0.08
298.937	0.06
299.15	0.03
299.363	0.05
299.575	0.13
299.788	0.1
300.001	0.04
300.213	0.08
300.426	0.08
300.639	0.02
300.852	0.03
301.064	0.12
301.277	0.12
301.489	0.08
301.702	0.1
301.915	0.08
302.127	0.07
302.34	0.12
302.552	0.08
302.765	0.07
302.977	0.09
303.19	0.02
303.402	0.06
303.615	0.05
303.827	0.05
304.04	0.08
304.252	0.08
304.464	0.08
304.677	0.12
304.889	0.05
305.102	0.01
305.314	0.06
305.526	0.1
305.739	0.1
305.951	0.04
306.163	0.07
306.375	0.14
306.588	0.03
306.8	0.05
307.012	0.01
307.224	0.05
307.436	0.16
307.649	-0
307.861	0.11
308.073	0.08
308.285	0.04
308.497	0.02
308.709	0.02
308.921	0.07
309.133	0.13
309.346	0.06
309.558	0.09
309.77	0.08
309.982	0.14
310.194	0.12
310.406	0.01
310.617	0.13
310.829	0.07
311.041	0.06
311.253	0.06
311.465	0.05
311.677	0.06
311.889	0.06
312.101	0.03
312.313	0.16
312.524	0.1
312.736	0.01
312.948	0.07
313.16	0.13
313.372	0.1
313.583	0.1
313.795	0.09
314.007	0.03
314.218	0.07
314.43	0.07
314.642	0.06
314.853	-0.02
315.065	0.11
315.277	0.05
315.488	0.12
315.7	0.11
315.912	0.05
316.123	0.08
316.335	0.06
316.546	0.15
316.758	0.07
316.969	0.05
317.181	0.06
317.392	0.05
317.604	0.12
317.815	0.02
318.026	0.04
318.238	0.06
318.449	0.09
318.661	0.05
318.872	-0.01
319.083	0.02
319.295	0.11
319.506	0.04
319.717	0.09
319.929	0.14
320.14	0.1
320.351	0.08
320.562	0.03
320.774	0.09
320.985	0.06
321.196	0.08
321.407	-0
321.618	0.08
321.829	0.09
322.041	0.15
322.252	0.05
322.463	0.08
322.674	0.12
322.885	0.02
323.096	0.08
323.307	0.05
323.518	0.1
323.729	0.04
323.94	0.06
324.151	0.04
324.362	0.08
324.573	0.1
324.784	0.05
324.995	0.07
325.206	0.08
325.417	0.05
325.628	0.1
325.838	0.07
326.049	0.07
326.26	0.14
326.471	0.06
326.682	0.07
326.892	0.08
327.103	0.03
327.314	0.01
327.525	0.13
327.735	0.08
327.946	0.11
328.157	0.03
328.368	0.09
328.578	0.08
328.789	0.09
328.999	0.09
329.21	0.06
329.421	0.06
329.631	0.05
329.842	0.01
330.052	0.08
330.263	0.12
330.473	0.11
330.684	0.05
330.894	0.06
331.105	0.11
331.315	0.09
331.526	0.03
331.736	0.11
331.947	0.11
332.157	0.05
332.367	0.02
332.578	0.06
332.788	0.12
332.999	0.12
333.209	0.07
333.419	0
333.629	0.1
333.84	0.09
334.05	0.05
334.26	0.13
334.47	0.11
334.681	0.1
334.891	0.07
335.101	0.12
335.311	0.14
335.521	0.07
335.732	0.07
335.942	0.12
336.152	0.08
336.362	0.1
336.572	0.08
336.782	0.11
336.992	0.05
337.202	0.05
337.412	0.04
337.622	0.07
337.832	0.05
338.042	0.06
338.252	0.05
338.462	0.04
338.672	0.08
338.882	0.1
339.092	0.09
339.302	0.17
339.511	0.07
339.721	0.04
339.931	0.01
340.141	0.12
340.351	0.11
340.561	0.1
340.77	0.07
340.98	0.05
341.19	0.09
341.4	0.08
341.609	-0.03
341.819	0.07
342.029	0
342.238	0.06
342.448	-0
342.658	0.1
342.867	0.08
343.077	0.05
343.286	0.03
343.496	0.05
343.706	0.13
343.915	-0.01
344.125	0.06
344.334	0.1
344.544	-0
344.753	0.07
344.963	0.03
345.172	0.07
345.381	0.05
345.591	0.04
345.8	0.05
346.01	0.14
346.219	0.1
346.428	-0.06
346.638	0.04
346.847	0.06
347.056	0.09
347.266	0.04
347.475	0.08
347.684	0.06
347.893	0.12
348.103	0.08
348.312	0.05
348.521	0.05
348.73	0.09
348.94	0.09
349.149	0.05
349.358	0.06
349.567	0.06
349.776	0.01
349.985	0.03
350.194	0.11
350.403	0.13
350.612	0.04
350.821	0.07
351.03	0.05
351.239	-0.02
351.448	0.07
351.657	0.06
351.866	0.15
352.075	0.08
352.284	0.08
352.493	0.03
352.702	0.13
352.911	0.07
353.12	0.06
353.329	0.06
353.538	0.08
353.746	0.06
353.955	0.06
354.164	0.11
354.373	0.01
354.582	0.12
354.79	0.03
354.999	0.09
355.208	0.05
355.416	0.13
355.625	0.03
355.834	0.03
356.042	0.06
356.251	0.05
356.46	0.04
356.668	0.08
356.877	0.15
357.085	0.08
357.294	-0.04
357.503	0.12
357.711	0.02
357.92	0.14
358.128	0.11
358.337	0.05
358.545	0.05
358.754	0.04
358.962	0.11
359.17	0.04
359.379	0.06
359.587	0.09
359.796	0.06
360.004	0.09
360.212	0.09
360.421	0.11
360.629	0.07
360.837	0.06
361.046	0.1
361.254	0.16
361.462	0.07
361.67	0.07
361.879	0.05
362.087	0.14
362.295	0.08
362.503	0.07
362.711	0.01
362.92	0.05
363.128	0.05
363.336	0.04
363.544	0.02
363.752	0.05
363.96	0.06
364.168	-0
364.376	0.05
364.584	0.06
364.792	0.1
365	0.07
365.208	0.13
365.416	0.09
365.624	0.09
365.832	0.04
366.04	0.1
366.248	0.1
366.456	0.07
366.664	0.05
366.872	0.07
367.079	0.04
367.287	0.09
367.495	0.07
367.703	0.04
367.911	0.03
368.118	0.05
368.326	0.04
368.534	0.03
368.742	0.12
368.949	0.01
369.157	0.06
369.365	0.11
369.572	0.05
369.78	-0
369.988	0.04
370.195	0.06
370.403	0.1
370.61	0.04
370.818	0.08
371.026	0.11
371.233	-0
371.441	0.07
371.648	0.04
371.856	0.09
372.063	0.07
372.271	0.05
372.478	0.06
372.685	0.03
372.893	0.1
373.1	0.05
373.308	0.06
373.515	0.12
373.722	0.1
373.93	0.05
374.137	0.07
374.344	0.13
374.552	0.08
374.759	0.08
374.966	0.1
375.173	0.07
375.381	0.09
375.588	0.04
375.795	0.01
376.002	0.06
376.209	0.04
376.417	0.03
376.624	0.02
376.831	0.08
377.038	0.04
377.245	-0.01
377.452	0.06
377.659	0.08
377.866	0.07
378.073	0.08
378.28	0.06
378.487	0.07
378.694	0.09
378.901	0.04
379.108	0.07
379.315	0.07
379.522	0.19
379.729	0.07
379.936	0.05
380.143	0.03
380.35	0.07
380.557	0.07
380.763	0.06
380.97	0.06
381.177	0.11
381.384	0.09
381.591	0.02
381.797	0.07
382.004	0.05
382.211	0.09
382.418	0.04
382.624	0.09
382.831	0.13
383.038	0.07
383.244	0.05
383.451	0.06
383.658	0.11
383.864	0.05
384.071	0.08
384.277	0.1
384.484	0.04
384.69	0.12
384.897	0.06
385.103	0.06
385.31	0.07
385.516	0.04
385.723	0.04
385.929	0.09
386.136	0.06
386.342	0.07
386.549	0.08
386.755	0.14
386.961	0.08
387.168	0.06
387.374	0.04
387.58	0.11
387.787	0.07
387.993	0.08
388.199	0.04
388.406	0.03
388.612	0.05
388.818	0.01
389.024	0.06
389.231	0.09
389.437	0.14
389.643	0.07
389.849	0.1
390.055	0.06
390.261	0.01
390.467	0.07
390.674	0.03
390.88	0.09
391.086	0.06
391.292	0.06
391.498	0.09
391.704	0.05
391.91	0.03
392.116	0.04
392.322	-0.04
392.528	0.1
392.734	0.08
392.94	0.1
393.146	0.07
393.352	0.08
393.557	0.07
393.763	0.06
393.969	0.1
394.175	0.05
394.381	0.09
394.587	-0
394.792	0.03
394.998	0.1
395.204	0.1
395.41	0.02
395.615	0.09
395.821	0.06
396.027	0.13
396.233	0.03
396.438	0.05
396.644	0.16
396.85	0.07
397.055	0.05
397.261	0.06
397.466	0.15
397.672	0.04
397.878	0.12
398.083	0.05
398.289	0.02
398.494	0.13
398.7	0.08
398.905	-0.04
399.111	0.18
399.316	0.04
399.522	0.08
399.727	0.03
399.932	0.04
400.138	0.07
400.343	0.11
400.549	0.08
400.754	0.08
400.959	0.08
401.165	0.07
401.37	0.08
401.575	0.18
401.78	0.07
401.986	0.04
402.191	0.06
402.396	0.09
402.601	0.1
402.807	0.09
403.012	0.06
403.217	0.1
403.422	0.08
403.627	0.08
403.832	0.05
404.037	0.05
404.243	0.06
404.448	0.05
404.653	0.01
404.858	0.1
405.063	0.11
405.268	0.05
405.473	0.05
405.678	0.01
405.883	0.18
406.088	0.09
406.293	0.01
406.498	0.03
406.703	0.13
406.907	0.05
407.112	0.04
407.317	0.04
407.522	0.07
407.727	0.04
407.932	0.09
408.136	0.16
408.341	0.07
408.546	0.08
408.751	0.06
408.956	0.06
409.16	0.1
409.365	0.01
409.57	0.02
409.774	0.08
409.979	0.09
410.184	0.04
410.388	-0.01
410.593	0.1
410.798	0.04
411.002	0.01
411.207	0.07
411.411	0.06
411.616	0.04
411.82	0.05
412.025	0.07
412.229	0.02
412.434	0.1
412.638	0.07
412.843	0.05
413.047	0.12
413.252	0.06
413.456	0.05
413.66	0.13
413.865	0.02
414.069	0.13
414.273	0.04
414.478	0.05
414.682	0.03
414.886	0.07
415.091	-0.01
415.295	0.02
415.499	0.05
415.703	0.04
415.908	0.07
416.112	0.03
416.316	0.08
416.52	0.05
416.724	-0.01
416.929	0
417.133	0.14
417.337	-0.01
417.541	0.05
417.745	0.02
417.949	0.1
418.153	0.05
418.357	0.04
418.561	0.16
418.765	0.04
418.969	0.17
419.173	0.1
419.377	0.03
419.581	0.16
419.785	0.07
419.989	0.03
420.193	0.05
420.397	0.04
420.601	0.15
420.804	0.09
421.008	0.1
421.212	0.07
421.416	0.11
421.62	0.03
421.823	0.05
422.027	0.12
422.231	0.11
422.435	0.04
422.638	0.07
422.842	0.03
423.046	0.07
423.249	0.11
423.453	0.1
423.657	0.05
423.86	0.06
424.064	0.04
424.268	0.07
424.471	0.03
424.675	0.18
424.878	0.13
425.082	0.05
425.285	0.12
425.489	0.07
425.692	0.04
425.896	0.04
426.099	0.06
426.303	0.09
426.506	0.03
426.71	0.05
426.913	0.12
427.116	0.1
427.32	0.01
427.523	0.04
427.726	0.14
427.93	0.01
428.133	0.09
428.336	0.06
428.54	0.05
428.743	0.1
428.946	0.11
429.149	0.03
429.353	0.07
429.556	0.04
429.759	0.07
429.962	0.01
430.165	0.09
430.368	0.05
430.571	0.05
430.775	0.08
430.978	0.04
431.181	0.06
431.384	0.03
431.587	0.05
431.79	0.05
431.993	0.1
432.196	0.06
432.399	0.08
432.602	0.09
432.805	0.08
433.008	0.05
433.211	-0.03
433.414	0.11
433.616	0.05
433.819	0.02
434.022	0.02
434.225	0.15
434.428	0.09
434.631	0.17
434.833	0.03
435.036	0.07
435.239	0.11
435.442	0.05
435.645	0.05
435.847	0.05
436.05	0.08
436.253	0.08
436.455	0.03
436.658	0.04
436.861	0.15
437.063	0.02
437.266	0.04
437.468	0.09
437.671	0.18
437.874	0.09
438.076	0.02
438.279	-0.01
438.481	0.03
438.684	0.03
438.886	0.1
439.089	0.02
439.291	0.14
439.494	0.09
439.696	0.07
439.899	0.03
440.101	0.1
440.303	0.01
440.506	0.09
440.708	0.06
440.91	0.06
441.113	0.06
441.315	0.1
441.517	0.02
441.72	0.1
441.922	0.05
442.124	0.02
442.326	0.06
442.529	0.12
442.731	-0.01
442.933	0.13
443.135	0.04
443.337	0.03
443.539	0.06
443.742	0.09
443.944	0.08
444.146	0.05
444.348	0.03
444.55	0.04
444.752	0.06
444.954	0
445.156	0.08
445.358	0.06
445.56	0.12
445.762	0.07
445.964	0.08
446.166	0.01
446.368	0.01
446.57	0.13
446.772	0.04
446.974	0.02
447.175	0.04
447.377	0.04
447.579	0.04
447.781	-0.03
447.983	0.15
448.184	0.09
448.386	0.08
448.588	-0.01
448.79	0.13
448.991	0.04
449.193	0.07
449.395	0.06
449.597	0.09
449.798	0.09
450	0.13
450.202	0.07
450.403	0.06
450.605	0.1
450.806	0.09
451.008	-0.05
451.21	0.09
451.411	0.03
451.613	0.05
451.814	0.03
452.016	0.1
452.217	0.06
452.419	0.12
452.62	0.1
452.821	0.05
453.023	0.1
453.224	0.14
453.426	0.05
453.627	0.11
453.828	0.14
454.03	0.05
454.231	0.1
454.432	0.02
454.634	0.15
454.835	0.06
455.036	-0.03
455.238	0.05
455.439	0.12
455.64	0.02
455.841	0.03
456.042	0.13
456.244	0.1
456.445	0.07
456.646	-0
456.847	0.01
457.048	0.11
457.249	0.15
457.45	0.27
457.651	0.01
457.852	0.11
458.054	0.12
458.255	0.05
458.456	0.12
458.657	0.07
458.858	0.07
459.058	0.13
459.259	0.13
459.46	0.03
459.661	0.07
459.862	0.17
460.063	0.04
460.264	0.09
460.465	0
460.666	0.21
460.866	0.05
461.067	0.08
461.268	0.04
461.469	-0.02
461.67	0.07
461.87	0.05
462.071	0.02
462.272	0.01
462.473	0.07
462.673	0.11
462.874	0.01
463.075	0.06
463.275	0.03
463.476	0.06
463.676	0.08
463.877	0.03
464.078	0.08
464.278	0.11
464.479	0.04
464.679	0.05
464.88	0.04
465.08	0.15
465.281	0.07
465.481	0.07
465.682	0.01
465.882	0.1
466.083	0.14
466.283	0.08
466.483	0.03
466.684	0.01
466.884	0.07
467.085	0.04
467.285	0.13
467.485	-0
467.686	0.08
467.886	0.01
468.086	0.05
468.286	0.06
468.487	0.1
468.687	0.01
468.887	0.06
469.087	0.11
469.287	0.05
469.488	0.01
469.688	0.1
469.888	0.09
470.088	0.13
470.288	0.1
470.488	0.12
470.688	0.01
470.888	0.02
471.088	0.03
471.288	0.12
471.488	0.09
471.688	0.07
471.888	0.04
472.088	0.08
472.288	0.08
472.488	-0.01
472.688	0.01
472.888	0.04
473.088	0.07
473.288	0.07
473.488	0.07
473.688	0.15
473.887	0.04
474.087	0.03
474.287	0.07
474.487	0.02
474.687	0.09
474.886	0.05
475.086	0.04
475.286	0.03
475.486	0.08
475.685	0.01
475.885	0.06
476.085	0.05
476.284	0.1
476.484	0.05
476.684	0.06
476.883	0.1
477.083	0.04
477.282	0.02
477.482	0.12
477.681	0.12
477.881	0.02
478.08	0.02
478.28	0.03
478.479	0.06
478.679	0.12
478.878	0.03
479.078	-0
479.277	0.02
479.477	0.04
479.676	0.09
479.875	0.05
480.075	0.01
480.274	0.06
480.473	0.08
480.673	-0.01
480.872	0.08
481.071	0.04
481.271	0.04
481.47	0.04
481.669	0.03
481.868	0.03
482.067	0.01
482.267	0.05
482.466	0.01
482.665	-0.02
482.864	0
483.063	-0
483.262	0.07
483.461	0.1
483.661	0.07
483.86	0.05
484.059	0.05
484.258	0.02
484.457	0.03
484.656	0.04
484.855	0.05
485.054	-0.04
485.253	0.02
485.452	0.01
485.651	0.04
485.849	0.07
486.048	0.01
486.247	0.03
486.446	0.04
486.645	0.01
486.844	0.01
487.043	0.01
487.241	0.04
487.44	-0.01
487.639	0.02
487.838	0.06
488.037	0.05
488.235	0.09
488.434	0.04
488.633	0
488.831	0.03
489.03	0.03
489.229	0.05
489.427	0.02
489.626	0.06
489.825	0.08
490.023	0.06
490.222	0.03
490.42	0.05
490.619	0.08
490.817	0.03
491.016	0.01
491.214	0.04
491.413	0.03
491.611	0.02
491.81	0.06
492.008	0.03
492.207	0.05
492.405	0.05
492.604	-0
492.802	0.04
493	0.03
493.199	0.03
493.397	0.05
493.595	0.03
493.794	-0.01
493.992	0.09
494.19	0.02
494.388	0.06
494.587	0.01
494.785	0.04
494.983	0.01
495.181	0.05
495.379	0.03
495.578	0.03
495.776	0.03
495.974	0.04
496.172	0.04
496.37	0.01
496.568	-0.01
496.766	0.01
496.964	0.06
497.162	0.03
497.36	0.01
497.558	0.04
497.756	0.03
497.954	0.05
498.152	0.02
498.35	0.03
498.548	-0.01
498.746	0.03
498.944	0.03
499.142	0
499.34	-0.02
499.538	0.05
499.736	0
499.933	0.05
500.131	0.05
500.329	0.04
500.527	0.05
500.725	0.07
500.922	0.04
501.12	0.01
501.318	0.04
501.516	-0.01
501.713	0.03
501.911	0.04
502.109	0.01
502.306	0.05
502.504	0.04
502.701	0.03
502.899	0.02
503.097	0.07
503.294	0.03
503.492	0.02
503.689	0.05
503.887	0.05
504.084	0.07
504.282	0.05
504.479	0.02
504.677	0.04
504.874	-0.01
505.072	0.03
505.269	0.01
505.466	0.04
505.664	0.04
505.861	0.01
506.059	0.02
506.256	0.07
506.453	0.02
506.651	0.06
506.848	0.05
507.045	0.04
507.242	0.04
507.44	-0
507.637	0.04
507.834	0.02
508.031	0.06
508.229	0
508.426	0.03
508.623	0.02
508.82	0.01
509.017	0
509.214	0.02
509.411	0.03
509.608	0.02
509.805	0.02
510.003	0.02
510.2	0.01
510.397	0.02
510.594	0
510.791	0.01
510.988	0.01
511.184	0.07
511.381	0.02
511.578	0.01
511.775	0.03
511.972	0.01
512.169	0.02
512.366	0.03
512.563	0.03
512.76	0.04
512.956	0.03
513.153	0.02
513.35	0.03
513.547	0
513.744	0.02
513.94	0.01
514.137	0.04
514.334	0.02
514.53	0.02
514.727	0.04
514.924	0.09
515.12	0.01
515.317	0.01
515.514	0.01
515.71	0.02
515.907	0.04
516.103	0.02
516.3	0.05
516.497	0.05
516.693	0.06
516.89	0.06
517.086	0.01
517.283	0.06
517.479	0.04
517.676	0.02
517.872	0.02
518.068	0.02
518.265	0.04
518.461	0.02
518.658	0.01
518.854	0.05
519.05	0.04
519.247	0.01
519.443	0.04
519.639	0.04
519.836	0.02
520.032	0.04
520.228	0.04
520.424	0.09
520.621	0.06
520.817	0.05
521.013	0.02
521.209	0.04
521.405	0.09
521.601	0.02
521.798	0.04
521.994	0.06
522.19	0.02
522.386	-0.01
522.582	0.05
522.778	0.03
522.974	0.02
523.17	0.05
523.366	0.03
523.562	0.06
523.758	0.02
523.954	-0
524.15	0.02
524.346	0.03
524.542	0.04
524.738	0.01
524.934	0.02
525.129	-0.03
525.325	0.01
525.521	0.03
525.717	0.05
525.913	0.02
526.109	0.03
526.304	0.05
526.5	0.03
526.696	0.06
526.892	0.03
527.087	0.05
527.283	-0
527.479	0.04
527.674	0.03
527.87	0.04
528.066	0.03
528.261	0.05
528.457	0.04
528.653	0.02
528.848	0.03
529.044	0.02
529.239	0.01
529.435	0.05
529.63	0.02
529.826	0.07
530.021	0.06
530.217	0.06
530.412	0.04
530.608	0.03
530.803	0.02
530.999	0.01
531.194	-0.01
531.389	0.05
531.585	-0.01
531.78	0.04
531.975	0.03
532.171	0.04
532.366	0.02
532.561	0.05
532.757	-0.01
532.952	0.01
533.147	0.06
533.342	0.02
533.538	0.01
533.733	0.04
533.928	0.03
534.123	0.01
534.318	0
534.513	0.04
534.709	0.01
534.904	0.02
535.099	0.02
535.294	0.03
535.489	0.04
535.684	0.02
535.879	-0.01
536.074	0.05
536.269	0.02
536.464	0.03
536.659	0.01
536.854	0.03
537.049	0.04
537.244	0.05
537.439	0.03
537.634	0.05
537.828	0.04
538.023	0.02
538.218	0.01
538.413	0.02
538.608	-0
538.803	0.04
538.997	-0
539.192	0.06
539.387	0.03
539.582	0.04
539.776	0.05
539.971	0
540.166	0.04
540.36	-0.01
540.555	0.02
540.75	0.01
540.944	0.03
541.139	-0
541.334	0.05
541.528	0.03
541.723	0.07
541.917	0.02
542.112	-0
542.306	0.03
542.501	0.02
542.695	0.02
542.89	0.03
543.084	0.03
543.279	0.04
543.473	0.03
543.668	0.03
543.862	0.02
544.056	0.06
544.251	0.03
544.445	0.04
544.64	0.02
544.834	0.02
545.028	0.03
545.222	0.03
545.417	0.04
545.611	0.05
545.805	0.04
546	0.02
546.194	0.02
546.388	0.02
546.582	0.05
546.776	0.04
546.97	0.04
547.165	0.06
547.359	0.05
547.553	0.03
547.747	0.04
547.941	0.04
548.135	0.03
548.329	0.05
548.523	0.03
548.717	0.03
548.911	0.02
549.105	0.04
549.299	0.05
549.493	0.08
549.687	0.05
549.881	0.04
550.075	0.03
550.269	0.01
550.463	0.04
550.657	0.04
550.85	0.03
551.044	-0
551.238	0.06
551.432	0.03
551.626	0
551.82	0.03
552.013	0.03
552.207	0.04
552.401	0.07
552.594	0.06
552.788	0.03
552.982	0.05
553.176	0.03
553.369	0.04
553.563	0.05
553.756	0.01
553.95	-0.01
554.144	0.04
554.337	0.07
554.531	0.05
554.724	0.04
554.918	0.05
555.111	0.06
555.305	0.05
555.498	0.08
555.692	0.07
555.885	0.02
556.079	0.05
556.272	0.02
556.466	0.07
556.659	0.04
556.852	0.01
557.046	0.04
557.239	0.07
557.432	0
557.626	0.01
557.819	0.04
558.012	0.05
558.206	0.05
558.399	0.04
558.592	0.04
558.785	0.02
558.979	0.08
559.172	0.05
559.365	0.06
559.558	0.05
559.751	0.04
559.944	0.05
560.138	0.04
560.331	0.03
560.524	0.04
560.717	0.05
560.91	0.05
561.103	0.04
561.296	0.04
561.489	0.07
561.682	0.05
561.875	0.07
562.068	0.05
562.261	0.06
562.454	0.08
562.647	0.05
562.84	0.06
563.032	0.03
563.225	0.06
563.418	0.05
563.611	0.03
563.804	0.06
563.997	-0.01
564.19	0
564.382	0.01
564.575	0.04
564.768	0.05
564.961	0.07
565.153	0.03
565.346	0.06
565.539	0.08
565.731	0.1
565.924	0.07
566.117	0.05
566.309	0.04
566.502	0.03
566.695	0.03
566.887	0.07
567.08	0.02
567.272	0.05
567.465	0.01
567.657	0.05
567.85	0.08
568.042	0.07
568.235	0.07
568.427	0.04
568.62	0.05
568.812	0.08
569.005	0.06
569.197	0
569.389	0.06
569.582	0.08
569.774	0.07
569.966	0.02
570.159	0.01
570.351	0.04
570.543	0.04
570.736	0.08
570.928	0.02
571.12	0.07
571.312	0.04
571.505	0.03
571.697	0.06
571.889	0.03
572.081	0.07
572.273	0.03
572.465	0.06
572.658	0.05
572.85	0.07
573.042	0.04
573.234	0.05
573.426	0.09
573.618	0.02
573.81	0.07
574.002	0.08
574.194	0.12
574.386	0.01
574.578	-0.01
574.77	0.03
574.962	0.07
575.154	0.02
575.346	0.05
575.538	0.05
575.729	0.05
575.921	0.06
576.113	0.05
576.305	0.09
576.497	0.04
576.689	0.06
576.88	0.05
577.072	0.08
577.264	0.05
577.456	0.05
577.647	0.02
577.839	0.06
578.031	0.1
578.223	0.03
578.414	0.02
578.606	0.07
578.798	0.07
578.989	0.04
579.181	0.09
579.372	0.05
579.564	0.05
579.755	0.07
579.947	0.09
580.139	0.1
580.33	0
580.522	0.04
580.713	-0
580.905	0.07
581.096	0.07
581.287	0.05
581.479	0.06
581.67	0.08
581.862	0.07
582.053	0.05
582.244	0.02
582.436	0.05
582.627	0.06
582.818	0.03
583.01	0.05
583.201	0.1
583.392	0.11
583.583	0.08
583.775	0.08
583.966	0.06
584.157	0.04
584.348	0.03
584.54	0.04
584.731	0.09
584.922	0.07
585.113	0.07
585.304	0.09
585.495	0.1
585.686	0.08
585.877	0.09
586.068	0.1
586.259	0.08
586.45	0.09
586.641	0.06
586.832	0.02
587.023	0.07
587.214	0.08
587.405	0.08
587.596	0.06
587.787	0.12
587.978	0.11
588.169	0.08
588.36	0.06
588.551	0.09
588.742	0.08
588.932	0.11
589.123	0.08
589.314	0.11
589.505	0.11
589.696	0.1
589.886	0.07
590.077	0.05
590.268	0.09
590.458	0.05
590.649	0.04
590.84	0.13
591.03	0.06
591.221	0.04
591.412	0.04
591.602	0.11
591.793	0.1
591.984	0.08
592.174	0.11
592.365	0.15
592.555	0.07
592.746	0.11
592.936	0.13
593.127	0.11
593.317	0.12
593.508	0.1
593.698	0.09
593.889	0.1
594.079	0.11
594.269	0.11
594.46	0.1
594.65	0.09
594.84	0.12
595.031	0.08
595.221	0.11
595.411	0.08
595.602	0.16
595.792	0.12
595.982	0.09
596.172	0.18
596.363	0.13
596.553	0.13
596.743	0.12
596.933	0.13
597.123	0.16
597.314	0.09
597.504	0.13
597.694	0.19
597.884	0.16
598.074	0.15
598.264	0.11
598.454	0.15
598.644	0.14
598.834	0.15
599.024	0.15
599.214	0.14
599.404	0.2
599.594	0.15
599.784	0.14
599.974	0.2
600.164	0.18
600.354	0.14
600.544	0.11
600.734	0.18
600.924	0.21
601.114	0.17
601.303	0.18
601.493	0.19
601.683	0.16
601.873	0.21
602.063	0.14
602.252	0.23
602.442	0.13
602.632	0.17
602.821	0.16
603.011	0.23
603.201	0.18
603.39	0.18
603.58	0.2
603.77	0.21
603.959	0.25
604.149	0.21
604.339	0.23
604.528	0.24
604.718	0.27
604.907	0.23
605.097	0.24
605.286	0.23
605.476	0.25
605.665	0.27
605.855	0.24
606.044	0.28
606.234	0.26
606.423	0.27
606.612	0.26
606.802	0.28
606.991	0.29
607.181	0.29
607.37	0.26
607.559	0.26
607.749	0.29
607.938	0.31
608.127	0.31
608.316	0.31
608.506	0.32
608.695	0.34
608.884	0.31
609.073	0.35
609.263	0.37
609.452	0.38
609.641	0.37
609.83	0.32
610.019	0.38
610.208	0.36
610.397	0.36
610.586	0.4
610.775	0.39
610.965	0.37
611.154	0.4
611.343	0.41
611.532	0.41
611.721	0.42
611.91	0.42
612.099	0.47
612.287	0.44
612.476	0.42
612.665	0.5
612.854	0.45
613.043	0.52
613.232	0.49
613.421	0.49
613.61	0.54
613.798	0.5
613.987	0.6
614.176	0.57
614.365	0.59
614.554	0.53
614.742	0.58
614.931	0.56
615.12	0.63
615.309	0.63
615.497	0.64
615.686	0.62
615.875	0.64
616.063	0.64
616.252	0.68
616.44	0.67
616.629	0.69
616.818	0.73
617.006	0.72
617.195	0.73
617.383	0.77
617.572	0.76
617.76	0.76
617.949	0.77
618.137	0.84
618.326	0.86
618.514	0.8
618.703	0.79
618.891	0.94
619.079	0.87
619.268	0.97
619.456	0.88
619.644	0.96
619.833	0.96
620.021	0.96
620.209	0.92
620.398	1
620.586	0.99
620.774	1.1
620.962	1.1
621.151	1.16
621.339	1.11
621.527	1.09
621.715	1.13
621.903	1.15
622.092	1.19
622.28	1.25
622.468	1.21
622.656	1.29
622.844	1.25
623.032	1.34
623.22	1.25
623.408	1.44
623.596	1.4
623.784	1.46
623.972	1.41
624.16	1.4
624.348	1.52
624.536	1.53
624.724	1.56
624.912	1.59
625.1	1.69
625.288	1.65
625.476	1.58
625.664	1.74
625.851	1.71
626.039	1.82
626.227	1.8
626.415	1.83
626.603	1.78
626.79	1.91
626.978	1.93
627.166	1.94
627.354	1.98
627.541	2
627.729	2
627.917	2.16
628.104	2.17
628.292	2.15
628.48	2.2
628.667	2.26
628.855	2.36
629.042	2.39
629.23	2.38
629.418	2.45
629.605	2.45
629.793	2.46
629.98	2.49
630.168	2.56
630.355	2.7
630.543	2.74
630.73	2.7
630.917	2.81
631.105	2.95
631.292	2.9
631.48	2.94
631.667	3.06
631.854	3.07
632.042	3.14
632.229	3.14
632.416	3.27
632.604	3.28
632.791	3.22
632.978	3.4
633.165	3.45
633.353	3.59
633.54	3.7
633.727	3.57
633.914	3.63
634.101	3.68
634.289	3.83
634.476	3.82
634.663	3.89
634.85	3.94
635.037	4.02
635.224	3.99
635.411	4.15
635.598	4.18
635.785	4.25
635.972	4.27
636.159	4.38
636.346	4.46
636.533	4.49
636.72	4.62
636.907	4.65
637.094	4.63
637.281	4.65
637.468	4.91
637.655	4.96
637.842	5
638.029	5.14
638.215	5.15
638.402	5.23
638.589	5.3
638.776	5.42
638.963	5.45
639.149	5.59
639.336	5.69
639.523	5.76
639.709	5.82
639.896	5.85
640.083	5.91
640.27	6.18
640.456	6.09
640.643	6.29
640.829	6.2
641.016	6.31
641.203	6.46
641.389	6.57
641.576	6.72
641.762	6.82
641.949	6.86
642.135	6.95
642.322	7.11
642.508	7.13
642.695	7.36
642.881	7.41
643.068	7.49
643.254	7.66
643.441	7.85
643.627	7.97
643.813	7.94
644	8.2
644.186	8.2
644.372	8.43
644.559	8.55
644.745	8.57
644.931	8.8
645.118	8.97
645.304	9.02
645.49	9.27
645.676	9.32
645.862	9.54
646.049	9.78
646.235	9.89
646.421	10.18
646.607	10.32
646.793	10.43
646.979	10.32
647.165	10.75
647.352	10.85
647.538	11.01
647.724	11.19
647.91	11.21
648.096	11.52
648.282	11.81
648.468	11.87
648.654	12.14
648.84	12.32
649.026	12.54
649.212	12.53
649.397	12.85
649.583	13.16
649.769	13.28
649.955	13.43
650.141	13.8
650.327	13.73
650.513	14.15
650.698	14.36
650.884	14.37
651.07	14.8
651.256	14.8
651.442	15.09
651.627	15.05
651.813	15.72
651.999	15.73
652.184	15.91
652.37	16.3
652.556	16.49
652.741	16.74
652.927	16.58
653.113	17.07
653.298	17.24
653.484	17.64
653.669	17.93
653.855	18.03
654.04	18.49
654.226	18.41
654.412	18.73
654.597	18.72
654.782	19.09
654.968	19.28
655.153	19.43
655.339	19.71
655.524	19.85
655.71	20.3
655.895	20.45
656.08	20.74
656.266	21.08
656.451	20.89
656.636	21.16
656.822	21.37
657.007	21.57
657.192	21.79
657.378	21.88
657.563	21.86
657.748	22.2
657.933	22.55
658.118	22.01
658.304	22.82
658.489	23
658.674	22.96
658.859	22.63
659.044	22.88
659.229	23.06
659.414	23.33
659.599	23.35
659.785	23.16
659.97	23.36
660.155	23.29
660.34	23.39
660.525	23.15
660.71	23.11
660.895	23.17
661.08	23.03
661.264	22.95
661.449	22.85
661.634	22.35
661.819	22.45
662.004	21.9
662.189	22.04
662.374	21.71
662.559	21.15
662.743	20.9
662.928	20.75
663.113	20.27
663.298	20.07
663.483	19.74
663.667	19.09
663.852	18.91
664.037	18.46
664.221	18.21
664.406	17.76
664.591	17.28
664.775	16.79
664.96	16.43
665.145	15.69
665.329	15.59
665.514	15.08
665.698	14.41
665.883	14.11
666.068	13.87
666.252	13.47
666.437	12.91
666.621	12.56
666.806	12.22
666.99	11.72
667.174	11.44
667.359	11.04
667.543	10.72
667.728	10.34
667.912	9.84
668.096	9.54
668.281	9.19
668.465	9.07
668.649	8.73
668.834	8.19
669.018	8.15
669.202	7.91
669.387	7.49
669.571	7.38
669.755	7.05
669.939	6.76
670.124	6.6
670.308	6.43
670.492	6.19
670.676	6.07
670.86	5.8
671.044	5.55
671.228	5.39
671.413	5.16
671.597	5.07
671.781	4.89
671.965	4.77
672.149	4.55
672.333	4.45
672.517	4.29
672.701	4.12
672.885	4.04
673.069	3.8
673.253	3.76
673.437	3.64
673.621	3.49
673.804	3.42
673.988	3.34
674.172	3.19
674.356	3.03
674.54	2.99
674.724	2.98
674.908	2.8
675.091	2.76
675.275	2.7
675.459	2.71
675.643	2.47
675.826	2.41
676.01	2.37
676.194	2.28
676.377	2.27
676.561	2.17
676.745	2.1
676.928	2.03
677.112	1.97
677.296	1.89
677.479	1.83
677.663	1.75
677.846	1.76
678.03	1.69
678.213	1.57
678.397	1.62
678.58	1.47
678.764	1.48
678.947	1.34
679.131	1.39
679.314	1.43
679.498	1.31
679.681	1.3
679.865	1.38
680.048	1.21
680.231	1.16
680.415	1.1
680.598	1.13
680.781	1.09
680.965	1
681.148	1.06
681.331	0.95
681.514	0.98
681.698	0.93
681.881	0.91
682.064	0.85
682.247	0.91
682.43	0.78
682.614	0.87
682.797	0.87
682.98	0.82
683.163	0.69
683.346	0.78
683.529	0.68
683.712	0.65
683.895	0.77
684.078	0.64
684.261	0.64
684.444	0.67
684.627	0.67
684.81	0.62
684.993	0.6
685.176	0.65
685.359	0.52
685.542	0.55
685.725	0.63
685.908	0.54
686.091	0.49
686.274	0.58
686.457	0.57
686.639	0.53
686.822	0.54
687.005	0.53
687.188	0.49
687.371	0.55
687.553	0.49
687.736	0.52
687.919	0.51
688.102	0.5
688.284	0.39
688.467	0.4
688.65	0.38
688.832	0.37
689.015	0.33
689.197	0.27
689.38	0.44
689.563	0.45
689.745	0.33
689.928	0.34
690.11	0.36
690.293	0.42
690.475	0.29
690.658	0.4
690.84	0.32
691.023	0.34
691.205	0.32
691.388	0.31
691.57	0.38
691.752	0.34
691.935	0.21
692.117	0.26
692.3	0.33
692.482	0.24
692.664	0.27
692.847	0.25
693.029	0.38
693.211	0.28
693.393	0.24
693.576	0.25
693.758	0.3
693.94	0.2
694.122	0.23
694.304	0.22
694.487	0.22
694.669	0.27
694.851	0.22
695.033	0.24
695.215	0.15
695.397	0.16
695.579	0.26
695.761	0.18
695.943	0.17
696.125	0.25
696.308	0.21
696.49	0.13
696.671	0.31
696.853	0.26
697.035	0.35
697.217	0.2
697.399	0.25
697.581	0.15
697.763	0.14
697.945	0.17
698.127	0.21
698.309	0.25
698.491	0.17
698.672	0.18
698.854	0.23
699.036	0.26
699.218	0.19
699.399	0.23
699.581	0.23
699.763	0.23
699.945	0.13
700.126	0.13
700.308	0.15
700.49	0.14
700.671	0.1
700.853	0.11
701.035	0.13
701.216	0.21
701.398	0.16
701.579	0.18
701.761	0.2
701.943	0.11
702.124	0.12
702.306	0.18
702.487	0.3
702.669	0.17
702.85	0.15
703.031	0.08
703.213	0.27
703.394	0.13
703.576	0.18
703.757	0.26
703.938	0.19
704.12	0.28
704.301	0.15
704.483	0.11
704.664	0.2
704.845	0.25
705.026	0.18
705.208	0.17
705.389	0.17
705.57	0.16
705.751	0.11
705.933	0.2
706.114	0.23
706.295	0.12
706.476	0.08
706.657	0.26
706.838	0.22
707.02	0.2
707.201	0.14
707.382	0.09
707.563	0.15
707.744	0.1
707.925	0.11
708.106	0.14
708.287	0.16
708.468	0.18
708.649	0.21
708.83	0.16
709.011	0.14
709.192	0.22
709.373	0.1
709.554	0.11
709.734	0.25
709.915	0.19
710.096	0.14
710.277	0.02
710.458	0.14
710.639	0.14
710.819	0.08
711	0.09
711.181	0.16
711.362	0.14
711.542	0.14
711.723	0.17
711.904	0.21
712.085	0.2
712.265	0.11
712.446	0.09
712.627	0.09
712.807	0.16
712.988	0.09
713.168	0.04
713.349	0.17
713.53	-0.07
713.71	0.03
713.891	0.08
714.071	0.14
714.252	0.12
714.432	0.1
714.613	0.05
714.793	0.09
714.974	0.21
715.154	0.18
715.334	0.21
715.515	0.24
715.695	0.05
715.876	0.09
716.056	0.08
716.236	0.11
716.417	0.09
716.597	0.09
716.777	0.3
716.957	0.09
717.138	0.1
717.318	0.14
717.498	0.01
717.678	0.11
717.859	0.15
718.039	0.09
718.219	0.16
718.399	0.13
718.579	-0.02
718.759	0.12
718.939	0.15
719.12	0.15
719.3	0.13
719.48	0.01
719.66	-0
719.84	0.15
720.02	0.11
720.2	0.05
720.38	0.2
720.56	0.2
720.74	0.1
720.92	0.15
721.1	0.18
721.279	0.19
721.459	0.19
721.639	0.02
721.819	0.14
721.999	0.09
722.179	0.16
722.359	0.09
722.538	0.12
722.718	0.22
722.898	0.06
723.078	0.16
723.257	0.07
723.437	0.07
723.617	0.1
723.797	0.07
723.976	0.19
724.156	0.16
724.336	0.21
724.515	0.24
724.695	0.01
724.874	0.05
725.054	0.18
725.234	0.09
725.413	0.22
725.593	0.06
725.772	0.08
725.952	0.08
726.131	0.12
726.311	0.17
726.49	0.14
726.67	-0.02
726.849	0.1
727.028	0.1
727.208	0.1
727.387	0.1
727.567	0.06
727.746	0.14
727.925	0.08
728.105	0.03
728.284	0.14
728.463	0.13
728.643	0.13
728.822	0.02
729.001	0.01
729.18	0.15
729.359	0.13
729.539	0.14
729.718	0.15
729.897	0.18
730.076	0.04
730.255	0.03
730.434	0.13
730.614	0.17
730.793	0.23
730.972	0.08
731.151	0.16
731.33	0.2
731.509	0.19
731.688	0.04
731.867	0.14
732.046	0.06
732.225	0.36
732.404	0.05
732.583	0.09
732.762	0.08
732.941	0.2
733.12	0.24
733.298	0.09
733.477	0.26
733.656	0.15
733.835	0.07
734.014	0.24
734.193	0.09
734.371	0.19
734.55	0.17
734.729	-0.08
734.908	0.18
735.086	0.18
735.265	0.2
735.444	-0.04
735.623	0.05
735.801	0.07
735.98	0.12
736.159	0.19
736.337	0.3
736.516	0.13
736.694	0.12
736.873	0.08
737.052	0.23
737.23	0.19
737.409	0.05
737.587	0.31
737.766	-0.06
737.944	0.09
738.123	0.25
738.301	0.15
738.479	0.1
738.658	0.08
738.836	-0.15
739.015	0.22
739.193	0.19
739.371	0.05
739.55	0.12
739.728	0.01
739.906	0.18
740.085	0.26
740.263	0.07
740.441	-0.02
740.62	0.3
740.798	0.24
740.976	0.04
741.154	0.12
741.332	0.19
741.511	0.19
741.689	0.1
741.867	0.17
742.045	0.13
742.223	-0.01
742.401	0.01
742.579	0.12
742.757	0.16
742.935	0.08
743.114	0.06
743.292	0.21
743.47	0.07
743.648	0.19
743.826	0.23
744.004	0.26
744.181	0.11
744.359	0.09
744.537	0.2
744.715	0.17
744.893	0.07
745.071	0.1
745.249	0.05
745.427	0.07
745.605	0.12
745.782	0.18
745.96	0.17
746.138	0.17
746.316	0.16
746.493	0.09
746.671	0.12
746.849	0.06
747.027	0.26
747.204	0.05
747.382	0.15
747.56	0.02
747.737	0.23
747.915	0.07
748.093	0.15
748.27	0.05
748.448	0.17
748.625	0.09
748.803	0.09
748.98	0.18
749.158	0.07
749.335	0.14
749.513	0.09
749.69	0.09
749.868	0.07
750.045	0.24
750.223	0.14
750.4	-0.04
750.578	0.38
750.755	0.2
750.932	-0.01
751.11	0.3
751.287	-0.03
751.464	0.2
751.642	-0.04
751.819	0.24
751.996	0.13
752.173	0.04
752.351	-0.07
752.528	0.15
752.705	0.08
752.882	0.07
753.06	0.07
753.237	0.21
753.414	0.23
753.591	0.26
753.768	0.19
753.945	-0.01
754.122	0.11
754.299	0.17
754.476	0.01
754.654	0.1
754.831	0.2
755.008	0.06
755.185	0.08
755.362	0.04
755.539	0.13
755.716	0.04
755.892	0.07
756.069	0.04
756.246	0.15
756.423	0.03
756.6	0.27
756.777	-0
756.954	0.23
757.131	0.02
757.307	-0.04
757.484	0.12
757.661	0.04
757.838	0.2
758.015	0.04
758.191	0.26
758.368	0.14
758.545	0.28
758.721	0.26
758.898	0.03
759.075	0.12
759.251	0.11
759.428	0.13
759.605	-0.04
759.781	0.04
759.958	0.2
760.134	0.18
760.311	0.08
760.488	0.24
760.664	0.23
760.841	0.08
761.017	-0.03
761.194	0.17
761.37	0.14
761.547	0.07
761.723	0.22
761.899	0.28
762.076	0.1
762.252	0.04
762.429	0.07
762.605	0.3
762.781	0.05
762.958	0.17
763.134	0.03
763.31	-0.04
763.486	0.21
763.663	-0.12
763.839	0.21
764.015	-0.05
764.191	-0.06
764.368	0.11
764.544	0.02
764.72	0.11
764.896	0.2
765.072	0.26
765.248	0.02
765.425	0.09
765.601	0.12
765.777	0.07
765.953	-0.09
766.129	0.01
766.305	0.08
766.481	0.18
766.657	0.18
766.833	0.33
767.009	0.09
767.185	0.18
767.361	0.06
767.537	0.05
767.713	0.36
767.889	0.08
768.065	0.06
768.24	-0.08
768.416	0.22
768.592	0.14
768.768	-0
768.944	0.05
769.12	-0.09
769.295	0.06
769.471	0.05
769.647	0.11
769.823	0.31
769.998	-0.01
770.174	-0.17
770.35	0.28
770.525	0.32
770.701	0.11
770.877	0.11
771.052	-0.04
771.228	0.36
771.403	0.18
771.579	0.31
771.755	0.4
771.93	0.08
772.106	0.11
772.281	-0.28
772.457	0.05
772.632	0.22
772.808	-0.01
772.983	0.03
773.159	0.03
773.334	0.11
773.509	0.15
773.685	-0.03
773.86	0.38
774.036	0.14
774.211	0.11
774.386	0.14
774.562	0.2
774.737	0.17
774.912	-0.01
775.087	0.27
775.263	0.11
775.438	0.11
775.613	0.19
775.788	0.11
775.964	0.27
776.139	0.39
776.314	0.02
776.489	0.19
776.664	0.18
776.839	0.06
777.014	0.25
777.19	0.24
777.365	0.41
777.54	0.33
777.715	0.14
777.89	0.24
778.065	0.09
778.24	0.24
778.415	0.2
778.59	-0.09
778.765	-0.05
778.94	-0.01
779.115	0.12
779.289	0.14
779.464	0.3
779.639	0.14
779.814	-0.03
779.989	-0.08
780.164	0.31
780.339	0.15
780.513	-0
780.688	-0.12
780.863	0.15
781.038	0.39
781.212	-0.03
781.387	0.2
781.562	0.48
781.737	0.11
781.911	0.27
782.086	-0.01
782.261	0.08
782.435	0.41
782.61	0.17
782.784	0.01
782.959	0.38
783.134	0.18
783.308	-0.13
783.483	0.11
783.657	0.49
783.832	0.4
784.006	-0.11
784.181	0.32
784.355	0.22
784.53	-0.11
784.704	0.14
784.878	0.36
785.053	0.22
785.227	0.48
785.402	0.51
785.576	0.1
785.75	0.11
785.925	-0.03
786.099	0.21
786.273	0.34
786.448	0.13
786.622	0.43
786.796	0.16
786.97	0.19
787.145	0.63
787.319	-0.26
787.493	0.03
787.667	-0.19
787.841	0.09
788.015	0.39
788.19	0.06
788.364	0.05
788.538	0.24
788.712	0.25
788.886	0.12
789.06	0.44
789.234	0.38
789.408	-0.02
789.582	0.15
789.756	0.16
789.93	-0.13
790.104	-0.05
790.278	0.09
790.452	-0.06
790.626	0.21
790.8	-0.04
790.973	0.45
791.147	0.44
791.321	0.39
791.495	0.21
791.669	0.27
791.843	0.09
792.016	0.42
792.19	0.33
792.364	-0.11
792.538	0.62
792.711	0.26
792.885	0.09
793.059	-0.03
793.233	-0.35
793.406	0.25
793.58	0.05
793.754	0.33
793.927	0.46
794.101	0.27
794.274	0.31
794.448	0.47
794.622	-0.13
794.795	0.52
794.969	0.01
795.142	0.5
795.316	0.14
795.489	0.22
795.663	0.44
795.836	0.27
796.009	0.09
796.183	0.48
796.356	0.07
796.53	0.44
796.703	0.08
796.876	0.64
797.05	0.1
797.223	0.15
797.396	0.49
797.57	0.16
797.743	0.55
797.916	0.35
798.09	0.23
798.263	0.47
798.436	0.58
798.609	0.21
798.782	0.34
798.956	0.36
799.129	0.39
799.302	0.03
799.475	-0.09
799.648	-0.07
799.821	0.33
799.994	0.18
800.167	-0.33
800.34	0.38
800.514	0.33
800.687	0.21
800.86	-0.08
801.033	0.44
801.206	0.49
801.379	0.04
801.551	0.35
801.724	0.49
801.897	0.55
802.07	0.23
802.243	0.05
802.416	0.2
802.589	0.18
802.762	0.46
802.935	0.27
803.107	0.27
803.28	0.43
803.453	0.4
803.626	-0.13
803.798	0.22
803.971	0.09
804.144	0.41
804.317	0.46
804.489	0.2
804.662	0.25
804.835	0.33
805.007	0.04
805.18	0.8
805.353	0.04
805.525	0.11
805.698	0.04
805.87	0.41
806.043	0.35
806.215	-0.11
806.388	0.2
806.56	0.45
806.733	0.62
806.905	0.31
807.078	0.11
807.25	-0.17
807.423	0.55
807.595	0.18
807.768	0.52
807.94	0.51
808.112	0.4
808.285	0.06
808.457	0.06
808.629	0.38
808.802	0.66
808.974	0.34
809.146	-0.09
809.318	-0.16
809.491	0.34
809.663	0.11
809.835	0.03
810.007	0.49
810.18	0.5
810.352	-0.01
810.524	0.27
810.696	0.17
810.868	0.62
811.04	0.08
811.212	0.23
811.384	0.26
811.556	0.45
811.728	0.28
811.901	0.85
812.073	0.36
812.245	0.14
812.417	-0.02
812.589	-0.24
812.76	0.32
812.932	0.38
813.104	0.61
813.276	0.31
813.448	0.61
813.62	0.3
813.792	0.51
813.964	0.4
814.136	0.55
814.307	-0.17
814.479	0.11
814.651	0.21
814.823	0.86
814.995	0.31
815.166	0.63
815.338	0.26
815.51	-0.23
815.681	0.76
815.853	-0.08
816.025	0.52
816.196	0.92
816.368	0.68
816.54	-0.25
816.711	-0.05
816.883	0.25
817.054	0.81
817.226	-0.21
817.398	0.76
817.569	0.3
817.741	0.39
817.912	-0.19
818.084	0.29
818.255	0.51
818.426	-0.09
818.598	0.16
818.769	-0.15
818.941	0.62
819.112	1.06
819.283	0.47
819.455	-0.01
819.626	0.27
819.798	0.44
819.969	0.82
820.14	0.35
820.311	0.13
820.483	0.44
820.654	0.62
820.825	0.12
820.996	-0.15
821.168	-0.32
821.339	0.1
821.51	-0.11
821.681	0.46
821.852	0.36
822.023	-0.06
822.195	-0.66
822.366	0.58
822.537	0.46
822.708	0.71
822.879	-0.3
823.05	0.91
823.221	0.06
823.392	0.74
823.563	0.41
823.734	0.5
823.905	0.37
824.076	-0.06
824.247	0.11
824.418	0.44
824.589	0.87
824.759	0.48
824.93	0.2
825.101	0.42
825.272	0.89
825.443	1.15
825.614	0.9
825.784	-0.33
825.955	1.18
826.126	1.21
826.297	0.78
826.467	1.4
826.638	0.79
826.809	-0.32
826.98	0.04
827.15	0.31
827.321	0.1
827.492	1.07
827.662	0.48
827.833	0.91
828.003	0.4
828.174	0.14
828.345	-0.11
828.515	0.96
828.686	0.66
828.856	0.31
829.027	0.34
829.197	0.95
829.368	1
829.538	-0.31
829.709	0.23
829.879	0.53
830.049	0.7
830.22	-0.12
830.39	0.43
830.56	1.56
830.731	0.52
830.901	-0.5
831.072	-0.29
831.242	0.48
831.412	0.6
831.582	0.66
831.753	0.12
831.923	1.11
832.093	0.08
832.263	0.13
832.434	-0.26
832.604	0.09
832.774	1.05
832.944	0.2
833.114	-0.28
833.284	0.48
833.454	-0.28
833.624	0.17
833.795	-0.12
833.965	1.1
834.135	1.28
834.305	-0.4
834.475	-0.21
834.645	0.48
834.815	0.59
834.985	-0.45
835.155	0.19
835.325	0.48
835.494	1.1
835.664	0.45
835.834	-0.21
836.004	0.68
836.174	0.67
836.344	0.45
836.514	-0.15
836.684	0.22
836.853	0.59
837.023	0.47
837.193	0.46
837.363	0.65
837.532	1.03
837.702	0.31
837.872	0.02
838.041	0.81
838.211	1.41
838.381	-0.08
838.55	0.04
838.72	2.05
838.89	2.09
839.059	0.21
839.229	-0.29
839.398	1.42
839.568	0.47
839.738	1.03
839.907	1.6
840.077	1.28
840.246	-0.39
840.416	0
840.585	-0.08
840.755	1.65
840.924	1.2
841.093	0.04
841.263	0.23
841.432	0.87
841.602	0.04
841.771	0.4
841.94	0.97
842.11	1.78
842.279	2.55
842.448	-0.23
842.617	-0.14
842.787	1.77
842.956	-0.72
843.125	0.39
843.294	1.08
843.464	1.58
843.633	0.54
843.802	-0.57
843.971	0.15
844.14	1.38
844.309	1.56
844.479	0.31
844.648	-0.25
844.817	0.76
844.986	0.68
845.155	1.04
845.324	0.03
845.493	0.46
845.662	-0.96
845.831	1.4
846	1.21
846.169	0.45
846.338	1.69
846.507	1
846.676	0.64
846.844	0.24
847.013	1.56
847.182	1.71
847.351	0.61
847.52	0.8
847.689	1.37
847.858	-0.04
848.026	0.97
848.195	0.85
848.364	-0.03
848.533	0.76
848.701	-0.68
848.87	-0.37
849.039	1.9
849.207	1.6
849.376	1.64
849.545	2.03
849.713	-0.21
849.882	1.23
850.051	-0.54
850.219	0.89
850.388	1.9
850.556	0.73
850.725	-0.25
850.893	0.64
851.062	0.44
851.23	1.62
851.399	-0.7
851.567	-0.32
851.736	-0.01
851.904	-0.78
852.073	0.42
852.241	1.91
852.41	1.19
852.578	0.46
852.746	0.65
852.915	2
853.083	0.85
853.251	-0.07
853.42	0.97
853.588	-0.01
853.756	1.72
853.924	1.13
854.093	0.11
854.261	0.54
854.429	-1.93
854.597	0.7
854.765	-0.28
854.934	2.57
855.102	2.66
855.27	1.3
855.438	0.81
855.606	2.11
855.774	2.57
855.942	0.68
856.11	-0.33
856.278	1.57
856.446	1.91
856.614	0.98
856.782	0.4
856.95	1.91
857.118	0.69
857.286	1.03
857.454	-0.04
857.622	1.3
857.79	1.66
857.958	-0.36
858.126	0.45
858.294	-1.84
858.462	1.43
858.629	0.43
858.797	0.12
858.965	1.05
859.133	0.42
859.301	0.11
859.468	1.61
859.636	0.2
859.804	2.16
859.971	1.93
860.139	0.1
860.307	1.81
860.474	1.23
860.642	0.12
860.81	0.2
860.977	0.19
861.145	1.29
861.313	1.46
861.48	0.75
861.648	1.15
861.815	0.98
861.983	-0.67
862.15	1.27
862.318	2.15
862.485	1.03
862.653	1.21
862.82	0.02
862.988	2.4
863.155	1.57
863.322	-0.34
863.49	-0.24
863.657	0.13
863.824	1.75
863.992	1.76
864.159	1.22
864.326	2.44
864.494	0.41
864.661	5.01
864.828	-0.73
864.996	1.63
865.163	1.9
865.33	0.7
865.497	-0.61
865.664	0.06
865.832	-0.07
865.999	-0.39
866.166	-0.63
866.333	-0.56
866.5	-0.16
866.667	1.27
866.834	0.22
867.001	3.71
867.168	0.59
867.335	0.08
867.502	-0.82
867.669	1.7
867.836	3.92
868.003	0.12
868.17	1.93
868.337	2
868.504	2.93
868.671	0.1
868.838	0.54
869.005	0.73
869.172	0.66
869.339	2.28
869.505	0.84
869.672	1
869.839	2.11
870.006	1.11
870.173	-0.86
870.339	1.21
870.506	2.52
870.673	0.42
870.84	1.05
871.006	1.5
871.173	1.01
871.34	0.96
871.506	-0.47
871.673	2.1
871.839	-1.37
872.006	1.55
872.173	0.81
872.339	1.1
872.506	2.91
872.672	1.37
872.839	-0.94
873.005	-1.61
873.172	4.16
873.338	2.94
873.505	1.52
873.671	2.8
873.838	2.19
874.004	-1.3
874.171	-0.4
874.337	2.27
874.503	1.85
874.67	0.83
874.836	0.21
875.002	2.58
875.169	3.15
875.335	1.14
875.501	-0.33
875.668	1.43
875.834	1.05
876	0.42
876.166	1.9
876.332	1.16
876.499	5.2
876.665	1.26
876.831	0.7
876.997	2.28
877.163	2.1
877.329	0.89
877.495	2.35
877.662	2.24
877.828	3.8
877.994	0.74
878.16	-0.79
878.326	0.99
878.492	2.29
878.658	0.29
878.824	1.27
878.99	2.98
879.156	0.21
879.322	3.87
879.487	1.45
879.653	2.16
879.819	0.05
879.985	1.79
880.151	0.49
880.317	2.03
880.483	2.19
880.648	1.78
880.814	-1.75
880.98	2.5
881.146	-1.78
881.312	0.59
881.477	0.23
881.643	3.45
881.809	3.89
881.974	2.28
882.14	-1.65
882.306	0.18
882.471	3.81
882.637	0.2
882.803	2.91
882.968	4.01
883.134	5.77
883.299	2.12
883.465	1.39
883.63	2.84
883.796	2.06
883.961	2.06
884.127	1.57
884.292	-3.82
884.458	-1.6
884.623	-1.6
