Data from Apollo_Calib_20240827__AbsoluteIrradiance__437__06-26-00-567.txt Node

Date: Wed Aug 28 06:26:00 BST 2024
User: biology
Spectrometer: FLMT08252
Trigger mode: 0
Integration Time (sec): 5.000000E-1
Scans to average: 5
Electric dark correction enabled: true
Nonlinearity correction enabled: false
Boxcar width: 0
XAxis mode: Wavelengths
Number of Pixels in Spectrum: 3648
>>>>>Begin Spectral Data<<<<<
179.588	-0
179.809	-0
180.03	-0
180.251	-0
180.473	-0
180.694	0
180.915	0
181.136	-0
181.357	0
181.578	-0
181.799	-0
182.02	-0
182.241	-0
182.462	-0
182.683	0
182.904	-0
183.125	-0
183.346	0
183.567	0
183.788	0
184.009	0
184.23	0
184.451	0
184.672	0
184.892	0
185.113	0
185.334	0
185.555	0
185.776	0
185.996	0
186.217	0
186.438	0
186.659	0
186.879	0
187.1	0
187.321	0
187.541	0
187.762	0
187.983	0
188.203	0
188.424	0
188.644	0
188.865	0
189.086	0
189.306	0
189.527	0
189.747	0
189.968	0
190.188	0
190.409	0
190.629	0
190.849	0
191.07	0
191.29	0
191.511	0
191.731	0
191.951	0
192.172	0
192.392	0
192.612	0
192.833	0
193.053	0
193.273	0
193.493	0
193.714	0
193.934	0
194.154	0
194.374	0
194.594	0
194.815	0
195.035	0
195.255	0
195.475	0
195.695	0
195.915	0
196.135	0
196.355	0
196.575	0
196.795	0
197.015	0
197.235	0
197.455	0
197.675	0
197.895	0
198.115	0
198.335	0
198.555	0
198.775	0
198.995	0
199.214	0
199.434	0
199.654	0
199.874	0
200.094	-0.33
200.313	1.36
200.533	0.72
200.753	0.42
200.973	2.18
201.192	1.46
201.412	0.76
201.632	0.48
201.851	1.69
202.071	0.65
202.291	0.7
202.51	0.29
202.73	1.68
202.95	0.61
203.169	0.06
203.389	1.07
203.608	0.75
203.828	0.05
204.047	0.41
204.267	0.9
204.486	0.95
204.706	1.02
204.925	0.94
205.145	0.63
205.364	1.35
205.583	1.67
205.803	0.64
206.022	0.42
206.242	0.59
206.461	0.61
206.68	0.38
206.9	0.71
207.119	1.15
207.338	1.09
207.557	0.58
207.777	0.57
207.996	0.83
208.215	1.39
208.434	0.81
208.654	0.25
208.873	0.7
209.092	1.03
209.311	0.57
209.53	0.68
209.749	0.62
209.968	0.5
210.187	0.65
210.407	0.32
210.626	0.31
210.845	0.5
211.064	0.57
211.283	0.33
211.502	1
211.721	0.44
211.94	0.48
212.159	0.74
212.377	0.84
212.596	0.7
212.815	0.51
213.034	0.55
213.253	0.98
213.472	0.64
213.691	0.43
213.91	0.29
214.128	0.4
214.347	0.96
214.566	0.29
214.785	0.19
215.003	0.72
215.222	0.42
215.441	0.5
215.66	0.17
215.878	0.46
216.097	0.53
216.316	0.13
216.534	0.26
216.753	0.57
216.972	0.43
217.19	0.44
217.409	0.28
217.627	0.31
217.846	0.34
218.064	0.54
218.283	0.33
218.501	0.88
218.72	0.61
218.938	0.2
219.157	0.28
219.375	0.47
219.594	0.42
219.812	0.18
220.031	0.3
220.249	0.73
220.467	0.56
220.686	0.29
220.904	0.02
221.122	0.3
221.341	0.78
221.559	0.15
221.777	0.16
221.995	0.25
222.214	0.61
222.432	0.15
222.65	0.57
222.868	0.32
223.086	0.37
223.305	0.38
223.523	0.32
223.741	0.61
223.959	0.3
224.177	0.05
224.395	0.17
224.613	0.4
224.831	0.56
225.049	0.27
225.267	0.26
225.485	0.3
225.703	0.28
225.921	0.35
226.139	0.31
226.357	0.46
226.575	0.35
226.793	0.25
227.011	0.94
227.229	0.28
227.447	0.52
227.665	0.21
227.883	0.09
228.1	0.29
228.318	0.32
228.536	-0.07
228.754	0.07
228.972	0.3
229.189	0.42
229.407	0.23
229.625	0.21
229.843	0.4
230.06	0.35
230.278	0.26
230.496	0.26
230.713	0.35
230.931	0.48
231.149	0.28
231.366	0.1
231.584	0.28
231.801	0.6
232.019	0.24
232.236	0.21
232.454	0.18
232.671	0.26
232.889	0.29
233.106	0.18
233.324	0.28
233.541	0.24
233.759	0.28
233.976	0.16
234.194	0.21
234.411	0.17
234.628	0.12
234.846	0.24
235.063	0.32
235.28	0.13
235.498	0.22
235.715	0.13
235.932	0.39
236.149	0.29
236.367	0.11
236.584	0.39
236.801	0.15
237.018	0.33
237.236	0.26
237.453	0.1
237.67	0.31
237.887	0.31
238.104	0.24
238.321	0.13
238.538	0.21
238.755	0.42
238.973	0.04
239.19	0.27
239.407	0.34
239.624	0.29
239.841	0.05
240.058	0.11
240.275	0.28
240.492	0.24
240.709	0.26
240.925	0.28
241.142	0.16
241.359	0.12
241.576	0.21
241.793	0.15
242.01	0.19
242.227	0.31
242.444	0.29
242.66	0.34
242.877	0.27
243.094	0.18
243.311	0.26
243.527	0.17
243.744	0.24
243.961	0.31
244.178	0.09
244.394	0.17
244.611	0.33
244.828	0.38
245.044	0.16
245.261	0.2
245.477	0.14
245.694	0.21
245.911	0.21
246.127	0.26
246.344	0.34
246.56	0.22
246.777	0.14
246.993	0.15
247.21	0.19
247.426	0.26
247.643	0.07
247.859	0.1
248.076	0.13
248.292	0.36
248.508	0.17
248.725	0.26
248.941	0.16
249.157	0.23
249.374	0.12
249.59	0.16
249.806	0.22
250.023	0.26
250.239	0.15
250.455	0.21
250.671	0.16
250.888	0.22
251.104	0.22
251.32	0.13
251.536	0.23
251.752	0.1
251.969	0.14
252.185	0.16
252.401	0.36
252.617	0.17
252.833	0.21
253.049	0.21
253.265	0.17
253.481	0.25
253.697	0.13
253.913	0.06
254.129	0.22
254.345	0.16
254.561	0.13
254.777	0.18
254.993	0.36
255.209	0.24
255.425	0.23
255.641	0.13
255.857	0.27
256.073	0.2
256.288	0.08
256.504	0.08
256.72	0.19
256.936	0.3
257.152	0.15
257.367	0.14
257.583	0.21
257.799	0.24
258.015	0.01
258.23	0.13
258.446	0.35
258.662	0.19
258.877	0.07
259.093	0.03
259.309	0.16
259.524	0.21
259.74	0.14
259.955	0.05
260.171	0.21
260.387	0.17
260.602	0.25
260.818	0.25
261.033	0.07
261.249	0.12
261.464	0.08
261.68	0.06
261.895	0.17
262.11	0.27
262.326	0.17
262.541	0.08
262.757	0.26
262.972	0.11
263.187	0.19
263.403	0.12
263.618	0.24
263.833	0.21
264.049	0.1
264.264	0.14
264.479	0.25
264.694	0.25
264.91	0.05
265.125	0.2
265.34	0.19
265.555	0.28
265.77	0.19
265.986	0.08
266.201	0.23
266.416	0.19
266.631	0.13
266.846	0.16
267.061	0.21
267.276	0.16
267.491	0.07
267.706	0.13
267.921	0.22
268.136	0.21
268.351	0.1
268.566	0.07
268.781	0.27
268.996	0.19
269.211	0.11
269.426	0.12
269.641	0.12
269.856	0.22
270.071	0.11
270.285	0.04
270.5	0.25
270.715	0.24
270.93	0.07
271.145	0.16
271.359	0.2
271.574	0.02
271.789	0.17
272.004	0.13
272.218	0.14
272.433	0.2
272.648	0.14
272.862	0.19
273.077	0.2
273.292	0.17
273.506	0.09
273.721	0.16
273.936	0.16
274.15	0.2
274.365	0.12
274.579	0.13
274.794	0.21
275.008	0.22
275.223	0.1
275.437	0.12
275.652	0.23
275.866	0.15
276.081	0.21
276.295	0.2
276.509	0.14
276.724	0.1
276.938	0.15
277.153	0.14
277.367	0.13
277.581	0.1
277.796	0.15
278.01	0.12
278.224	0.16
278.438	0.28
278.653	0.1
278.867	0.14
279.081	-0.02
279.295	0.09
279.51	0.17
279.724	0.04
279.938	0.2
280.152	0.16
280.366	0.04
280.58	0.16
280.794	0.18
281.008	0.2
281.222	0.19
281.437	0.29
281.651	0.19
281.865	0.25
282.079	0.06
282.293	0.09
282.507	0.08
282.721	0.12
282.935	0.13
283.148	0.04
283.362	0.13
283.576	0.06
283.79	0.11
284.004	0.11
284.218	0.2
284.432	0.1
284.646	0.17
284.859	0.11
285.073	0.04
285.287	0.09
285.501	0.16
285.714	0.15
285.928	0.15
286.142	0.16
286.356	0.11
286.569	0.07
286.783	0.2
286.997	0.14
287.21	0.09
287.424	0.16
287.637	0.16
287.851	0.08
288.065	0.14
288.278	0.1
288.492	0.11
288.705	0.11
288.919	0.19
289.132	0.08
289.346	0.22
289.559	0.06
289.773	0.07
289.986	0.14
290.2	0.14
290.413	0.21
290.626	0.08
290.84	0.17
291.053	0.11
291.267	0.17
291.48	0.13
291.693	0.14
291.906	0.11
292.12	0.08
292.333	0.05
292.546	0.08
292.76	0.22
292.973	0.1
293.186	0.14
293.399	0.1
293.612	0.17
293.826	0.17
294.039	0.12
294.252	0.14
294.465	0.19
294.678	0.12
294.891	0.1
295.104	0.09
295.317	0.15
295.53	0.12
295.743	0.07
295.956	0.12
296.169	0.22
296.382	0.15
296.595	0.12
296.808	0.06
297.021	0.25
297.234	0.17
297.447	0.1
297.66	0.1
297.873	0.15
298.086	0.15
298.299	0.04
298.511	0.06
298.724	0.09
298.937	0.09
299.15	0.11
299.363	0.16
299.575	0.14
299.788	0.14
300.001	0.09
300.213	0.02
300.426	0.13
300.639	0.06
300.852	0.06
301.064	0.15
301.277	0.18
301.489	0.17
301.702	0.17
301.915	0.17
302.127	0.17
302.34	0.16
302.552	0.16
302.765	0.08
302.977	0.16
303.19	0.1
303.402	0.12
303.615	0.14
303.827	0.07
304.04	0.13
304.252	0.1
304.464	0.08
304.677	0.2
304.889	0.17
305.102	0.12
305.314	0.13
305.526	0.18
305.739	0.13
305.951	0.11
306.163	0.11
306.375	0.17
306.588	0.09
306.8	0.08
307.012	0.07
307.224	0.12
307.436	0.17
307.649	0.02
307.861	0.13
308.073	0.14
308.285	0.1
308.497	0.07
308.709	0.09
308.921	0.12
309.133	0.11
309.346	0.07
309.558	0.13
309.77	0.14
309.982	0.2
310.194	0.15
310.406	0.07
310.617	0.21
310.829	0.12
311.041	0.13
311.253	0.04
311.465	0.1
311.677	0.1
311.889	0.14
312.101	0.11
312.313	0.14
312.524	0.14
312.736	0.05
312.948	0.09
313.16	0.19
313.372	0.17
313.583	0.13
313.795	0.15
314.007	0.09
314.218	0.11
314.43	0.11
314.642	0.12
314.853	0.07
315.065	0.1
315.277	0.07
315.488	0.14
315.7	0.15
315.912	0.11
316.123	0.06
316.335	0.13
316.546	0.19
316.758	0.1
316.969	0.11
317.181	0.12
317.392	0.13
317.604	0.17
317.815	0.08
318.026	0.09
318.238	0.1
318.449	0.12
318.661	0.07
318.872	0.05
319.083	0.09
319.295	0.1
319.506	0.07
319.717	0.16
319.929	0.15
320.14	0.11
320.351	0.12
320.562	0.12
320.774	0.15
320.985	0.06
321.196	0.06
321.407	0.02
321.618	0.14
321.829	0.15
322.041	0.16
322.252	0.11
322.463	0.14
322.674	0.12
322.885	0.1
323.096	0.11
323.307	0.11
323.518	0.09
323.729	0.09
323.94	0.05
324.151	0.08
324.362	0.12
324.573	0.1
324.784	0.08
324.995	0.16
325.206	0.16
325.417	0.08
325.628	0.07
325.838	0.09
326.049	0.12
326.26	0.16
326.471	0.12
326.682	0.14
326.892	0.12
327.103	0.05
327.314	0.06
327.525	0.17
327.735	0.11
327.946	0.11
328.157	0.08
328.368	0.15
328.578	0.08
328.789	0.15
328.999	0.15
329.21	0.11
329.421	0.14
329.631	0.07
329.842	0.09
330.052	0.15
330.263	0.15
330.473	0.12
330.684	0.11
330.894	0.11
331.105	0.12
331.315	0.11
331.526	0.06
331.736	0.18
331.947	0.14
332.157	0.13
332.367	0.07
332.578	0.11
332.788	0.16
332.999	0.13
333.209	0.12
333.419	0.1
333.629	0.15
333.84	0.14
334.05	0.12
334.26	0.18
334.47	0.11
334.681	0.16
334.891	0.09
335.101	0.16
335.311	0.18
335.521	0.11
335.732	0.09
335.942	0.18
336.152	0.14
336.362	0.11
336.572	0.13
336.782	0.13
336.992	0.09
337.202	0.1
337.412	0.11
337.622	0.12
337.832	0.09
338.042	0.11
338.252	0.02
338.462	0.08
338.672	0.12
338.882	0.11
339.092	0.04
339.302	0.19
339.511	0.12
339.721	0.06
339.931	0.05
340.141	0.18
340.351	0.16
340.561	0.11
340.77	0.16
340.98	0.1
341.19	0.15
341.4	0.11
341.609	0.09
341.819	0.12
342.029	0.03
342.238	0.08
342.448	0.08
342.658	0.12
342.867	0.16
343.077	0.11
343.286	0.13
343.496	0.08
343.706	0.18
343.915	0.03
344.125	0.11
344.334	0.17
344.544	0.02
344.753	0.08
344.963	0.09
345.172	0.09
345.381	0.09
345.591	0.06
345.8	0.1
346.01	0.15
346.219	0.13
346.428	-0.01
346.638	0.09
346.847	0.13
347.056	0.17
347.266	0.1
347.475	0.13
347.684	0.13
347.893	0.16
348.103	0.13
348.312	0.07
348.521	0.05
348.73	0.09
348.94	0.14
349.149	0.09
349.358	0.07
349.567	0.07
349.776	0.06
349.985	0.06
350.194	0.13
350.403	0.16
350.612	0.06
350.821	0.09
351.03	0.14
351.239	0.03
351.448	0.09
351.657	0.05
351.866	0.17
352.075	0.12
352.284	0.12
352.493	0.07
352.702	0.14
352.911	0.09
353.12	0.12
353.329	0.09
353.538	0.14
353.746	0.12
353.955	0.09
354.164	0.12
354.373	0.12
354.582	0.1
354.79	0.12
354.999	0.16
355.208	0.08
355.416	0.18
355.625	0.05
355.834	0.11
356.042	0.16
356.251	0.09
356.46	0.08
356.668	0.09
356.877	0.18
357.085	0.18
357.294	0.04
357.503	0.14
357.711	0.1
357.92	0.23
358.128	0.17
358.337	0.07
358.545	0.1
358.754	0.11
358.962	0.11
359.17	0.12
359.379	0.14
359.587	0.14
359.796	0.08
360.004	0.17
360.212	0.11
360.421	0.15
360.629	0.11
360.837	0.12
361.046	0.13
361.254	0.26
361.462	0.13
361.67	0.06
361.879	0.12
362.087	0.17
362.295	0.1
362.503	0.08
362.711	0.07
362.92	0.1
363.128	0.06
363.336	0.09
363.544	0.06
363.752	0.11
363.96	0.07
364.168	0.06
364.376	0.11
364.584	0.12
364.792	0.13
365	0.12
365.208	0.12
365.416	0.15
365.624	0.16
365.832	0.13
366.04	0.17
366.248	0.12
366.456	0.12
366.664	0.12
366.872	0.09
367.079	0.1
367.287	0.13
367.495	0.13
367.703	0.12
367.911	0.08
368.118	0.11
368.326	0.1
368.534	0.06
368.742	0.15
368.949	0.05
369.157	0.1
369.365	0.17
369.572	0.09
369.78	0.1
369.988	0.16
370.195	0.13
370.403	0.14
370.61	0.11
370.818	0.12
371.026	0.13
371.233	0.11
371.441	0.1
371.648	0.11
371.856	0.1
372.063	0.11
372.271	0.08
372.478	0.13
372.685	0.09
372.893	0.15
373.1	0.07
373.308	0.09
373.515	0.18
373.722	0.13
373.93	0.1
374.137	0.13
374.344	0.17
374.552	0.17
374.759	0.14
374.966	0.13
375.173	0.1
375.381	0.17
375.588	0.08
375.795	0.1
376.002	0.11
376.209	0.08
376.417	0.13
376.624	0.11
376.831	0.1
377.038	0.1
377.245	0.04
377.452	0.11
377.659	0.1
377.866	0.11
378.073	0.1
378.28	0.1
378.487	0.15
378.694	0.14
378.901	0.1
379.108	0.07
379.315	0.14
379.522	0.18
379.729	0.15
379.936	0.11
380.143	0.12
380.35	0.16
380.557	0.09
380.763	0.13
380.97	0.16
381.177	0.16
381.384	0.15
381.591	0.07
381.797	0.09
382.004	0.13
382.211	0.14
382.418	0.13
382.624	0.17
382.831	0.1
383.038	0.12
383.244	0.15
383.451	0.09
383.658	0.18
383.864	0.11
384.071	0.07
384.277	0.19
384.484	0.11
384.69	0.17
384.897	0.08
385.103	0.11
385.31	0.13
385.516	0.1
385.723	0.08
385.929	0.11
386.136	0.09
386.342	0.11
386.549	0.07
386.755	0.19
386.961	0.1
387.168	0.11
387.374	0.12
387.58	0.16
387.787	0.12
387.993	0.07
388.199	0.13
388.406	0.11
388.612	0.11
388.818	0.07
389.024	0.08
389.231	0.15
389.437	0.2
389.643	0.14
389.849	0.13
390.055	0.17
390.261	0.13
390.467	0.14
390.674	0.07
390.88	0.12
391.086	0.16
391.292	0.07
391.498	0.11
391.704	0.16
391.91	0.14
392.116	0.12
392.322	0.08
392.528	0.12
392.734	0.12
392.94	0.14
393.146	0.13
393.352	0.12
393.557	0.15
393.763	0.1
393.969	0.21
394.175	0.14
394.381	0.13
394.587	0.07
394.792	0.14
394.998	0.17
395.204	0.2
395.41	0.13
395.615	0.12
395.821	0.13
396.027	0.14
396.233	0.12
396.438	0.11
396.644	0.22
396.85	0.14
397.055	0.13
397.261	0.15
397.466	0.2
397.672	0.12
397.878	0.21
398.083	0.18
398.289	0.14
398.494	0.22
398.7	0.16
398.905	0.08
399.111	0.24
399.316	0.12
399.522	0.17
399.727	0.13
399.932	0.12
400.138	0.13
400.343	0.19
400.549	0.14
400.754	0.14
400.959	0.22
401.165	0.12
401.37	0.14
401.575	0.24
401.78	0.11
401.986	0.1
402.191	0.11
402.396	0.15
402.601	0.19
402.807	0.13
403.012	0.13
403.217	0.23
403.422	0.17
403.627	0.09
403.832	0.12
404.037	0.21
404.243	0.15
404.448	0.12
404.653	0.11
404.858	0.11
405.063	0.18
405.268	0.08
405.473	0.09
405.678	0.13
405.883	0.27
406.088	0.19
406.293	0.11
406.498	0.14
406.703	0.17
406.907	0.15
407.112	0.08
407.317	0.16
407.522	0.22
407.727	0.09
407.932	0.19
408.136	0.19
408.341	0.17
408.546	0.18
408.751	0.18
408.956	0.09
409.16	0.23
409.365	0.14
409.57	0.14
409.774	0.15
409.979	0.18
410.184	0.14
410.388	0.13
410.593	0.2
410.798	0.15
411.002	0.16
411.207	0.19
411.411	0.16
411.616	0.18
411.82	0.16
412.025	0.18
412.229	0.12
412.434	0.21
412.638	0.19
412.843	0.15
413.047	0.18
413.252	0.19
413.456	0.14
413.66	0.18
413.865	0.17
414.069	0.21
414.273	0.16
414.478	0.16
414.682	0.17
414.886	0.18
415.091	0.12
415.295	0.1
415.499	0.2
415.703	0.09
415.908	0.2
416.112	0.11
416.316	0.21
416.52	0.16
416.724	0.14
416.929	0.12
417.133	0.25
417.337	0.13
417.541	0.1
417.745	0.14
417.949	0.19
418.153	0.2
418.357	0.06
418.561	0.25
418.765	0.16
418.969	0.28
419.173	0.18
419.377	0.15
419.581	0.33
419.785	0.14
419.989	0.14
420.193	0.12
420.397	0.2
420.601	0.23
420.804	0.29
421.008	0.14
421.212	0.19
421.416	0.18
421.62	0.1
421.823	0.17
422.027	0.29
422.231	0.19
422.435	0.13
422.638	0.2
422.842	0.18
423.046	0.12
423.249	0.19
423.453	0.24
423.657	0.18
423.86	0.16
424.064	0.18
424.268	0.27
424.471	0.17
424.675	0.24
424.878	0.27
425.082	0.2
425.285	0.26
425.489	0.2
425.692	0.2
425.896	0.15
426.099	0.18
426.303	0.16
426.506	0.1
426.71	0.29
426.913	0.26
427.116	0.24
427.32	0.21
427.523	0.19
427.726	0.29
427.93	0.1
428.133	0.23
428.336	0.16
428.54	0.13
428.743	0.21
428.946	0.23
429.149	0.19
429.353	0.22
429.556	0.25
429.759	0.24
429.962	0.13
430.165	0.17
430.368	0.21
430.571	0.17
430.775	0.21
430.978	0.17
431.181	0.18
431.384	0.17
431.587	0.11
431.79	0.14
431.993	0.24
432.196	0.18
432.399	0.18
432.602	0.26
432.805	0.2
433.008	0.21
433.211	0.13
433.414	0.22
433.616	0.25
433.819	0.19
434.022	0.11
434.225	0.26
434.428	0.23
434.631	0.33
434.833	0.24
435.036	0.22
435.239	0.27
435.442	0.25
435.645	0.17
435.847	0.22
436.05	0.28
436.253	0.25
436.455	0.13
436.658	0.18
436.861	0.3
437.063	0.16
437.266	0.19
437.468	0.19
437.671	0.32
437.874	0.18
438.076	0.16
438.279	0.14
438.481	0.23
438.684	0.16
438.886	0.22
439.089	0.15
439.291	0.24
439.494	0.22
439.696	0.15
439.899	0.22
440.101	0.26
440.303	0.15
440.506	0.26
440.708	0.17
440.91	0.22
441.113	0.18
441.315	0.24
441.517	0.19
441.72	0.25
441.922	0.2
442.124	0.17
442.326	0.21
442.529	0.3
442.731	0.19
442.933	0.29
443.135	0.2
443.337	0.2
443.539	0.18
443.742	0.21
443.944	0.22
444.146	0.2
444.348	0.24
444.55	0.22
444.752	0.23
444.954	0.15
445.156	0.22
445.358	0.21
445.56	0.26
445.762	0.23
445.964	0.24
446.166	0.23
446.368	0.19
446.57	0.28
446.772	0.23
446.974	0.19
447.175	0.23
447.377	0.2
447.579	0.2
447.781	0.15
447.983	0.32
448.184	0.24
448.386	0.24
448.588	0.16
448.79	0.26
448.991	0.23
449.193	0.21
449.395	0.25
449.597	0.31
449.798	0.22
450	0.25
450.202	0.27
450.403	0.24
450.605	0.29
450.806	0.23
451.008	0.21
451.21	0.21
451.411	0.3
451.613	0.23
451.814	0.26
452.016	0.25
452.217	0.24
452.419	0.29
452.62	0.27
452.821	0.28
453.023	0.32
453.224	0.29
453.426	0.26
453.627	0.3
453.828	0.28
454.03	0.3
454.231	0.26
454.432	0.2
454.634	0.35
454.835	0.25
455.036	0.2
455.238	0.29
455.439	0.37
455.64	0.25
455.841	0.23
456.042	0.36
456.244	0.31
456.445	0.27
456.646	0.25
456.847	0.31
457.048	0.34
457.249	0.39
457.45	0.54
457.651	0.23
457.852	0.3
458.054	0.28
458.255	0.3
458.456	0.36
458.657	0.35
458.858	0.33
459.058	0.32
459.259	0.36
459.46	0.31
459.661	0.29
459.862	0.45
460.063	0.26
460.264	0.37
460.465	0.28
460.666	0.45
460.866	0.33
461.067	0.34
461.268	0.34
461.469	0.33
461.67	0.34
461.87	0.3
462.071	0.3
462.272	0.3
462.473	0.37
462.673	0.42
462.874	0.3
463.075	0.4
463.275	0.33
463.476	0.35
463.676	0.41
463.877	0.4
464.078	0.38
464.278	0.42
464.479	0.4
464.679	0.43
464.88	0.4
465.08	0.54
465.281	0.4
465.481	0.36
465.682	0.34
465.882	0.42
466.083	0.39
466.283	0.46
466.483	0.45
466.684	0.36
466.884	0.37
467.085	0.43
467.285	0.44
467.485	0.42
467.686	0.39
467.886	0.41
468.086	0.44
468.286	0.41
468.487	0.51
468.687	0.39
468.887	0.46
469.087	0.54
469.287	0.47
469.488	0.38
469.688	0.51
469.888	0.55
470.088	0.5
470.288	0.55
470.488	0.56
470.688	0.5
470.888	0.48
471.088	0.47
471.288	0.6
471.488	0.51
471.688	0.64
471.888	0.57
472.088	0.65
472.288	0.64
472.488	0.6
472.688	0.57
472.888	0.66
473.088	0.61
473.288	0.65
473.488	0.63
473.688	0.78
473.887	0.69
474.087	0.66
474.287	0.7
474.487	0.7
474.687	0.74
474.886	0.7
475.086	0.72
475.286	0.73
475.486	0.75
475.685	0.77
475.885	0.75
476.085	0.8
476.284	0.84
476.484	0.83
476.684	0.84
476.883	0.93
477.083	0.86
477.282	0.9
477.482	0.91
477.681	0.94
477.881	0.9
478.08	0.9
478.28	0.92
478.479	1.03
478.679	1.06
478.878	0.96
479.078	1.01
479.277	1.02
479.477	1.05
479.676	1.12
479.875	1.06
480.075	1.08
480.274	1.09
480.473	1.19
480.673	1.15
480.872	1.24
481.071	1.25
481.271	1.29
481.47	1.25
481.669	1.27
481.868	1.27
482.067	1.3
482.267	1.29
482.466	1.33
482.665	1.33
482.864	1.38
483.063	1.41
483.262	1.49
483.461	1.56
483.661	1.61
483.86	1.55
484.059	1.66
484.258	1.63
484.457	1.66
484.656	1.67
484.855	1.74
485.054	1.69
485.253	1.69
485.452	1.72
485.651	1.83
485.849	1.84
486.048	1.87
486.247	1.94
486.446	1.99
486.645	1.98
486.844	2.04
487.043	2.06
487.241	2.12
487.44	2.13
487.639	2.21
487.838	2.21
488.037	2.2
488.235	2.37
488.434	2.36
488.633	2.29
488.831	2.5
489.03	2.47
489.229	2.51
489.427	2.56
489.626	2.63
489.825	2.64
490.023	2.72
490.222	2.72
490.42	2.77
490.619	2.93
490.817	2.92
491.016	2.94
491.214	2.98
491.413	3.03
491.611	3.05
491.81	3.07
492.008	3.17
492.207	3.31
492.405	3.28
492.604	3.27
492.802	3.4
493	3.48
493.199	3.52
493.397	3.61
493.595	3.72
493.794	3.67
493.992	3.85
494.19	3.89
494.388	4.02
494.587	3.95
494.785	4.05
494.983	4
495.181	4.2
495.379	4.31
495.578	4.37
495.776	4.38
495.974	4.46
496.172	4.5
496.37	4.7
496.568	4.77
496.766	4.76
496.964	4.95
497.162	5.03
497.36	5.16
497.558	5.17
497.756	5.24
497.954	5.33
498.152	5.48
498.35	5.69
498.548	5.58
498.746	5.68
498.944	5.74
499.142	5.79
499.34	5.99
499.538	6.17
499.736	6.12
499.933	6.27
500.131	6.34
500.329	6.6
500.527	6.63
500.725	6.91
500.922	6.91
501.12	7.01
501.318	7.15
501.516	7.2
501.713	7.35
501.911	7.43
502.109	7.49
502.306	7.71
502.504	7.66
502.701	7.85
502.899	8.04
503.097	8.4
503.294	8.15
503.492	8.54
503.689	8.66
503.887	8.65
504.084	8.85
504.282	8.92
504.479	8.95
504.677	9.36
504.874	9.39
505.072	9.27
505.269	9.77
505.466	9.85
505.664	9.96
505.861	9.9
506.059	10.25
506.256	10.3
506.453	10.54
506.651	10.66
506.848	11.01
507.045	10.87
507.242	10.91
507.44	11.2
507.637	11.44
507.834	11.4
508.031	11.76
508.229	11.7
508.426	11.69
508.623	12.13
508.82	12.28
509.017	12.26
509.214	12.27
509.411	12.71
509.608	12.63
509.805	13.04
510.003	13.07
510.2	13.21
510.397	13.53
510.594	13.49
510.791	13.73
510.988	13.77
511.184	13.78
511.381	13.54
511.578	14.1
511.775	14.38
511.972	14.2
512.169	14.47
512.366	14.55
512.563	14.9
512.76	15.07
512.956	15.12
513.153	15.08
513.35	14.94
513.547	15.1
513.744	15.4
513.94	15.51
514.137	15.66
514.334	15.65
514.53	15.84
514.727	16.29
514.924	15.94
515.12	16.04
515.317	16.2
515.514	16.07
515.71	16.01
515.907	16.64
516.103	16.44
516.3	16.32
516.497	16.63
516.693	16.6
516.89	16.73
517.086	16.82
517.283	16.76
517.479	16.47
517.676	17.06
517.872	17.04
518.068	17.06
518.265	16.95
518.461	16.83
518.658	17.14
518.854	17.01
519.05	17.32
519.247	17.24
519.443	17.05
519.639	17.28
519.836	17.01
520.032	16.81
520.228	17.16
520.424	16.95
520.621	17.03
520.817	17.2
521.013	16.91
521.209	17.26
521.405	17.09
521.601	16.91
521.798	16.86
521.994	16.68
522.19	16.66
522.386	16.64
522.582	16.76
522.778	16.97
522.974	16.48
523.17	16.51
523.366	16.35
523.562	16.36
523.758	16.31
523.954	15.92
524.15	16.14
524.346	16.12
524.542	16.06
524.738	15.91
524.934	16.01
525.129	15.79
525.325	15.5
525.521	15.33
525.717	15.67
525.913	15.14
526.109	15.2
526.304	15.25
526.5	15.12
526.696	15.06
526.892	14.78
527.087	15.08
527.283	14.74
527.479	14.54
527.674	14.15
527.87	14.39
528.066	14.21
528.261	14.09
528.457	13.75
528.653	14.05
528.848	13.86
529.044	13.84
529.239	13.29
529.435	13.26
529.63	13.1
529.826	12.92
530.021	12.88
530.217	12.94
530.412	12.7
530.608	12.62
530.803	12.49
530.999	12.19
531.194	12.33
531.389	12.2
531.585	12.1
531.78	12.18
531.975	11.8
532.171	11.75
532.366	11.67
532.561	11.5
532.757	11.32
532.952	11.48
533.147	10.96
533.342	11.1
533.538	10.82
533.733	11.01
533.928	10.45
534.123	10.63
534.318	10.57
534.513	10.36
534.709	10.38
534.904	10.22
535.099	10.22
535.294	10.08
535.489	9.98
535.684	9.75
535.879	9.69
536.074	9.58
536.269	9.5
536.464	9.42
536.659	9.22
536.854	9.12
537.049	9.15
537.244	8.97
537.439	8.97
537.634	8.83
537.828	8.72
538.023	8.7
538.218	8.54
538.413	8.35
538.608	8.33
538.803	8.24
538.997	8.11
539.192	8.08
539.387	7.94
539.582	7.89
539.776	7.72
539.971	7.82
540.166	7.72
540.36	7.54
540.555	7.54
540.75	7.46
540.944	7.37
541.139	7.28
541.334	7.16
541.528	7.13
541.723	7.08
541.917	7
542.112	6.82
542.306	6.71
542.501	6.7
542.695	6.65
542.89	6.5
543.084	6.45
543.279	6.45
543.473	6.37
543.668	6.37
543.862	6.16
544.056	6.06
544.251	6.1
544.445	6.09
544.64	6.03
544.834	5.72
545.028	5.55
545.222	5.8
545.417	5.76
545.611	5.65
545.805	5.58
546	5.39
546.194	5.42
546.388	5.43
546.582	5.28
546.776	5.17
546.97	5.19
547.165	5.06
547.359	5.05
547.553	4.92
547.747	4.87
547.941	4.92
548.135	4.77
548.329	4.79
548.523	4.69
548.717	4.57
548.911	4.51
549.105	4.47
549.299	4.48
549.493	4.43
549.687	4.31
549.881	4.32
550.075	4.27
550.269	4.14
550.463	4.13
550.657	4.06
550.85	4.06
551.044	4
551.238	3.92
551.432	3.86
551.626	3.85
551.82	3.81
552.013	3.67
552.207	3.7
552.401	3.68
552.594	3.6
552.788	3.5
552.982	3.51
553.176	3.39
553.369	3.5
553.563	3.39
553.756	3.29
553.95	3.29
554.144	3.27
554.337	3.27
554.531	3.14
554.724	3.12
554.918	3.09
555.111	3.07
555.305	3
555.498	2.99
555.692	2.97
555.885	2.87
556.079	2.82
556.272	2.81
556.466	2.8
556.659	2.74
556.852	2.69
557.046	2.67
557.239	2.63
557.432	2.56
557.626	2.54
557.819	2.55
558.012	2.5
558.206	2.56
558.399	2.44
558.592	2.39
558.785	2.34
558.979	2.38
559.172	2.34
559.365	2.3
559.558	2.26
559.751	2.2
559.944	2.19
560.138	2.21
560.331	2.17
560.524	2.1
560.717	2.08
560.91	2.06
561.103	2.05
561.296	2.01
561.489	2.04
561.682	1.97
561.875	1.97
562.068	1.97
562.261	1.9
562.454	1.94
562.647	1.84
562.84	1.84
563.032	1.82
563.225	1.78
563.418	1.74
563.611	1.73
563.804	1.71
563.997	1.63
564.19	1.59
564.382	1.68
564.575	1.58
564.768	1.61
564.961	1.6
565.153	1.54
565.346	1.54
565.539	1.59
565.731	1.52
565.924	1.52
566.117	1.52
566.309	1.49
566.502	1.45
566.695	1.4
566.887	1.44
567.08	1.36
567.272	1.39
567.465	1.31
567.657	1.37
567.85	1.36
568.042	1.32
568.235	1.34
568.427	1.26
568.62	1.29
568.812	1.26
569.005	1.22
569.197	1.16
569.389	1.21
569.582	1.17
569.774	1.18
569.966	1.12
570.159	1.1
570.351	1.13
570.543	1.09
570.736	1.1
570.928	1.04
571.12	1.04
571.312	1
571.505	1
571.697	1.04
571.889	1.01
572.081	0.99
572.273	0.99
572.465	1.05
572.658	0.98
572.85	1
573.042	0.95
573.234	0.94
573.426	0.93
573.618	0.89
573.81	0.9
574.002	0.91
574.194	0.89
574.386	0.79
574.578	0.81
574.77	0.82
574.962	0.83
575.154	0.78
575.346	0.81
575.538	0.8
575.729	0.8
575.921	0.78
576.113	0.76
576.305	0.8
576.497	0.73
576.689	0.75
576.88	0.69
577.072	0.77
577.264	0.72
577.456	0.7
577.647	0.66
577.839	0.72
578.031	0.71
578.223	0.65
578.414	0.63
578.606	0.68
578.798	0.66
578.989	0.62
579.181	0.64
579.372	0.65
579.564	0.61
579.755	0.63
579.947	0.62
580.139	0.63
580.33	0.55
580.522	0.58
580.713	0.52
580.905	0.55
581.096	0.59
581.287	0.58
581.479	0.58
581.67	0.57
581.862	0.53
582.053	0.57
582.244	0.49
582.436	0.52
582.627	0.52
582.818	0.48
583.01	0.48
583.201	0.51
583.392	0.53
583.583	0.51
583.775	0.47
583.966	0.49
584.157	0.47
584.348	0.48
584.54	0.41
584.731	0.46
584.922	0.45
585.113	0.44
585.304	0.46
585.495	0.48
585.686	0.44
585.877	0.47
586.068	0.46
586.259	0.44
586.45	0.45
586.641	0.4
586.832	0.36
587.023	0.4
587.214	0.39
587.405	0.42
587.596	0.38
587.787	0.43
587.978	0.42
588.169	0.37
588.36	0.34
588.551	0.39
588.742	0.37
588.932	0.41
589.123	0.33
589.314	0.41
589.505	0.36
589.696	0.36
589.886	0.33
590.077	0.31
590.268	0.36
590.458	0.33
590.649	0.29
590.84	0.36
591.03	0.3
591.221	0.33
591.412	0.3
591.602	0.36
591.793	0.36
591.984	0.28
592.174	0.31
592.365	0.38
592.555	0.29
592.746	0.29
592.936	0.3
593.127	0.28
593.317	0.32
593.508	0.26
593.698	0.31
593.889	0.3
594.079	0.28
594.269	0.28
594.46	0.26
594.65	0.3
594.84	0.28
595.031	0.24
595.221	0.27
595.411	0.24
595.602	0.3
595.792	0.26
595.982	0.27
596.172	0.34
596.363	0.26
596.553	0.23
596.743	0.28
596.933	0.24
597.123	0.26
597.314	0.23
597.504	0.21
597.694	0.28
597.884	0.27
598.074	0.24
598.264	0.22
598.454	0.22
598.644	0.21
598.834	0.27
599.024	0.17
599.214	0.2
599.404	0.24
599.594	0.21
599.784	0.22
599.974	0.26
600.164	0.26
600.354	0.16
600.544	0.19
600.734	0.24
600.924	0.26
601.114	0.2
601.303	0.19
601.493	0.22
601.683	0.2
601.873	0.23
602.063	0.17
602.252	0.24
602.442	0.14
602.632	0.19
602.821	0.16
603.011	0.2
603.201	0.19
603.39	0.18
603.58	0.18
603.77	0.21
603.959	0.2
604.149	0.2
604.339	0.18
604.528	0.21
604.718	0.23
604.907	0.17
605.097	0.18
605.286	0.15
605.476	0.18
605.665	0.21
605.855	0.16
606.044	0.21
606.234	0.19
606.423	0.19
606.612	0.13
606.802	0.15
606.991	0.2
607.181	0.19
607.37	0.17
607.559	0.17
607.749	0.13
607.938	0.16
608.127	0.16
608.316	0.16
608.506	0.17
608.695	0.16
608.884	0.16
609.073	0.17
609.263	0.18
609.452	0.19
609.641	0.18
609.83	0.13
610.019	0.14
610.208	0.13
610.397	0.17
610.586	0.19
610.775	0.13
610.965	0.12
611.154	0.15
611.343	0.16
611.532	0.15
611.721	0.12
611.91	0.13
612.099	0.18
612.287	0.15
612.476	0.13
612.665	0.14
612.854	0.13
613.043	0.19
613.232	0.15
613.421	0.11
613.61	0.14
613.798	0.12
613.987	0.19
614.176	0.15
614.365	0.14
614.554	0.14
614.742	0.16
614.931	0.11
615.12	0.16
615.309	0.12
615.497	0.17
615.686	0.12
615.875	0.13
616.063	0.13
616.252	0.13
616.44	0.12
616.629	0.1
616.818	0.17
617.006	0.14
617.195	0.12
617.383	0.14
617.572	0.16
617.76	0.12
617.949	0.14
618.137	0.16
618.326	0.15
618.514	0.1
618.703	0.1
618.891	0.2
619.079	0.11
619.268	0.15
619.456	0.11
619.644	0.17
619.833	0.15
620.021	0.14
620.209	0.1
620.398	0.16
620.586	0.13
620.774	0.16
620.962	0.13
621.151	0.19
621.339	0.16
621.527	0.06
621.715	0.1
621.903	0.08
622.092	0.09
622.28	0.14
622.468	0.12
622.656	0.11
622.844	0.13
623.032	0.12
623.22	0.1
623.408	0.15
623.596	0.14
623.784	0.17
623.972	0.1
624.16	0.14
624.348	0.16
624.536	0.12
624.724	0.13
624.912	0.18
625.1	0.17
625.288	0.1
625.476	0.07
625.664	0.17
625.851	0.09
626.039	0.13
626.227	0.14
626.415	0.12
626.603	0.04
626.79	0.13
626.978	0.09
627.166	0.11
627.354	0.13
627.541	0.08
627.729	0.05
627.917	0.14
628.104	0.16
628.292	0.12
628.48	0.12
628.667	0.13
628.855	0.1
629.042	0.15
629.23	0.08
629.418	0.13
629.605	0.13
629.793	0.08
629.98	0.1
630.168	0.07
630.355	0.11
630.543	0.14
630.73	0.09
630.917	0.12
631.105	0.17
631.292	0.1
631.48	0.12
631.667	0.19
631.854	0.11
632.042	0.09
632.229	0.06
632.416	0.1
632.604	0.11
632.791	0.08
632.978	0.15
633.165	0.13
633.353	0.16
633.54	0.13
633.727	0.02
633.914	0.08
634.101	0.04
634.289	0.16
634.476	0.08
634.663	0.08
634.85	0.13
635.037	0.09
635.224	0.06
635.411	0.19
635.598	0.16
635.785	0.11
635.972	0.1
636.159	0.14
636.346	0.06
636.533	0.09
636.72	0.1
636.907	0.09
637.094	0.11
637.281	0.09
637.468	0.14
637.655	0.08
637.842	0.12
638.029	0.06
638.215	0.14
638.402	0.08
638.589	0.06
638.776	0.08
638.963	0.08
639.149	0.15
639.336	0.14
639.523	0.1
639.709	0.09
639.896	0.07
640.083	0.13
640.27	0.13
640.456	0.08
640.643	0.1
640.829	0.06
641.016	0.08
641.203	0.07
641.389	0.14
641.576	0.11
641.762	0.12
641.949	0.05
642.135	0.14
642.322	0.12
642.508	0.04
642.695	0.09
642.881	0.07
643.068	0.08
643.254	0.08
643.441	0.14
643.627	0.09
643.813	0.07
644	0.13
644.186	0.09
644.372	0.03
644.559	0.16
644.745	0.1
644.931	0.07
645.118	0.1
645.304	0.08
645.49	0.1
645.676	0.09
645.862	0.09
646.049	0.13
646.235	0.09
646.421	0.16
646.607	0.16
646.793	0.07
646.979	0.07
647.165	0.12
647.352	0.09
647.538	0.14
647.724	0.09
647.91	0.09
648.096	0.13
648.282	0.13
648.468	0.07
648.654	0.09
648.84	0.12
649.026	0.1
649.212	0.08
649.397	0.09
649.583	0.04
649.769	0.11
649.955	0.09
650.141	0.13
650.327	0.13
650.513	0.08
650.698	0.13
650.884	0.04
651.07	0.11
651.256	0.09
651.442	0.09
651.627	0.08
651.813	0.13
651.999	0.13
652.184	0.09
652.37	0.07
652.556	0.07
652.741	0.13
652.927	0.04
653.113	0.07
653.298	0.07
653.484	0.09
653.669	0.08
653.855	0.09
654.04	0.12
654.226	0.1
654.412	0.06
654.597	0.07
654.782	0.07
654.968	0.15
655.153	0.1
655.339	0.08
655.524	0.08
655.71	0.12
655.895	0.09
656.08	0.1
656.266	0.12
656.451	0.1
656.636	0.05
656.822	0.1
657.007	0.08
657.192	0.08
657.378	0.05
657.563	0.1
657.748	0.11
657.933	0.14
658.118	0.04
658.304	0.06
658.489	0.11
658.674	0.12
658.859	0.05
659.044	0.11
659.229	0.11
659.414	0.05
659.599	0.09
659.785	0.08
659.97	0.08
660.155	0.09
660.34	0.06
660.525	0.14
660.71	0.08
660.895	0.12
661.08	0.08
661.264	0.09
661.449	0.16
661.634	0.14
661.819	0.12
662.004	0.15
662.189	0.06
662.374	0.08
662.559	0.09
662.743	0.02
662.928	0.13
663.113	0.1
663.298	0.05
663.483	0.1
663.667	0.14
663.852	0.02
664.037	0.17
664.221	0.07
664.406	0.13
664.591	0.13
664.775	0.1
664.96	0.13
665.145	0.11
665.329	0.08
665.514	0.07
665.698	0.08
665.883	0.03
666.068	0.2
666.252	0.12
666.437	0.09
666.621	0.13
666.806	0.13
666.99	0.13
667.174	0.07
667.359	0.16
667.543	0.1
667.728	0.11
667.912	0.08
668.096	0.1
668.281	0.1
668.465	0.1
668.649	0.11
668.834	0.09
669.018	0.15
669.202	0.14
669.387	0.09
669.571	0.16
669.755	0.1
669.939	0.09
670.124	0.08
670.308	0.14
670.492	0.15
670.676	0.1
670.86	0.12
671.044	0.05
671.228	0.16
671.413	0.12
671.597	0.06
671.781	0.09
671.965	0.15
672.149	0.08
672.333	0.13
672.517	0.07
672.701	0.1
672.885	0.13
673.069	0.09
673.253	0.17
673.437	0.18
673.621	0.06
673.804	0.12
673.988	0.1
674.172	0.16
674.356	0.08
674.54	0.1
674.724	0.23
674.908	0.11
675.091	0.16
675.275	0.13
675.459	0.14
675.643	0.13
675.826	0.15
676.01	0.13
676.194	0.13
676.377	0.2
676.561	0.13
676.745	0.15
676.928	0.14
677.112	0.17
677.296	0.12
677.479	0.11
677.663	0.08
677.846	0.17
678.03	0.12
678.213	0.11
678.397	0.15
678.58	0.13
678.764	0.12
678.947	0.07
679.131	0.08
679.314	0.18
679.498	0.12
679.681	0.16
679.865	0.22
680.048	0.15
680.231	0.15
680.415	0.12
680.598	0.14
680.781	0.09
680.965	0.11
681.148	0.21
681.331	0.13
681.514	0.2
681.698	0.09
681.881	0.14
682.064	0.17
682.247	0.07
682.43	0.08
682.614	0.15
682.797	0.18
682.98	0.15
683.163	0.04
683.346	0.16
683.529	0.12
683.712	0.07
683.895	0.14
684.078	0.08
684.261	0.12
684.444	0.16
684.627	0.16
684.81	0.07
684.993	0.1
685.176	0.15
685.359	0.06
685.542	0.13
685.725	0.17
685.908	0.15
686.091	0.13
686.274	0.14
686.457	0.11
686.639	0.11
686.822	0.2
687.005	0.1
687.188	0.17
687.371	0.22
687.553	0.15
687.736	0.15
687.919	0.19
688.102	0.14
688.284	0.1
688.467	0.16
688.65	0.11
688.832	0.12
689.015	0.13
689.197	0.07
689.38	0.24
689.563	0.18
689.745	0.09
689.928	0.08
690.11	0.13
690.293	0.12
690.475	0.09
690.658	0.13
690.84	0.14
691.023	0.1
691.205	0.1
691.388	0.12
691.57	0.19
691.752	0.21
691.935	0.02
692.117	0.09
692.3	0.14
692.482	0.04
692.664	0.13
692.847	0.13
693.029	0.17
693.211	0.19
693.393	0.13
693.576	0.09
693.758	0.15
693.94	0.11
694.122	0.1
694.304	0.08
694.487	0.03
694.669	0.19
694.851	0.07
695.033	0.13
695.215	0.08
695.397	0.12
695.579	0.14
695.761	0.11
695.943	0.09
696.125	0.19
696.308	0.19
696.49	0.03
696.671	0.23
696.853	0.13
697.035	0.27
697.217	0.17
697.399	0.16
697.581	0.07
697.763	0.06
697.945	0.09
698.127	0.09
698.309	0.14
698.491	0.14
698.672	0.18
698.854	0.19
699.036	0.19
699.218	0.1
699.399	0.14
699.581	0.2
699.763	0.14
699.945	0.09
700.126	0.13
700.308	0.17
700.49	0.14
700.671	0.02
700.853	0.07
701.035	0.11
701.216	0.11
701.398	0.08
701.579	0.1
701.761	0.19
701.943	0.13
702.124	0.07
702.306	0.12
702.487	0.26
702.669	0.11
702.85	0.06
703.031	0.09
703.213	0.21
703.394	0.21
703.576	0.16
703.757	0.25
703.938	0.15
704.12	0.26
704.301	0.11
704.483	0.07
704.664	0.15
704.845	0.24
705.026	0.16
705.208	0.1
705.389	0.17
705.57	0.14
705.751	0.07
705.933	0.13
706.114	0.24
706.295	0.11
706.476	0.11
706.657	0.24
706.838	0.16
707.02	0.19
707.201	0.15
707.382	0.11
707.563	0.18
707.744	0.1
707.925	0.09
708.106	0.03
708.287	0.16
708.468	0.25
708.649	0.12
708.83	0.15
709.011	0.09
709.192	0.17
709.373	0.11
709.554	0.11
709.734	0.2
709.915	0.24
710.096	0.13
710.277	0.09
710.458	0.1
710.639	0.16
710.819	0.09
711	0.09
711.181	0.16
711.362	0.2
711.542	0.17
711.723	0.09
711.904	0.2
712.085	0.13
712.265	0.18
712.446	0.07
712.627	0.14
712.807	0.13
712.988	0.16
713.168	0.11
713.349	0.15
713.53	0.04
713.71	0.1
713.891	0.08
714.071	0.09
714.252	0.06
714.432	0.1
714.613	0.04
714.793	0.19
714.974	0.2
715.154	0.14
715.334	0.18
715.515	0.2
715.695	0.06
715.876	0.19
716.056	0.15
716.236	0.08
716.417	0.1
716.597	0.08
716.777	0.27
716.957	0.12
717.138	0.12
717.318	0.09
717.498	0.07
717.678	0.08
717.859	0.15
718.039	0.06
718.219	0.12
718.399	0.24
718.579	0.04
718.759	0.11
718.939	0.12
719.12	0.12
719.3	0.24
719.48	0
719.66	0.07
719.84	0.26
720.02	0.16
720.2	0.08
720.38	0.08
720.56	0.19
720.74	0.07
720.92	0.2
721.1	0.11
721.279	0.18
721.459	0.14
721.639	-0.02
721.819	0.11
721.999	0.07
722.179	0.15
722.359	0.01
722.538	0.15
722.718	0.11
722.898	0.09
723.078	0.1
723.257	0.11
723.437	0.16
723.617	0.16
723.797	0.12
723.976	0.18
724.156	0.18
724.336	0.25
724.515	0.26
724.695	0.01
724.874	0.12
725.054	0.2
725.234	0.04
725.413	0.18
725.593	0.18
725.772	0.09
725.952	0.14
726.131	0.05
726.311	0.16
726.49	0.11
726.67	0.14
726.849	0.09
727.028	0.22
727.208	0.11
727.387	0.25
727.567	0.05
727.746	0.16
727.925	0.11
728.105	-0.02
728.284	0.1
728.463	0.12
728.643	0.22
728.822	0.03
729.001	0.15
729.18	0.21
729.359	0.25
729.539	0.14
729.718	0.08
729.897	0.16
730.076	0.2
730.255	0.09
730.434	0.23
730.614	0.23
730.793	0.18
730.972	0.11
731.151	0.08
731.33	0.2
731.509	0.22
731.688	0.14
731.867	0.18
732.046	0.05
732.225	0.3
732.404	0.06
732.583	0.01
732.762	0.16
732.941	0.24
733.12	0.15
733.298	0.16
733.477	0.23
733.656	0.16
733.835	0.13
734.014	0.24
734.193	0.17
734.371	0.3
734.55	0.25
734.729	0.05
734.908	0.17
735.086	0.21
735.265	0.25
735.444	-0.03
735.623	0.05
735.801	0.04
735.98	0.14
736.159	0.08
736.337	0.18
736.516	0.12
736.694	0.18
736.873	0.14
737.052	0.22
737.23	0.26
737.409	0.05
737.587	0.3
737.766	-0.06
737.944	-0.02
738.123	0.16
738.301	0.22
738.479	0.19
738.658	0.19
738.836	-0.05
739.015	0.19
739.193	0.22
739.371	0.06
739.55	0.09
739.728	0.16
739.906	0.19
740.085	0.28
740.263	0.19
740.441	0.01
740.62	0.26
740.798	0.27
740.976	0.08
741.154	0.09
741.332	0.31
741.511	0.11
741.689	0.19
741.867	0.26
742.045	0.14
742.223	0.13
742.401	0.09
742.579	0.12
742.757	0.11
742.935	0.01
743.114	0.16
743.292	0.1
743.47	0.17
743.648	0.15
743.826	0.23
744.004	0.18
744.181	0.33
744.359	0.14
744.537	0.19
744.715	0.16
744.893	0.28
745.071	0.11
745.249	0.06
745.427	0.09
745.605	0.16
745.782	0.12
745.96	0.19
746.138	0.27
746.316	0.3
746.493	0.07
746.671	0.16
746.849	0.05
747.027	0.26
747.204	0.17
747.382	0.29
747.56	0.01
747.737	0.14
747.915	0.04
748.093	0.21
748.27	0.06
748.448	0
748.625	0.17
748.803	0.13
748.98	0.07
749.158	0.18
749.335	0.2
749.513	0.12
749.69	0.13
749.868	0.13
750.045	0.19
750.223	0.13
750.4	-0.08
750.578	0.3
750.755	0.15
750.932	0.07
751.11	0.18
751.287	-0.03
751.464	0.26
751.642	0.08
751.819	0.26
751.996	0.16
752.173	0.06
752.351	-0.02
752.528	0.19
752.705	0.13
752.882	0.04
753.06	0.18
753.237	0.23
753.414	0.34
753.591	0.31
753.768	0.2
753.945	0.1
754.122	0.07
754.299	0.17
754.476	0.07
754.654	0.19
754.831	0.25
755.008	0.1
755.185	0.1
755.362	0.04
755.539	0.17
755.716	-0.03
755.892	0.13
756.069	0.2
756.246	0.05
756.423	0.17
756.6	0.2
756.777	0.11
756.954	0.31
757.131	0.17
757.307	0.1
757.484	0.01
757.661	0.15
757.838	0.18
758.015	0.07
758.191	0.21
758.368	0.18
758.545	0.25
758.721	0.21
758.898	0.08
759.075	0.19
759.251	0.18
759.428	0.26
759.605	-0.06
759.781	0.08
759.958	0.16
760.134	0.25
760.311	0.09
760.488	0.34
760.664	0.27
760.841	0.1
761.017	0.15
761.194	0.25
761.37	0.14
761.547	0.11
761.723	0.24
761.899	0.38
762.076	0.03
762.252	0.04
762.429	0.02
762.605	0.3
762.781	0.1
762.958	0.17
763.134	0.07
763.31	0.1
763.486	0.32
763.663	-0.06
763.839	0.2
764.015	-0.01
764.191	0.05
764.368	0.15
764.544	-0.06
764.72	0.12
764.896	0.17
765.072	0.14
765.248	0.08
765.425	0.05
765.601	0.19
765.777	0.12
765.953	-0.06
766.129	0.03
766.305	0.06
766.481	0.21
766.657	0.13
766.833	0.34
767.009	-0.12
767.185	0.15
767.361	0.03
767.537	0.02
767.713	0.28
767.889	0.1
768.065	0.16
768.24	0.27
768.416	0.2
768.592	0.04
768.768	0.26
768.944	0.27
769.12	0.06
769.295	0.08
769.471	0.04
769.647	0.13
769.823	0.2
769.998	0.1
770.174	0.04
770.35	0.34
770.525	0.44
770.701	0.21
770.877	0.18
771.052	0.06
771.228	0.3
771.403	0.12
771.579	0.15
771.755	0.5
771.93	-0
772.106	0.09
772.281	-0.05
772.457	0.18
772.632	0.22
772.808	-0.07
772.983	-0.03
773.159	-0.04
773.334	0.37
773.509	0.22
773.685	0.11
773.86	0.48
774.036	0.3
774.211	0.19
774.386	0.14
774.562	0.18
774.737	0.29
774.912	-0.01
775.087	0.19
775.263	0.18
775.438	0.2
775.613	0.11
775.788	0.24
775.964	0.29
776.139	0.29
776.314	-0.15
776.489	0.2
776.664	0.2
776.839	0.07
777.014	0.34
777.19	0.35
777.365	0.35
777.54	0.43
777.715	0.07
777.89	0.1
778.065	0.08
778.24	0.11
778.415	0.23
778.59	-0.03
778.765	0.14
778.94	0.19
779.115	0.07
779.289	0.14
779.464	0.08
779.639	0.19
779.814	0.06
779.989	0.05
780.164	0.4
780.339	0.35
780.513	0.03
780.688	-0.03
780.863	-0.02
781.038	0.3
781.212	0.1
781.387	0.26
781.562	0.57
781.737	0.11
781.911	0.32
782.086	0.05
782.261	-0
782.435	0.54
782.61	0.21
782.784	0
782.959	0.3
783.134	-0.14
783.308	0.01
783.483	0.19
783.657	0.48
783.832	0.4
784.006	-0.14
784.181	0.24
784.355	0.32
784.53	-0.13
784.704	-0
784.878	0.26
785.053	0.4
785.227	0.48
785.402	0.43
785.576	-0.07
785.75	0.07
785.925	0.14
786.099	0.25
786.273	0.27
786.448	0.14
786.622	0.28
786.796	0.05
786.97	-0.01
787.145	0.64
787.319	-0.16
787.493	0.16
787.667	-0.04
787.841	0.1
788.015	0.43
788.19	-0.03
788.364	0.1
788.538	0.45
788.712	0.42
788.886	0.2
789.06	0.24
789.234	0.57
789.408	-0.06
789.582	-0.01
789.756	0.05
789.93	0.15
790.104	0.23
790.278	0.13
790.452	0
790.626	0.21
790.8	0.08
790.973	0.23
791.147	0.4
791.321	0.34
791.495	0.42
791.669	0.3
791.843	0.32
792.016	0.24
792.19	0.65
792.364	0.08
792.538	0.76
792.711	0.53
792.885	0.12
793.059	0.05
793.233	-0.48
793.406	0.44
793.58	-0
793.754	0.11
793.927	0.04
794.101	0.54
794.274	0.12
794.448	0.15
794.622	0.02
794.795	0.44
794.969	-0.22
795.142	0.66
795.316	-0.04
795.489	0.14
795.663	0.46
795.836	0.21
796.009	0.19
796.183	0.64
796.356	0.39
796.53	0.37
796.703	0.28
796.876	0.93
797.05	0.06
797.223	0.31
797.396	0.58
797.57	0.27
797.743	0.32
797.916	-0.02
798.09	0.18
798.263	0.64
798.436	0.54
798.609	0.2
798.782	0.11
798.956	0.15
799.129	0.02
799.302	0.22
799.475	-0.05
799.648	0.01
799.821	0.07
799.994	0.31
800.167	-0.21
800.34	0.14
800.514	0.21
800.687	0.19
800.86	-0
801.033	0.21
801.206	0.41
801.379	-0.03
801.551	0.39
801.724	0.33
801.897	0.48
802.07	0.09
802.243	-0.33
802.416	0.18
802.589	0.04
802.762	0.25
802.935	0.25
803.107	0.78
803.28	0.78
803.453	0.41
803.626	0.08
803.798	0.56
803.971	0.23
804.144	0.53
804.317	0.23
804.489	0.52
804.662	-0.06
804.835	-0.05
805.007	-0.15
805.18	0.64
805.353	0.57
805.525	0.09
805.698	-0.07
805.87	0.71
806.043	0.41
806.215	-0.02
806.388	0.13
806.56	0.27
806.733	0.36
806.905	0.34
807.078	-0.19
807.25	-0.04
807.423	0.31
807.595	0.21
807.768	0.39
807.94	0.69
808.112	0.18
808.285	0.27
808.457	0.26
808.629	0.16
808.802	0.64
808.974	0.09
809.146	-0.05
809.318	0.07
809.491	0.55
809.663	0.52
809.835	0.03
810.007	0.42
810.18	0.15
810.352	-0.12
810.524	0.1
810.696	0.27
810.868	0.45
811.04	0.04
811.212	0.09
811.384	0.78
811.556	0.2
811.728	0.67
811.901	0.95
812.073	-0.04
812.245	0.5
812.417	0.53
812.589	-0.17
812.76	0.19
812.932	0.27
813.104	0.49
813.276	0.15
813.448	0.5
813.62	0.47
813.792	0.27
813.964	0.46
814.136	0.26
814.307	0.01
814.479	0.19
814.651	0.19
814.823	0.98
814.995	-0.02
815.166	0.32
815.338	-0.17
815.51	-0.43
815.681	1.3
815.853	0.45
816.025	-0.04
816.196	0.95
816.368	0.46
816.54	-0.27
816.711	0.27
816.883	0.58
817.054	1.34
817.226	-0.43
817.398	0.3
817.569	0.47
817.741	0.26
817.912	-0.03
818.084	0.06
818.255	0.45
818.426	0.07
818.598	0.31
818.769	-0.07
818.941	0.63
819.112	0.97
819.283	0.16
819.455	-0.16
819.626	0.35
819.798	0.37
819.969	0.62
820.14	0.25
820.311	0.2
820.483	0.37
820.654	0.69
820.825	0.29
820.996	0.06
821.168	-0.17
821.339	0.02
821.51	0.08
821.681	0.18
821.852	0.6
822.023	-0.26
822.195	-0.8
822.366	1.02
822.537	0.39
822.708	-0.09
822.879	0.07
823.05	1.02
823.221	0.33
823.392	0.61
823.563	0.04
823.734	0.39
823.905	-0.04
824.076	-0.15
824.247	0.06
824.418	0.01
824.589	0.47
824.759	0.34
824.93	0.4
825.101	-0.07
825.272	0.7
825.443	0.64
825.614	0.8
825.784	0.08
825.955	1.37
826.126	0.86
826.297	0.12
826.467	1.35
826.638	1.4
826.809	-0.43
826.98	0.09
827.15	0.38
827.321	0.16
827.492	0.74
827.662	0.44
827.833	0.67
828.003	1.09
828.174	-0.03
828.345	-0.3
828.515	0.87
828.686	0.63
828.856	0.24
829.027	0.51
829.197	0.34
829.368	0.28
829.538	-0.3
829.709	-0.01
829.879	0.54
830.049	0.19
830.22	0.33
830.39	-0.32
830.56	0.52
830.731	0.57
830.901	-0.29
831.072	0.35
831.242	0.8
831.412	0.64
831.582	0.54
831.753	-0.42
831.923	0.14
832.093	0.16
832.263	-0.01
832.434	-0.6
832.604	0.63
832.774	1.15
832.944	-0.02
833.114	0.2
833.284	0.53
833.454	-0.47
833.624	-0.1
833.795	-0.07
833.965	0.8
834.135	1.17
834.305	-0.37
834.475	-0.12
834.645	0.5
834.815	0.14
834.985	-0.08
835.155	-0.05
835.325	0.74
835.494	0.27
835.664	0.06
835.834	-0.1
836.004	1.11
836.174	0.57
836.344	0.22
836.514	-0.8
836.684	0.23
836.853	1
837.023	0.44
837.193	-0.07
837.363	1.41
837.532	0.67
837.702	0.14
837.872	-0.01
838.041	1.01
838.211	1.09
838.381	-0.02
838.55	-0.01
838.72	2.02
838.89	1.02
839.059	0.32
839.229	-0.51
839.398	1.48
839.568	-0.01
839.738	0.26
839.907	1.7
840.077	0.33
840.246	-0.43
840.416	-0.63
840.585	-0.54
840.755	1.71
840.924	1.96
841.093	-0.65
841.263	0.41
841.432	1.02
841.602	-0.05
841.771	-0.07
841.94	0.44
842.11	2.71
842.279	2.11
842.448	-0.26
842.617	-0.47
842.787	2.46
842.956	-0.85
843.125	0.04
843.294	1.18
843.464	0.86
843.633	0.44
843.802	-0.91
843.971	0.86
844.14	1.6
844.309	0.87
844.479	0.03
844.648	-0.09
844.817	0.09
844.986	0.4
845.155	-0.31
845.324	0.17
845.493	-0.17
845.662	-1.14
845.831	0.65
846	0.46
846.169	0.03
846.338	1.54
846.507	0.15
846.676	0.9
846.844	-0.23
847.013	0.02
847.182	-0.13
847.351	0.23
847.52	0.17
847.689	0.45
847.858	-0.51
848.026	-0.13
848.195	0.56
848.364	0.21
848.533	0.68
848.701	0.09
848.87	1.01
849.039	1.08
849.207	1.6
849.376	1.87
849.545	1.81
849.713	-0.21
849.882	-0.03
850.051	0.63
850.219	-0.07
850.388	0.88
850.556	-0.05
850.725	0.28
850.893	1.05
851.062	0.62
851.23	0.6
851.399	-0.74
851.567	-0.53
851.736	0.25
851.904	-0.64
852.073	0.61
852.241	-0.02
852.41	0.63
852.578	-0.41
852.746	0.05
852.915	0.99
853.083	0.41
853.251	-1.02
853.42	0.89
853.588	1.32
853.756	1.39
853.924	0.37
854.093	0.28
854.261	0.31
854.429	-0.81
854.597	1.38
854.765	0.37
854.934	1.1
855.102	1.4
855.27	0.37
855.438	0.49
855.606	1.63
855.774	2.12
855.942	-1.58
856.11	-0.91
856.278	1.02
856.446	2.08
856.614	-0.39
856.782	-0.39
856.95	2.17
857.118	1.7
857.286	0.45
857.454	-0.76
857.622	0.76
857.79	1.03
857.958	-0.64
858.126	-0.26
858.294	-1.04
858.462	0.27
858.629	-0.02
858.797	0.21
858.965	0.5
859.133	0.34
859.301	-0.38
859.468	2.57
859.636	0.03
859.804	2.54
859.971	1.69
860.139	-0.75
860.307	0.28
860.474	0.19
860.642	-0.07
860.81	0.03
860.977	0.41
861.145	1.28
861.313	0.42
861.48	0.66
861.648	1.19
861.815	0.33
861.983	-0.91
862.15	0.23
862.318	1.56
862.485	2.2
862.653	-0.34
862.82	-0.7
862.988	2.58
863.155	0.98
863.322	-0.66
863.49	-0.43
863.657	0.64
863.824	1.68
863.992	1.09
864.159	0.78
864.326	2.88
864.494	-0.87
864.661	2.55
864.828	-0.59
864.996	2.83
865.163	3.36
865.33	-0.34
865.497	-2.43
865.664	-0.62
865.832	-1.84
865.999	0.02
866.166	-0.49
866.333	0.9
866.5	-0.96
866.667	1.28
866.834	0.2
867.001	2.39
867.168	2.17
867.335	-0.5
867.502	-0.19
867.669	1.32
867.836	3.4
868.003	1.01
868.17	0.63
868.337	-1.07
868.504	3.21
868.671	-1.25
868.838	0.03
869.005	2.21
869.172	2
869.339	0.11
869.505	0.96
869.672	0.71
869.839	2.11
870.006	0.77
870.173	-1.4
870.339	1.36
870.506	3.21
870.673	0.29
870.84	-0.46
871.006	0.59
871.173	1.17
871.34	0.69
871.506	-1.2
871.673	0.6
871.839	-1.91
872.006	1.1
872.173	0.68
872.339	2.36
872.506	2.65
872.672	0.2
872.839	-2.58
873.005	0.09
873.172	5.07
873.338	2.62
873.505	-0.28
873.671	0.71
873.838	2.65
874.004	-1.43
874.171	-0.92
874.337	1.66
874.503	2.25
874.67	1.1
874.836	-0.95
875.002	3.08
875.169	2.23
875.335	1.01
875.501	-0.14
875.668	3.74
875.834	1.42
876	1.57
876.166	3.06
876.332	0.95
876.499	3.21
876.665	0.28
876.831	1.46
876.997	3.15
877.163	0.52
877.329	1.06
877.495	1.49
877.662	1.89
877.828	1.61
877.994	-0.35
878.16	-0.94
878.326	1.33
878.492	1.74
878.658	-0.05
878.824	0.34
878.99	0.17
879.156	-0.33
879.322	2.28
879.487	-0.3
879.653	1.27
879.819	0.84
879.985	-0.09
880.151	0.94
880.317	1.65
880.483	2.52
880.648	1.61
880.814	-1.28
880.98	2.4
881.146	-2.83
881.312	0.43
881.477	-1.35
881.643	2.26
881.809	2.9
881.974	2.3
882.14	-1.56
882.306	0.94
882.471	3.85
882.637	-0.39
882.803	3.06
882.968	3.52
883.134	4.29
883.299	0.19
883.465	0.81
883.63	2.71
883.796	0.26
883.961	0.74
884.127	1.08
884.292	-1.85
884.458	-0.2
884.623	-0.2
