Data from Apollo_Calib_20240827__AbsoluteIrradiance__716__11-05-02-330.txt Node

Date: Wed Aug 28 11:05:02 BST 2024
User: biology
Spectrometer: FLMT08252
Trigger mode: 0
Integration Time (sec): 5.000000E-1
Scans to average: 5
Electric dark correction enabled: true
Nonlinearity correction enabled: false
Boxcar width: 0
XAxis mode: Wavelengths
Number of Pixels in Spectrum: 3648
>>>>>Begin Spectral Data<<<<<
179.588	-0
179.809	-0
180.03	-0
180.251	-0
180.473	-0
180.694	-0
180.915	0
181.136	-0
181.357	0
181.578	-0
181.799	-0
182.02	0
182.241	0
182.462	-0
182.683	0
182.904	0
183.125	-0
183.346	0
183.567	0
183.788	-0
184.009	-0
184.23	0
184.451	0
184.672	-0
184.892	-0
185.113	0
185.334	0
185.555	-0
185.776	-0
185.996	0
186.217	0
186.438	-0
186.659	-0
186.879	-0
187.1	0
187.321	-0
187.541	-0
187.762	0
187.983	0
188.203	-0
188.424	-0
188.644	-0
188.865	-0
189.086	-0
189.306	0
189.527	-0
189.747	0
189.968	-0
190.188	0
190.409	-0
190.629	0
190.849	-0
191.07	-0
191.29	0
191.511	-0
191.731	-0
191.951	-0
192.172	-0
192.392	-0
192.612	-0
192.833	-0
193.053	0
193.273	0
193.493	-0
193.714	-0
193.934	0
194.154	0
194.374	0
194.594	-0
194.815	0
195.035	0
195.255	-0
195.475	-0
195.695	-0
195.915	0
196.135	-0
196.355	0
196.575	0
196.795	0
197.015	-0
197.235	-0
197.455	-0
197.675	0
197.895	-0
198.115	-0
198.335	-0
198.555	-0
198.775	0
198.995	-0
199.214	0
199.434	-0
199.654	-0
199.874	-0
200.094	0.95
200.313	-0.6
200.533	-0.38
200.753	-1.15
200.973	0.92
201.192	-0.12
201.412	-0.49
201.632	-0.22
201.851	0.53
202.071	-0.72
202.291	-0.74
202.51	-1.02
202.73	-0.08
202.95	-0.15
203.169	-0.47
203.389	-0.18
203.608	0.24
203.828	-0.55
204.047	-0.19
204.267	0.26
204.486	0.1
204.706	0.07
204.925	-0.29
205.145	-0.23
205.364	0.22
205.583	0.22
205.803	-0.16
206.022	-0.32
206.242	-0.1
206.461	0.22
206.68	-0.19
206.9	-0.03
207.119	0.33
207.338	0.38
207.557	-0.48
207.777	-0.4
207.996	-0.14
208.215	0.23
208.434	-0.29
208.654	-0.73
208.873	-0.04
209.092	0.43
209.311	-0.26
209.53	0.01
209.749	0.02
209.968	-0.42
210.187	-0.05
210.407	-0.53
210.626	-0.22
210.845	0.03
211.064	-0.06
211.283	-0.09
211.502	0.1
211.721	-0.25
211.94	-0.13
212.159	0.21
212.377	0.36
212.596	0.29
212.815	0.1
213.034	0.18
213.253	0.18
213.472	0.16
213.691	-0.1
213.91	-0.11
214.128	-0.08
214.347	0.45
214.566	-0.32
214.785	-0.54
215.003	-0.05
215.222	0.06
215.441	-0.08
215.66	-0.17
215.878	0
216.097	0.14
216.316	-0.39
216.534	0.09
216.753	0
216.972	0.07
217.19	-0.01
217.409	-0.24
217.627	-0.15
217.846	-0.21
218.064	-0.09
218.283	-0.11
218.501	0.41
218.72	0.2
218.938	-0.19
219.157	-0.16
219.375	0.01
219.594	0.04
219.812	-0.17
220.031	-0.27
220.249	0.19
220.467	0.27
220.686	-0.28
220.904	-0.33
221.122	-0.11
221.341	0.2
221.559	-0.05
221.777	-0.18
221.995	-0.07
222.214	0.28
222.432	-0.12
222.65	0.13
222.868	-0.1
223.086	0.06
223.305	0.19
223.523	-0.14
223.741	0.24
223.959	-0.17
224.177	-0.33
224.395	-0
224.613	0.14
224.831	0
225.049	-0.18
225.267	-0.01
225.485	0.08
225.703	0.01
225.921	-0.07
226.139	-0.02
226.357	0.01
226.575	-0.03
226.793	-0.11
227.011	0.44
227.229	0.13
227.447	0.18
227.665	-0.03
227.883	-0.24
228.1	-0.05
228.318	0.16
228.536	-0.28
228.754	-0.07
228.972	0.07
229.189	0.17
229.407	-0.03
229.625	-0.08
229.843	0.25
230.06	-0.07
230.278	-0.06
230.496	-0.05
230.713	-0.05
230.931	0.15
231.149	-0.17
231.366	-0.26
231.584	-0.02
231.801	0.28
232.019	-0.16
232.236	-0.09
232.454	-0.08
232.671	0.09
232.889	-0.03
233.106	-0.16
233.324	-0.06
233.541	-0.02
233.759	0.07
233.976	-0.04
234.194	-0.03
234.411	-0.06
234.628	-0.17
234.846	-0.14
235.063	-0.12
235.28	0.11
235.498	-0.07
235.715	-0.2
235.932	0.12
236.149	-0.04
236.367	-0.08
236.584	-0.02
236.801	-0.08
237.018	0.03
237.236	0.04
237.453	-0.2
237.67	0.16
237.887	-0.05
238.104	-0.06
238.321	-0.11
238.538	-0.05
238.755	0.16
238.973	-0.22
239.19	0.07
239.407	0.04
239.624	-0.02
239.841	-0.12
240.058	-0.15
240.275	-0.05
240.492	-0.04
240.709	-0.16
240.925	-0.03
241.142	-0.09
241.359	-0.12
241.576	-0.1
241.793	-0.12
242.01	-0.06
242.227	0.05
242.444	0.07
242.66	0.09
242.877	0.05
243.094	-0.13
243.311	0.03
243.527	-0.01
243.744	0.07
243.961	0.1
244.178	-0.07
244.394	-0.05
244.611	0.11
244.828	0.07
245.044	-0.06
245.261	0
245.477	-0.09
245.694	0.02
245.911	-0.09
246.127	0.03
246.344	0.08
246.56	0.01
246.777	0.01
246.993	0.01
247.21	-0.04
247.426	0.05
247.643	-0.12
247.859	-0.14
248.076	-0.06
248.292	0.13
248.508	-0.05
248.725	0.03
248.941	0.07
249.157	0.11
249.374	0.02
249.59	-0.07
249.806	0
250.023	0.16
250.239	-0.06
250.455	-0.07
250.671	-0.04
250.888	0.07
251.104	-0.07
251.32	-0.07
251.536	-0.07
251.752	0.01
251.969	0.02
252.185	-0.03
252.401	0.12
252.617	0.04
252.833	-0.02
253.049	-0.04
253.265	0.04
253.481	-0.02
253.697	-0.08
253.913	-0.09
254.129	0.04
254.345	0.03
254.561	-0.01
254.777	0.01
254.993	0.05
255.209	0.02
255.425	-0.03
255.641	-0.07
255.857	0.04
256.073	0.04
256.288	-0.18
256.504	-0.09
256.72	0.01
256.936	0.05
257.152	-0.05
257.367	-0.12
257.583	-0.05
257.799	0.08
258.015	-0.04
258.23	0.01
258.446	0.11
258.662	0.01
258.877	-0.1
259.093	-0.12
259.309	-0.01
259.524	-0.01
259.74	-0.04
259.955	-0.13
260.171	-0.04
260.387	-0
260.602	0.03
260.818	0.05
261.033	-0.08
261.249	-0.05
261.464	-0.04
261.68	-0.08
261.895	0
262.11	0.07
262.326	-0.08
262.541	-0.13
262.757	0.08
262.972	0
263.187	-0.04
263.403	0
263.618	0.11
263.833	-0.06
264.049	-0.04
264.264	-0.02
264.479	-0
264.694	0.04
264.91	-0.1
265.125	-0.01
265.34	0.07
265.555	0.16
265.77	0.04
265.986	-0.04
266.201	0.03
266.416	0.09
266.631	-0.04
266.846	-0.01
267.061	0.04
267.276	0.07
267.491	-0.09
267.706	-0.01
267.921	0.08
268.136	0
268.351	-0
268.566	-0.12
268.781	0.14
268.996	0.03
269.211	-0.01
269.426	-0.03
269.641	-0.11
269.856	0.08
270.071	-0.03
270.285	-0.11
270.5	0.05
270.715	0.07
270.93	0.02
271.145	0.05
271.359	0.04
271.574	-0.05
271.789	0.07
272.004	-0.12
272.218	0.01
272.433	0.13
272.648	-0.02
272.862	0.07
273.077	-0.03
273.292	-0.01
273.506	-0.05
273.721	-0.04
273.936	0.03
274.15	0.08
274.365	-0.02
274.579	0.01
274.794	-0
275.008	0.05
275.223	-0.07
275.437	-0.03
275.652	0.09
275.866	0.01
276.081	0.01
276.295	0.1
276.509	0.01
276.724	-0.03
276.938	-0.03
277.153	0.05
277.367	0
277.581	-0.04
277.796	0.02
278.01	-0.07
278.224	0.08
278.438	0.14
278.653	-0.09
278.867	-0.04
279.081	-0.08
279.295	-0.04
279.51	0.06
279.724	-0.08
279.938	0.07
280.152	0.01
280.366	-0.07
280.58	-0.01
280.794	0.1
281.008	-0
281.222	0.07
281.437	0.14
281.651	0.03
281.865	0.05
282.079	-0
282.293	-0.13
282.507	-0.07
282.721	-0
282.935	-0.03
283.148	-0.09
283.362	-0.01
283.576	-0.08
283.79	-0.04
284.004	-0.03
284.218	0.08
284.432	0
284.646	0
284.859	-0.05
285.073	0.02
285.287	-0.01
285.501	0.01
285.714	-0.01
285.928	-0.04
286.142	0.01
286.356	-0.05
286.569	0.02
286.783	0.07
286.997	0.01
287.21	0.01
287.424	0.01
287.637	-0.03
287.851	-0.03
288.065	0.03
288.278	0.07
288.492	0.01
288.705	0.02
288.919	0.04
289.132	-0.09
289.346	0.06
289.559	-0.07
289.773	-0.02
289.986	-0.02
290.2	-0.01
290.413	0.07
290.626	-0.06
290.84	0.03
291.053	0.02
291.267	0.06
291.48	-0
291.693	0.06
291.906	-0.02
292.12	0.02
292.333	-0.03
292.546	-0.03
292.76	0.08
292.973	0.03
293.186	0.02
293.399	-0
293.612	0.07
293.826	-0.01
294.039	0
294.252	0.02
294.465	0.02
294.678	0.05
294.891	0.03
295.104	-0.04
295.317	-0.03
295.53	-0.02
295.743	-0.01
295.956	-0.01
296.169	0.08
296.382	0.05
296.595	0
296.808	-0.04
297.021	0.1
297.234	0.06
297.447	0.01
297.66	0.07
297.873	0.06
298.086	0.06
298.299	-0.04
298.511	0
298.724	-0.06
298.937	-0.01
299.15	0
299.363	0.02
299.575	0.02
299.788	0.02
300.001	-0.03
300.213	-0.05
300.426	0.01
300.639	-0.04
300.852	-0.02
301.064	0.03
301.277	0.05
301.489	0.03
301.702	0.06
301.915	0.01
302.127	-0
302.34	0.02
302.552	0.05
302.765	-0.03
302.977	0.04
303.19	-0.03
303.402	0.01
303.615	0.03
303.827	-0.04
304.04	0.03
304.252	0.03
304.464	0.01
304.677	0.1
304.889	0.03
305.102	-0.06
305.314	0
305.526	0.03
305.739	0.03
305.951	-0.01
306.163	-0.03
306.375	0.09
306.588	-0
306.8	-0.04
307.012	-0.04
307.224	-0.02
307.436	0.03
307.649	-0.07
307.861	0
308.073	0.07
308.285	0.03
308.497	-0.05
308.709	-0.03
308.921	0.03
309.133	0.03
309.346	-0
309.558	0.01
309.77	0.08
309.982	0.05
310.194	0.04
310.406	-0.05
310.617	0.1
310.829	-0.02
311.041	0.03
311.253	-0.04
311.465	0.03
311.677	-0.01
311.889	0.03
312.101	-0.03
312.313	0.04
312.524	0.05
312.736	-0.04
312.948	-0.04
313.16	0.05
313.372	0.02
313.583	0.05
313.795	-0.01
314.007	-0.01
314.218	0.03
314.43	-0.02
314.642	-0.02
314.853	-0.05
315.065	0.05
315.277	0.01
315.488	0.01
315.7	0.06
315.912	0.07
316.123	-0.02
316.335	-0
316.546	0.08
316.758	0.04
316.969	-0.05
317.181	-0.01
317.392	0.01
317.604	0.06
317.815	-0.07
318.026	-0.02
318.238	-0.02
318.449	0.02
318.661	-0.05
318.872	-0.04
319.083	-0.04
319.295	0.04
319.506	-0.01
319.717	0.02
319.929	0.01
320.14	-0.02
320.351	0.04
320.562	-0.04
320.774	-0
320.985	0.04
321.196	-0.05
321.407	-0.02
321.618	0.05
321.829	0.01
322.041	0.03
322.252	-0.02
322.463	-0.02
322.674	0.03
322.885	-0.07
323.096	0.01
323.307	-0.02
323.518	0.05
323.729	0.03
323.94	-0.01
324.151	-0.02
324.362	-0
324.573	0.01
324.784	-0.01
324.995	0.07
325.206	0.02
325.417	-0.01
325.628	0.01
325.838	0
326.049	0
326.26	0.03
326.471	0.03
326.682	-0.02
326.892	-0.02
327.103	-0.07
327.314	-0.04
327.525	0.07
327.735	-0.01
327.946	-0.03
328.157	-0.01
328.368	-0.03
328.578	0
328.789	0.03
328.999	0.04
329.21	-0.06
329.421	0.04
329.631	-0.08
329.842	-0.06
330.052	0.04
330.263	-0.02
330.473	0.05
330.684	0.01
330.894	0.03
331.105	0.05
331.315	0
331.526	-0.07
331.736	0.11
331.947	0.02
332.157	0.01
332.367	-0.03
332.578	0.05
332.788	0.05
332.999	0.04
333.209	-0
333.419	-0.01
333.629	0.04
333.84	0.04
334.05	0.01
334.26	0.08
334.47	0
334.681	0.02
334.891	-0.03
335.101	0.06
335.311	0.07
335.521	0.01
335.732	-0.08
335.942	0.05
336.152	0.02
336.362	0.02
336.572	0.02
336.782	0.04
336.992	0.01
337.202	-0.01
337.412	-0.03
337.622	0.02
337.832	0
338.042	0.01
338.252	0.03
338.462	-0.04
338.672	0.01
338.882	-0.05
339.092	-0.01
339.302	0.07
339.511	0.03
339.721	-0.02
339.931	-0.04
340.141	0.06
340.351	0.05
340.561	0.02
340.77	0.04
340.98	-0.01
341.19	0.04
341.4	-0.04
341.609	-0.04
341.819	-0.02
342.029	-0.06
342.238	0
342.448	-0.03
342.658	0.04
342.867	-0.01
343.077	0.04
343.286	0
343.496	0.01
343.706	0.05
343.915	-0.04
344.125	-0.02
344.334	0.05
344.544	-0.06
344.753	-0.01
344.963	-0.04
345.172	-0.01
345.381	-0.02
345.591	-0.08
345.8	-0.01
346.01	0.08
346.219	0.05
346.428	-0.14
346.638	0.01
346.847	-0.01
347.056	0.05
347.266	-0.04
347.475	-0.04
347.684	0.02
347.893	0.01
348.103	-0.01
348.312	-0.03
348.521	-0.03
348.73	0
348.94	0.03
349.149	-0
349.358	-0.01
349.567	-0
349.776	-0.05
349.985	-0.04
350.194	0.05
350.403	0.08
350.612	-0.06
350.821	-0.04
351.03	-0.01
351.239	-0.05
351.448	0
351.657	-0.03
351.866	0.05
352.075	-0.02
352.284	0.02
352.493	-0.09
352.702	0.03
352.911	-0
353.12	0.02
353.329	-0.05
353.538	0.01
353.746	0.05
353.955	-0.01
354.164	0.04
354.373	-0.04
354.582	0.05
354.79	0.01
354.999	0.02
355.208	-0.02
355.416	0.05
355.625	-0.06
355.834	-0.02
356.042	0.02
356.251	-0.03
356.46	-0.04
356.668	0.05
356.877	0.1
357.085	0.04
357.294	-0.09
357.503	0.02
357.711	0.01
357.92	0.13
358.128	0
358.337	0.01
358.545	0.05
358.754	-0.02
358.962	0.02
359.17	0.02
359.379	0.04
359.587	0.02
359.796	0.02
360.004	0.03
360.212	0.04
360.421	0.07
360.629	0
360.837	-0.01
361.046	0.03
361.254	0.07
361.462	-0
361.67	-0.03
361.879	-0.03
362.087	0.08
362.295	0.01
362.503	-0.02
362.711	-0.04
362.92	-0.03
363.128	0.03
363.336	-0.03
363.544	-0.07
363.752	0.02
363.96	-0.04
364.168	-0
364.376	0.01
364.584	0.01
364.792	0.05
365	0.01
365.208	0.03
365.416	-0.03
365.624	0.04
365.832	-0.03
366.04	0.02
366.248	-0.01
366.456	0.03
366.664	0.03
366.872	0
367.079	0.02
367.287	0.04
367.495	0.03
367.703	0.01
367.911	-0.02
368.118	0.02
368.326	0.03
368.534	-0.04
368.742	0.08
368.949	-0.03
369.157	-0.04
369.365	0.02
369.572	0.04
369.78	-0.06
369.988	0.03
370.195	0.02
370.403	0.03
370.61	0
370.818	0.01
371.026	0.04
371.233	-0.02
371.441	-0
371.648	-0.04
371.856	-0.01
372.063	0
372.271	0.01
372.478	-0.03
372.685	0.01
372.893	0.04
373.1	-0.01
373.308	-0.01
373.515	0.09
373.722	-0.01
373.93	-0.02
374.137	0.04
374.344	0.07
374.552	0.02
374.759	0.06
374.966	0.01
375.173	-0.02
375.381	0.05
375.588	-0.01
375.795	-0.06
376.002	-0.05
376.209	-0
376.417	-0.03
376.624	0.05
376.831	0.02
377.038	-0.03
377.245	-0.07
377.452	-0.01
377.659	-0.01
377.866	-0.01
378.073	-0
378.28	-0
378.487	0.01
378.694	0.04
378.901	-0.03
379.108	0.01
379.315	-0.02
379.522	0.14
379.729	0.03
379.936	-0
380.143	-0.02
380.35	0.04
380.557	0
380.763	0.05
380.97	0
381.177	0.03
381.384	0.04
381.591	-0.03
381.797	0.02
382.004	0.05
382.211	0.01
382.418	-0.03
382.624	0.04
382.831	0.02
383.038	-0.01
383.244	-0
383.451	-0.04
383.658	0.02
383.864	0.01
384.071	-0.04
384.277	0.08
384.484	-0.04
384.69	0.01
384.897	0
385.103	-0.01
385.31	-0.02
385.516	-0.02
385.723	0.01
385.929	0.01
386.136	0
386.342	0.05
386.549	-0.01
386.755	0.06
386.961	-0
387.168	0.01
387.374	0.02
387.58	0.03
387.787	-0.03
387.993	0.05
388.199	-0.03
388.406	-0.04
388.612	-0.01
388.818	-0.05
389.024	-0.01
389.231	-0
389.437	0.11
389.643	0.04
389.849	-0.02
390.055	0.02
390.261	-0.01
390.467	0.04
390.674	-0.02
390.88	-0.04
391.086	0.06
391.292	-0.06
391.498	0.01
391.704	0.05
391.91	-0.01
392.116	0.01
392.322	-0.07
392.528	0.01
392.734	-0.01
392.94	0
393.146	-0.02
393.352	0.01
393.557	0.02
393.763	-0
393.969	0.03
394.175	0.01
394.381	0.07
394.587	-0.03
394.792	0.01
394.998	0.04
395.204	0.01
395.41	-0.01
395.615	0.03
395.821	-0
396.027	-0
396.233	-0.04
396.438	0
396.644	-0
396.85	0.03
397.055	-0.01
397.261	-0.01
397.466	0.05
397.672	0.02
397.878	0.06
398.083	0.06
398.289	0.02
398.494	0.05
398.7	-0.02
398.905	-0.06
399.111	0.06
399.316	-0.02
399.522	0.03
399.727	-0.03
399.932	-0.02
400.138	0.02
400.343	0.07
400.549	-0.01
400.754	0.03
400.959	0.02
401.165	-0.01
401.37	-0
401.575	0.03
401.78	0.03
401.986	-0.04
402.191	0.02
402.396	-0.01
402.601	0
402.807	-0.02
403.012	0.05
403.217	0.04
403.422	0.03
403.627	-0.03
403.832	-0.02
404.037	0.03
404.243	0.03
404.448	-0.07
404.653	-0
404.858	-0
405.063	0.04
405.268	-0.07
405.473	-0.04
405.678	-0.01
405.883	0.16
406.088	0.06
406.293	-0.02
406.498	-0.04
406.703	0.06
406.907	-0.02
407.112	-0.04
407.317	0.02
407.522	0.04
407.727	-0.04
407.932	0.01
408.136	0.04
408.341	0.02
408.546	0.01
408.751	0.02
408.956	0.03
409.16	0.08
409.365	-0.02
409.57	0.02
409.774	0.04
409.979	0.09
410.184	0.01
410.388	-0.03
410.593	0.06
410.798	0.02
411.002	0.03
411.207	0.02
411.411	0.06
411.616	-0.02
411.82	-0
412.025	0.08
412.229	0.01
412.434	0.13
412.638	0.06
412.843	0.03
413.047	0.04
413.252	-0.01
413.456	0.04
413.66	0.07
413.865	-0.01
414.069	0.08
414.273	0.02
414.478	0
414.682	0.04
414.886	0.06
415.091	0.01
415.295	-0.02
415.499	0.06
415.703	0.02
415.908	0.09
416.112	-0.07
416.316	0.07
416.52	0.05
416.724	-0.01
416.929	0
417.133	0.18
417.337	0.04
417.541	0.05
417.745	0.07
417.949	0.09
418.153	0.08
418.357	0.02
418.561	0.16
418.765	0.08
418.969	0.18
419.173	0.13
419.377	0.07
419.581	0.17
419.785	0.12
419.989	0.06
420.193	0.11
420.397	0.1
420.601	0.15
420.804	0.15
421.008	0.12
421.212	0.16
421.416	0.17
421.62	0.09
421.823	0.16
422.027	0.19
422.231	0.17
422.435	0.14
422.638	0.15
422.842	0.12
423.046	0.14
423.249	0.24
423.453	0.22
423.657	0.21
423.86	0.16
424.064	0.18
424.268	0.25
424.471	0.22
424.675	0.29
424.878	0.28
425.082	0.21
425.285	0.24
425.489	0.23
425.692	0.29
425.896	0.2
426.099	0.29
426.303	0.21
426.506	0.24
426.71	0.25
426.913	0.33
427.116	0.36
427.32	0.29
427.523	0.31
427.726	0.39
427.93	0.3
428.133	0.31
428.336	0.27
428.54	0.3
428.743	0.36
428.946	0.36
429.149	0.34
429.353	0.35
429.556	0.36
429.759	0.38
429.962	0.34
430.165	0.35
430.368	0.35
430.571	0.33
430.775	0.35
430.978	0.38
431.181	0.37
431.384	0.35
431.587	0.33
431.79	0.37
431.993	0.39
432.196	0.38
432.399	0.4
432.602	0.49
432.805	0.35
433.008	0.44
433.211	0.36
433.414	0.49
433.616	0.5
433.819	0.45
434.022	0.39
434.225	0.51
434.428	0.48
434.631	0.58
434.833	0.46
435.036	0.48
435.239	0.52
435.442	0.46
435.645	0.48
435.847	0.52
436.05	0.59
436.253	0.53
436.455	0.49
436.658	0.54
436.861	0.66
437.063	0.55
437.266	0.52
437.468	0.59
437.671	0.75
437.874	0.65
438.076	0.61
438.279	0.55
438.481	0.58
438.684	0.61
438.886	0.66
439.089	0.63
439.291	0.66
439.494	0.71
439.696	0.69
439.899	0.68
440.101	0.76
440.303	0.7
440.506	0.84
440.708	0.8
440.91	0.82
441.113	0.79
441.315	0.86
441.517	0.83
441.72	0.9
441.922	0.8
442.124	0.8
442.326	0.87
442.529	0.97
442.731	0.81
442.933	0.99
443.135	0.89
443.337	0.89
443.539	0.95
443.742	0.92
443.944	1.02
444.146	0.92
444.348	0.94
444.55	0.94
444.752	0.99
444.954	0.97
445.156	0.98
445.358	1.01
445.56	1.1
445.762	0.99
445.964	1.07
446.166	1.03
446.368	1.02
446.57	1.07
446.772	1.05
446.974	0.97
447.175	1.07
447.377	0.94
447.579	0.99
447.781	0.95
447.983	1.07
448.184	1.01
448.386	1
448.588	0.97
448.79	1.01
448.991	0.98
449.193	1.01
449.395	0.95
449.597	0.97
449.798	0.92
450	0.94
450.202	0.94
450.403	0.9
450.605	0.94
450.806	0.87
451.008	0.82
451.21	0.81
451.411	0.85
451.613	0.78
451.814	0.81
452.016	0.83
452.217	0.76
452.419	0.78
452.62	0.71
452.821	0.71
453.023	0.78
453.224	0.75
453.426	0.66
453.627	0.61
453.828	0.64
454.03	0.6
454.231	0.65
454.432	0.58
454.634	0.63
454.835	0.56
455.036	0.52
455.238	0.64
455.439	0.55
455.64	0.43
455.841	0.42
456.042	0.59
456.244	0.46
456.445	0.43
456.646	0.38
456.847	0.38
457.048	0.5
457.249	0.46
457.45	0.62
457.651	0.33
457.852	0.42
458.054	0.41
458.255	0.36
458.456	0.37
458.657	0.41
458.858	0.29
459.058	0.3
459.259	0.36
459.46	0.3
459.661	0.28
459.862	0.39
460.063	0.26
460.264	0.34
460.465	0.26
460.666	0.38
460.866	0.25
461.067	0.23
461.268	0.25
461.469	0.23
461.67	0.25
461.87	0.25
462.071	0.27
462.272	0.23
462.473	0.24
462.673	0.26
462.874	0.21
463.075	0.28
463.275	0.2
463.476	0.27
463.676	0.31
463.877	0.23
464.078	0.24
464.278	0.28
464.479	0.22
464.679	0.24
464.88	0.19
465.08	0.28
465.281	0.2
465.481	0.18
465.682	0.19
465.882	0.21
466.083	0.19
466.283	0.19
466.483	0.2
466.684	0.14
466.884	0.15
467.085	0.15
467.285	0.18
467.485	0.13
467.686	0.17
467.886	0.13
468.086	0.15
468.286	0.17
468.487	0.21
468.687	0.12
468.887	0.14
469.087	0.18
469.287	0.14
469.488	0.09
469.688	0.21
469.888	0.16
470.088	0.17
470.288	0.19
470.488	0.17
470.688	0.07
470.888	0.11
471.088	0.09
471.288	0.17
471.488	0.15
471.688	0.16
471.888	0.09
472.088	0.19
472.288	0.18
472.488	0.12
472.688	0.09
472.888	0.1
473.088	0.13
473.288	0.14
473.488	0.11
473.688	0.2
473.887	0.11
474.087	0.09
474.287	0.11
474.487	0.05
474.687	0.16
474.886	0.05
475.086	0.12
475.286	0.12
475.486	0.13
475.685	0.08
475.885	0.09
476.085	0.13
476.284	0.08
476.484	0.13
476.684	0.12
476.883	0.17
477.083	0.11
477.282	0.08
477.482	0.17
477.681	0.15
477.881	0.11
478.08	0.04
478.28	0.05
478.479	0.09
478.679	0.17
478.878	0.06
479.078	0.06
479.277	0.11
479.477	0.06
479.676	0.14
479.875	0.11
480.075	0.07
480.274	0.15
480.473	0.11
480.673	0.05
480.872	0.13
481.071	0.1
481.271	0.09
481.47	0.09
481.669	0.06
481.868	0.05
482.067	0.08
482.267	0.1
482.466	0.05
482.665	0.07
482.864	0.04
483.063	0.05
483.262	0.12
483.461	0.13
483.661	0.14
483.86	0.11
484.059	0.08
484.258	0.08
484.457	0.05
484.656	0.08
484.855	0.16
485.054	0.04
485.253	0.08
485.452	0.08
485.651	0.1
485.849	0.07
486.048	0.07
486.247	0.07
486.446	0.13
486.645	0.06
486.844	0.07
487.043	0.08
487.241	0.11
487.44	0.08
487.639	0.11
487.838	0.11
488.037	0.11
488.235	0.15
488.434	0.11
488.633	0.07
488.831	0.1
489.03	0.13
489.229	0.08
489.427	0.08
489.626	0.13
489.825	0.15
490.023	0.13
490.222	0.08
490.42	0.11
490.619	0.14
490.817	0.13
491.016	0.13
491.214	0.15
491.413	0.11
491.611	0.09
491.81	0.13
492.008	0.14
492.207	0.14
492.405	0.12
492.604	0.11
492.802	0.12
493	0.14
493.199	0.12
493.397	0.11
493.595	0.12
493.794	0.09
493.992	0.19
494.19	0.16
494.388	0.16
494.587	0.11
494.785	0.16
494.983	0.11
495.181	0.13
495.379	0.13
495.578	0.13
495.776	0.15
495.974	0.14
496.172	0.16
496.37	0.17
496.568	0.12
496.766	0.12
496.964	0.18
497.162	0.16
497.36	0.17
497.558	0.18
497.756	0.19
497.954	0.15
498.152	0.14
498.35	0.17
498.548	0.15
498.746	0.15
498.944	0.15
499.142	0.18
499.34	0.16
499.538	0.19
499.736	0.16
499.933	0.2
500.131	0.21
500.329	0.17
500.527	0.24
500.725	0.24
500.922	0.23
501.12	0.21
501.318	0.21
501.516	0.21
501.713	0.2
501.911	0.22
502.109	0.17
502.306	0.23
502.504	0.21
502.701	0.19
502.899	0.22
503.097	0.28
503.294	0.23
503.492	0.23
503.689	0.25
503.887	0.23
504.084	0.29
504.282	0.22
504.479	0.2
504.677	0.26
504.874	0.22
505.072	0.24
505.269	0.23
505.466	0.27
505.664	0.26
505.861	0.24
506.059	0.22
506.256	0.26
506.453	0.25
506.651	0.31
506.848	0.3
507.045	0.29
507.242	0.28
507.44	0.24
507.637	0.26
507.834	0.26
508.031	0.3
508.229	0.28
508.426	0.29
508.623	0.29
508.82	0.28
509.017	0.28
509.214	0.29
509.411	0.28
509.608	0.28
509.805	0.29
510.003	0.29
510.2	0.27
510.397	0.35
510.594	0.27
510.791	0.31
510.988	0.33
511.184	0.33
511.381	0.31
511.578	0.29
511.775	0.35
511.972	0.31
512.169	0.31
512.366	0.31
512.563	0.34
512.76	0.34
512.956	0.36
513.153	0.32
513.35	0.34
513.547	0.32
513.744	0.33
513.94	0.31
514.137	0.36
514.334	0.36
514.53	0.34
514.727	0.38
514.924	0.41
515.12	0.36
515.317	0.33
515.514	0.32
515.71	0.32
515.907	0.34
516.103	0.36
516.3	0.39
516.497	0.37
516.693	0.41
516.89	0.36
517.086	0.33
517.283	0.41
517.479	0.36
517.676	0.38
517.872	0.35
518.068	0.36
518.265	0.36
518.461	0.35
518.658	0.35
518.854	0.39
519.05	0.38
519.247	0.38
519.443	0.38
519.639	0.41
519.836	0.36
520.032	0.39
520.228	0.39
520.424	0.42
520.621	0.4
520.817	0.38
521.013	0.4
521.209	0.4
521.405	0.45
521.601	0.4
521.798	0.37
521.994	0.46
522.19	0.37
522.386	0.37
522.582	0.38
522.778	0.39
522.974	0.39
523.17	0.4
523.366	0.42
523.562	0.44
523.758	0.4
523.954	0.37
524.15	0.38
524.346	0.43
524.542	0.41
524.738	0.39
524.934	0.41
525.129	0.43
525.325	0.42
525.521	0.4
525.717	0.43
525.913	0.44
526.109	0.4
526.304	0.41
526.5	0.45
526.696	0.47
526.892	0.4
527.087	0.46
527.283	0.4
527.479	0.45
527.674	0.4
527.87	0.43
528.066	0.44
528.261	0.42
528.457	0.44
528.653	0.43
528.848	0.42
529.044	0.42
529.239	0.42
529.435	0.45
529.63	0.43
529.826	0.47
530.021	0.43
530.217	0.45
530.412	0.4
530.608	0.4
530.803	0.4
530.999	0.43
531.194	0.38
531.389	0.46
531.585	0.38
531.78	0.45
531.975	0.48
532.171	0.47
532.366	0.44
532.561	0.45
532.757	0.42
532.952	0.44
533.147	0.46
533.342	0.44
533.538	0.42
533.733	0.48
533.928	0.43
534.123	0.43
534.318	0.41
534.513	0.43
534.709	0.43
534.904	0.43
535.099	0.45
535.294	0.47
535.489	0.47
535.684	0.46
535.879	0.42
536.074	0.46
536.269	0.45
536.464	0.46
536.659	0.46
536.854	0.44
537.049	0.46
537.244	0.46
537.439	0.41
537.634	0.47
537.828	0.43
538.023	0.45
538.218	0.43
538.413	0.45
538.608	0.42
538.803	0.46
538.997	0.4
539.192	0.49
539.387	0.47
539.582	0.45
539.776	0.44
539.971	0.46
540.166	0.43
540.36	0.42
540.555	0.44
540.75	0.44
540.944	0.45
541.139	0.41
541.334	0.45
541.528	0.48
541.723	0.48
541.917	0.45
542.112	0.38
542.306	0.44
542.501	0.44
542.695	0.47
542.89	0.42
543.084	0.46
543.279	0.44
543.473	0.46
543.668	0.46
543.862	0.44
544.056	0.47
544.251	0.44
544.445	0.48
544.64	0.45
544.834	0.4
545.028	0.44
545.222	0.47
545.417	0.48
545.611	0.46
545.805	0.45
546	0.41
546.194	0.45
546.388	0.44
546.582	0.43
546.776	0.44
546.97	0.47
547.165	0.46
547.359	0.48
547.553	0.42
547.747	0.44
547.941	0.44
548.135	0.45
548.329	0.47
548.523	0.47
548.717	0.42
548.911	0.45
549.105	0.45
549.299	0.5
549.493	0.47
549.687	0.47
549.881	0.46
550.075	0.44
550.269	0.41
550.463	0.49
550.657	0.44
550.85	0.45
551.044	0.41
551.238	0.47
551.432	0.43
551.626	0.41
551.82	0.44
552.013	0.44
552.207	0.46
552.401	0.47
552.594	0.47
552.788	0.42
552.982	0.46
553.176	0.44
553.369	0.48
553.563	0.45
553.756	0.41
553.95	0.45
554.144	0.45
554.337	0.49
554.531	0.44
554.724	0.47
554.918	0.44
555.111	0.48
555.305	0.46
555.498	0.5
555.692	0.45
555.885	0.44
556.079	0.45
556.272	0.42
556.466	0.48
556.659	0.45
556.852	0.46
557.046	0.43
557.239	0.46
557.432	0.41
557.626	0.43
557.819	0.47
558.012	0.45
558.206	0.51
558.399	0.45
558.592	0.51
558.785	0.42
558.979	0.47
559.172	0.45
559.365	0.47
559.558	0.45
559.751	0.45
559.944	0.45
560.138	0.43
560.331	0.45
560.524	0.44
560.717	0.46
560.91	0.43
561.103	0.47
561.296	0.47
561.489	0.46
561.682	0.48
561.875	0.48
562.068	0.48
562.261	0.46
562.454	0.48
562.647	0.47
562.84	0.48
563.032	0.45
563.225	0.44
563.418	0.46
563.611	0.42
563.804	0.45
563.997	0.44
564.19	0.4
564.382	0.43
564.575	0.43
564.768	0.44
564.961	0.45
565.153	0.42
565.346	0.46
565.539	0.47
565.731	0.43
565.924	0.49
566.117	0.47
566.309	0.46
566.502	0.43
566.695	0.44
566.887	0.46
567.08	0.42
567.272	0.45
567.465	0.44
567.657	0.46
567.85	0.45
568.042	0.45
568.235	0.47
568.427	0.46
568.62	0.43
568.812	0.48
569.005	0.45
569.197	0.39
569.389	0.44
569.582	0.46
569.774	0.44
569.966	0.4
570.159	0.43
570.351	0.44
570.543	0.44
570.736	0.45
570.928	0.41
571.12	0.46
571.312	0.44
571.505	0.37
571.697	0.48
571.889	0.42
572.081	0.45
572.273	0.43
572.465	0.48
572.658	0.42
572.85	0.47
573.042	0.42
573.234	0.42
573.426	0.47
573.618	0.4
573.81	0.43
574.002	0.47
574.194	0.47
574.386	0.42
574.578	0.36
574.77	0.41
574.962	0.44
575.154	0.4
575.346	0.44
575.538	0.43
575.729	0.41
575.921	0.43
576.113	0.44
576.305	0.46
576.497	0.44
576.689	0.41
576.88	0.42
577.072	0.5
577.264	0.44
577.456	0.44
577.647	0.37
577.839	0.44
578.031	0.45
578.223	0.38
578.414	0.41
578.606	0.45
578.798	0.45
578.989	0.39
579.181	0.41
579.372	0.43
579.564	0.41
579.755	0.43
579.947	0.43
580.139	0.45
580.33	0.39
580.522	0.41
580.713	0.39
580.905	0.42
581.096	0.46
581.287	0.43
581.479	0.44
581.67	0.45
581.862	0.44
582.053	0.42
582.244	0.39
582.436	0.43
582.627	0.41
582.818	0.39
583.01	0.39
583.201	0.43
583.392	0.45
583.583	0.44
583.775	0.41
583.966	0.38
584.157	0.4
584.348	0.44
584.54	0.38
584.731	0.41
584.922	0.42
585.113	0.39
585.304	0.41
585.495	0.45
585.686	0.41
585.877	0.46
586.068	0.4
586.259	0.43
586.45	0.41
586.641	0.39
586.832	0.37
587.023	0.39
587.214	0.41
587.405	0.42
587.596	0.37
587.787	0.46
587.978	0.43
588.169	0.39
588.36	0.39
588.551	0.43
588.742	0.4
588.932	0.44
589.123	0.37
589.314	0.41
589.505	0.41
589.696	0.41
589.886	0.35
590.077	0.38
590.268	0.41
590.458	0.38
590.649	0.35
590.84	0.42
591.03	0.37
591.221	0.37
591.412	0.37
591.602	0.44
591.793	0.41
591.984	0.37
592.174	0.37
592.365	0.49
592.555	0.35
592.746	0.41
592.936	0.45
593.127	0.41
593.317	0.41
593.508	0.39
593.698	0.37
593.889	0.4
594.079	0.38
594.269	0.36
594.46	0.37
594.65	0.4
594.84	0.39
595.031	0.35
595.221	0.37
595.411	0.35
595.602	0.38
595.792	0.36
595.982	0.38
596.172	0.43
596.363	0.37
596.553	0.39
596.743	0.42
596.933	0.39
597.123	0.43
597.314	0.34
597.504	0.37
597.694	0.4
597.884	0.39
598.074	0.36
598.264	0.37
598.454	0.39
598.644	0.36
598.834	0.36
599.024	0.31
599.214	0.35
599.404	0.41
599.594	0.34
599.784	0.36
599.974	0.41
600.164	0.39
600.354	0.33
600.544	0.32
600.734	0.37
600.924	0.36
601.114	0.34
601.303	0.37
601.493	0.34
601.683	0.36
601.873	0.37
602.063	0.31
602.252	0.38
602.442	0.28
602.632	0.35
602.821	0.33
603.011	0.36
603.201	0.34
603.39	0.33
603.58	0.32
603.77	0.39
603.959	0.38
604.149	0.36
604.339	0.33
604.528	0.36
604.718	0.37
604.907	0.33
605.097	0.31
605.286	0.3
605.476	0.35
605.665	0.36
605.855	0.32
606.044	0.36
606.234	0.35
606.423	0.33
606.612	0.31
606.802	0.32
606.991	0.36
607.181	0.35
607.37	0.28
607.559	0.29
607.749	0.27
607.938	0.32
608.127	0.32
608.316	0.29
608.506	0.32
608.695	0.33
608.884	0.31
609.073	0.28
609.263	0.34
609.452	0.34
609.641	0.32
609.83	0.29
610.019	0.32
610.208	0.28
610.397	0.3
610.586	0.32
610.775	0.28
610.965	0.31
611.154	0.29
611.343	0.3
611.532	0.3
611.721	0.27
611.91	0.28
612.099	0.31
612.287	0.27
612.476	0.26
612.665	0.31
612.854	0.29
613.043	0.33
613.232	0.27
613.421	0.25
613.61	0.3
613.798	0.27
613.987	0.33
614.176	0.31
614.365	0.33
614.554	0.31
614.742	0.3
614.931	0.25
615.12	0.3
615.309	0.26
615.497	0.27
615.686	0.25
615.875	0.29
616.063	0.26
616.252	0.26
616.44	0.25
616.629	0.28
616.818	0.29
617.006	0.3
617.195	0.29
617.383	0.29
617.572	0.25
617.76	0.25
617.949	0.24
618.137	0.26
618.326	0.31
618.514	0.23
618.703	0.19
618.891	0.31
619.079	0.21
619.268	0.29
619.456	0.26
619.644	0.31
619.833	0.27
620.021	0.25
620.209	0.19
620.398	0.26
620.586	0.29
620.774	0.26
620.962	0.26
621.151	0.32
621.339	0.27
621.527	0.23
621.715	0.19
621.903	0.23
622.092	0.2
622.28	0.25
622.468	0.22
622.656	0.26
622.844	0.3
623.032	0.25
623.22	0.18
623.408	0.3
623.596	0.28
623.784	0.28
623.972	0.23
624.16	0.23
624.348	0.29
624.536	0.21
624.724	0.22
624.912	0.28
625.1	0.25
625.288	0.23
625.476	0.22
625.664	0.26
625.851	0.2
626.039	0.2
626.227	0.22
626.415	0.24
626.603	0.18
626.79	0.23
626.978	0.25
627.166	0.24
627.354	0.23
627.541	0.2
627.729	0.15
627.917	0.25
628.104	0.29
628.292	0.23
628.48	0.21
628.667	0.23
628.855	0.22
629.042	0.27
629.23	0.16
629.418	0.23
629.605	0.19
629.793	0.18
629.98	0.16
630.168	0.21
630.355	0.22
630.543	0.21
630.73	0.15
630.917	0.26
631.105	0.26
631.292	0.23
631.48	0.2
631.667	0.27
631.854	0.22
632.042	0.18
632.229	0.17
632.416	0.24
632.604	0.2
632.791	0.21
632.978	0.22
633.165	0.22
633.353	0.26
633.54	0.25
633.727	0.12
633.914	0.17
634.101	0.22
634.289	0.23
634.476	0.16
634.663	0.17
634.85	0.2
635.037	0.15
635.224	0.12
635.411	0.21
635.598	0.26
635.785	0.18
635.972	0.16
636.159	0.24
636.346	0.14
636.533	0.16
636.72	0.16
636.907	0.16
637.094	0.17
637.281	0.16
637.468	0.18
637.655	0.19
637.842	0.19
638.029	0.15
638.215	0.18
638.402	0.18
638.589	0.14
638.776	0.16
638.963	0.16
639.149	0.2
639.336	0.24
639.523	0.16
639.709	0.21
639.896	0.17
640.083	0.22
640.27	0.19
640.456	0.14
640.643	0.21
640.829	0.1
641.016	0.13
641.203	0.12
641.389	0.22
641.576	0.18
641.762	0.14
641.949	0.16
642.135	0.2
642.322	0.19
642.508	0.15
642.695	0.16
642.881	0.15
643.068	0.16
643.254	0.16
643.441	0.21
643.627	0.17
643.813	0.16
644	0.17
644.186	0.12
644.372	0.12
644.559	0.17
644.745	0.17
644.931	0.09
645.118	0.15
645.304	0.15
645.49	0.11
645.676	0.13
645.862	0.13
646.049	0.21
646.235	0.13
646.421	0.22
646.607	0.21
646.793	0.1
646.979	0.1
647.165	0.15
647.352	0.13
647.538	0.2
647.724	0.12
647.91	0.11
648.096	0.18
648.282	0.17
648.468	0.09
648.654	0.16
648.84	0.15
649.026	0.13
649.212	0.15
649.397	0.07
649.583	0.07
649.769	0.18
649.955	0.11
650.141	0.12
650.327	0.18
650.513	0.11
650.698	0.14
650.884	0.06
651.07	0.14
651.256	0.14
651.442	0.11
651.627	0.08
651.813	0.14
651.999	0.11
652.184	0.13
652.37	0.13
652.556	0.08
652.741	0.16
652.927	0.06
653.113	0.12
653.298	0.11
653.484	0.11
653.669	0.06
653.855	0.12
654.04	0.14
654.226	0.11
654.412	0.11
654.597	0.08
654.782	0.13
654.968	0.19
655.153	0.12
655.339	0.08
655.524	0.06
655.71	0.16
655.895	0.08
656.08	0.08
656.266	0.19
656.451	0.08
656.636	0.09
656.822	0.1
657.007	0.09
657.192	0.12
657.378	0.07
657.563	0.11
657.748	0.13
657.933	0.12
658.118	0.08
658.304	0.1
658.489	0.1
658.674	0.14
658.859	0.08
659.044	0.09
659.229	0.11
659.414	0.09
659.599	0.12
659.785	0.07
659.97	0.13
660.155	0.15
660.34	0.13
660.525	0.11
660.71	0.08
660.895	0.11
661.08	0.08
661.264	0.09
661.449	0.16
661.634	0.12
661.819	0.11
662.004	0.1
662.189	0
662.374	0.08
662.559	0.03
662.743	0.05
662.928	0.08
663.113	0.04
663.298	0.02
663.483	0.07
663.667	0.11
663.852	0.1
664.037	0.14
664.221	0.05
664.406	0.16
664.591	0.09
664.775	0.09
664.96	0.01
665.145	0.08
665.329	0.08
665.514	-0.01
665.698	0.07
665.883	0.03
666.068	0.14
666.252	0.06
666.437	0.01
666.621	0.08
666.806	0.11
666.99	0.09
667.174	0.03
667.359	0.13
667.543	0.06
667.728	0.06
667.912	0.03
668.096	0.15
668.281	0.09
668.465	0.09
668.649	0.07
668.834	0.05
669.018	0.02
669.202	0.05
669.387	0.04
669.571	0.14
669.755	0.03
669.939	0.11
670.124	0.06
670.308	0.12
670.492	0.11
670.676	0.09
670.86	0.06
671.044	0.01
671.228	0.11
671.413	0.05
671.597	0
671.781	0.05
671.965	0.12
672.149	0.05
672.333	0.06
672.517	0.07
672.701	0.1
672.885	0.04
673.069	0
673.253	0.15
673.437	0.07
673.621	0.06
673.804	0.04
673.988	0.04
674.172	0.1
674.356	0
674.54	0.04
674.724	0.16
674.908	0.05
675.091	0.09
675.275	0.07
675.459	0.08
675.643	0.05
675.826	0.08
676.01	0.08
676.194	0.01
676.377	0.05
676.561	0.08
676.745	0.06
676.928	0.05
677.112	0.12
677.296	0.04
677.479	0.06
677.663	0.06
677.846	0.08
678.03	0.07
678.213	0.02
678.397	0.08
678.58	0.04
678.764	0.04
678.947	0.05
679.131	0.01
679.314	0.11
679.498	0.01
679.681	0.07
679.865	0.07
680.048	0.05
680.231	0.04
680.415	0.05
680.598	0.05
680.781	0.07
680.965	0.03
681.148	0.06
681.331	0.04
681.514	0.09
681.698	0.01
681.881	0.08
682.064	0.04
682.247	0.04
682.43	-0.01
682.614	0.09
682.797	0.07
682.98	0.13
683.163	0.01
683.346	0.07
683.529	0.06
683.712	0.03
683.895	0.06
684.078	0
684.261	0.04
684.444	0.04
684.627	0.07
684.81	0.04
684.993	-0
685.176	0.08
685.359	0.05
685.542	0.02
685.725	0.1
685.908	0.06
686.091	0
686.274	0.1
686.457	0.11
686.639	0.02
686.822	0.06
687.005	0.02
687.188	0.1
687.371	0.14
687.553	0.09
687.736	0.09
687.919	0.12
688.102	0.1
688.284	-0
688.467	0.03
688.65	0.04
688.832	0
689.015	0.04
689.197	-0.09
689.38	0.12
689.563	0.1
689.745	0.02
689.928	0.01
690.11	0.04
690.293	0.07
690.475	-0.07
690.658	0.08
690.84	0.04
691.023	0.02
691.205	0.04
691.388	0.03
691.57	0.07
691.752	0.07
691.935	-0.02
692.117	0.02
692.3	0.02
692.482	0.02
692.664	0.06
692.847	0.04
693.029	0.09
693.211	0.07
693.393	0.05
693.576	0.03
693.758	0.04
693.94	0.02
694.122	0.02
694.304	0
694.487	0.04
694.669	0.08
694.851	-0.04
695.033	0.08
695.215	-0.01
695.397	-0.03
695.579	0.04
695.761	0
695.943	-0.06
696.125	0.09
696.308	0.03
696.49	-0.06
696.671	0.13
696.853	-0.01
697.035	0.13
697.217	0.03
697.399	0.06
697.581	0.01
697.763	0.03
697.945	-0.02
698.127	0.07
698.309	-0.05
698.491	-0.03
698.672	0.05
698.854	0.08
699.036	0.06
699.218	0.01
699.399	0.11
699.581	0.1
699.763	0.02
699.945	-0.01
700.126	-0.04
700.308	0.02
700.49	-0
700.671	-0.07
700.853	0.03
701.035	0.05
701.216	0
701.398	-0.05
701.579	0.03
701.761	0.06
701.943	0.01
702.124	-0.03
702.306	-0.01
702.487	0.18
702.669	0.04
702.85	-0.07
703.031	-0.04
703.213	0.08
703.394	0.09
703.576	-0.03
703.757	0.08
703.938	0.05
704.12	0.18
704.301	-0.03
704.483	-0.06
704.664	0.01
704.845	0.07
705.026	0.02
705.208	-0.01
705.389	-0.01
705.57	0.08
705.751	-0.01
705.933	0.04
706.114	0.08
706.295	-0
706.476	-0.07
706.657	0.08
706.838	0.09
707.02	0.05
707.201	-0
707.382	-0.02
707.563	0.02
707.744	-0.04
707.925	-0.02
708.106	-0.04
708.287	0.05
708.468	0.15
708.649	0.03
708.83	0.01
709.011	0.05
709.192	0.06
709.373	-0.09
709.554	-0.02
709.734	0.1
709.915	0.08
710.096	0.08
710.277	-0.13
710.458	0.03
710.639	0.02
710.819	-0.1
711	0.04
711.181	0.12
711.362	0.05
711.542	0.07
711.723	-0.01
711.904	0.04
712.085	0.04
712.265	0.01
712.446	-0.11
712.627	0.01
712.807	0.07
712.988	0.02
713.168	-0.01
713.349	0.08
713.53	-0.1
713.71	-0.09
713.891	-0.1
714.071	0
714.252	-0.06
714.432	-0.02
714.613	-0.09
714.793	0.08
714.974	0.12
715.154	0.19
715.334	0.1
715.515	0.03
715.695	-0.05
715.876	0.02
716.056	0.02
716.236	-0.05
716.417	0.06
716.597	0.03
716.777	0.12
716.957	0.03
717.138	0.08
717.318	0.02
717.498	-0.04
717.678	-0.04
717.859	0.01
718.039	-0.01
718.219	0.03
718.399	0.13
718.579	-0.08
718.759	-0.03
718.939	0.04
719.12	0.04
719.3	0.02
719.48	-0.05
719.66	-0.09
719.84	0.1
720.02	-0.05
720.2	-0.09
720.38	0.07
720.56	0.06
720.74	0.07
720.92	-0.01
721.1	0.11
721.279	0.08
721.459	0.04
721.639	-0.14
721.819	0.07
721.999	0.04
722.179	0.01
722.359	-0.09
722.538	0.05
722.718	0.04
722.898	-0.04
723.078	-0.06
723.257	-0
723.437	-0.02
723.617	-0.02
723.797	0.02
723.976	0.04
724.156	0.04
724.336	0.15
724.515	0.11
724.695	-0.04
724.874	-0.07
725.054	0.04
725.234	-0.08
725.413	0.06
725.593	-0.04
725.772	0.01
725.952	-0.02
726.131	-0
726.311	0.01
726.49	0
726.67	-0.03
726.849	-0.11
727.028	0.06
727.208	-0.06
727.387	0.02
727.567	-0.04
727.746	-0.02
727.925	-0.08
728.105	-0.1
728.284	-0.05
728.463	-0.09
728.643	0
728.822	-0.12
729.001	-0.09
729.18	-0
729.359	0.04
729.539	0.08
729.718	0.01
729.897	0.06
730.076	-0.05
730.255	-0.04
730.434	-0.01
730.614	0.1
730.793	0.05
730.972	-0
731.151	0
731.33	0.12
731.509	-0.01
731.688	-0.01
731.867	0.07
732.046	-0.11
732.225	0.2
732.404	-0.11
732.583	-0.12
732.762	-0.03
732.941	0.06
733.12	0.02
733.298	-0.05
733.477	0.11
733.656	-0.08
733.835	0.02
734.014	0.05
734.193	0.08
734.371	0.05
734.55	0.06
734.729	-0.04
734.908	0.03
735.086	0.06
735.265	0.13
735.444	-0.15
735.623	-0.08
735.801	-0.08
735.98	-0.05
736.159	-0.04
736.337	0.13
736.516	0.11
736.694	0.02
736.873	-0.09
737.052	0.04
737.23	0.14
737.409	0
737.587	0.17
737.766	-0.14
737.944	-0.14
738.123	0.01
738.301	0.05
738.479	0
738.658	-0.01
738.836	-0.25
739.015	-0.05
739.193	0.17
739.371	-0.14
739.55	-0.03
739.728	-0.03
739.906	0.06
740.085	0.07
740.263	-0
740.441	-0.2
740.62	0.19
740.798	-0.03
740.976	-0.11
741.154	0.02
741.332	0.19
741.511	-0.04
741.689	0.04
741.867	0.04
742.045	0
742.223	0.01
742.401	-0.06
742.579	-0.04
742.757	0.06
742.935	-0.11
743.114	-0
743.292	-0
743.47	0.05
743.648	0.09
743.826	-0.01
744.004	-0.02
744.181	0.13
744.359	-0.1
744.537	0.07
744.715	-0.04
744.893	-0.03
745.071	-0.06
745.249	-0.1
745.427	-0.08
745.605	-0.01
745.782	-0.05
745.96	0.04
746.138	-0.07
746.316	0.15
746.493	-0.07
746.671	0.01
746.849	-0.03
747.027	0.17
747.204	0.03
747.382	0.05
747.56	-0.09
747.737	0.01
747.915	-0.15
748.093	0.04
748.27	-0
748.448	-0.02
748.625	-0.18
748.803	-0.04
748.98	0.04
749.158	-0.03
749.335	0.2
749.513	-0.02
749.69	-0.01
749.868	0.03
750.045	0.04
750.223	-0.01
750.4	-0.26
750.578	0.11
750.755	0.03
750.932	-0.15
751.11	0.13
751.287	-0.19
751.464	0.09
751.642	-0.05
751.819	0.1
751.996	-0.02
752.173	-0.05
752.351	-0.12
752.528	0.06
752.705	-0.03
752.882	-0.12
753.06	0.05
753.237	-0
753.414	0.22
753.591	0.16
753.768	-0.03
753.945	-0.14
754.122	-0.03
754.299	0.07
754.476	-0.14
754.654	0.09
754.831	0
755.008	0
755.185	-0.04
755.362	-0.07
755.539	-0.06
755.716	-0.14
755.892	-0
756.069	-0.07
756.246	-0.04
756.423	-0.13
756.6	0.01
756.777	-0.11
756.954	0.05
757.131	0
757.307	-0.11
757.484	0.01
757.661	-0.02
757.838	0.04
758.015	-0.13
758.191	0.01
758.368	0.08
758.545	0.15
758.721	0.06
758.898	-0.06
759.075	0.1
759.251	0.02
759.428	0.09
759.605	-0.22
759.781	-0.08
759.958	-0.04
760.134	0.04
760.311	-0.2
760.488	0.19
760.664	-0.08
760.841	0.11
761.017	-0.11
761.194	0.08
761.37	0.15
761.547	-0.05
761.723	-0.04
761.899	0.06
762.076	-0.25
762.252	-0.14
762.429	-0.08
762.605	0.14
762.781	-0.02
762.958	0.11
763.134	-0.15
763.31	-0.06
763.486	0.07
763.663	-0.22
763.839	0.13
764.015	-0.22
764.191	-0.08
764.368	-0.06
764.544	-0.1
764.72	0.02
764.896	0.09
765.072	0.06
765.248	-0.04
765.425	-0.05
765.601	0.09
765.777	0.02
765.953	-0.12
766.129	-0.03
766.305	0
766.481	0.1
766.657	-0.02
766.833	0.28
767.009	-0.25
767.185	-0.15
767.361	-0.09
767.537	-0.11
767.713	0.16
767.889	-0.09
768.065	-0.05
768.24	-0.24
768.416	0.08
768.592	-0.06
768.768	-0.08
768.944	0.09
769.12	-0.07
769.295	-0.14
769.471	0.03
769.647	-0.14
769.823	0.09
769.998	-0.05
770.174	-0.08
770.35	0.3
770.525	0.21
770.701	-0.01
770.877	0.03
771.052	-0.05
771.228	0.1
771.403	0.16
771.579	0.03
771.755	0.31
771.93	0.04
772.106	-0.12
772.281	-0.2
772.457	-0.01
772.632	-0.13
772.808	-0.19
772.983	0.02
773.159	-0.12
773.334	0.21
773.509	-0.04
773.685	-0.15
773.86	0.23
774.036	0.06
774.211	0.06
774.386	-0.05
774.562	0.12
774.737	0.08
774.912	-0.15
775.087	0.04
775.263	0.09
775.438	0.07
775.613	0.01
775.788	-0.03
775.964	0.21
776.139	0.36
776.314	-0.16
776.489	-0.02
776.664	-0.05
776.839	-0.16
777.014	0.18
777.19	0.06
777.365	0.26
777.54	0.13
777.715	-0.17
777.89	-0.08
778.065	-0.17
778.24	-0.16
778.415	0.17
778.59	-0.19
778.765	-0.03
778.94	0.05
779.115	0.02
779.289	-0.03
779.464	-0.12
779.639	-0.03
779.814	-0.27
779.989	-0.13
780.164	0.21
780.339	0.09
780.513	-0.14
780.688	-0
780.863	0.05
781.038	0.01
781.212	-0.06
781.387	0.08
781.562	0.21
781.737	-0.12
781.911	0.17
782.086	-0.06
782.261	0.01
782.435	0.34
782.61	-0.12
782.784	-0.06
782.959	0.17
783.134	-0.08
783.308	-0.31
783.483	-0.03
783.657	0.38
783.832	0.03
784.006	-0.36
784.181	-0.12
784.355	0.04
784.53	-0.13
784.704	-0.1
784.878	0.3
785.053	-0
785.227	0.04
785.402	0.36
785.576	-0.07
785.75	-0.2
785.925	-0.21
786.099	-0.01
786.273	-0.01
786.448	-0.03
786.622	-0.11
786.796	-0.15
786.97	-0.23
787.145	0.49
787.319	-0.53
787.493	-0.02
787.667	-0.17
787.841	-0.11
788.015	0.21
788.19	-0.25
788.364	0.03
788.538	0.08
788.712	0.15
788.886	0.06
789.06	0.19
789.234	0.16
789.408	-0.24
789.582	-0.12
789.756	0.1
789.93	-0.18
790.104	-0.04
790.278	-0.19
790.452	-0.14
790.626	0.13
790.8	-0.09
790.973	0.05
791.147	0.26
791.321	0.24
791.495	0.15
791.669	-0.03
791.843	0.26
792.016	-0.03
792.19	0.42
792.364	-0.3
792.538	0.23
792.711	0.47
792.885	-0.31
793.059	-0.24
793.233	-0.58
793.406	0.26
793.58	-0.05
793.754	-0.19
793.927	-0.05
794.101	0.25
794.274	-0.08
794.448	0.15
794.622	-0.08
794.795	0.13
794.969	-0.16
795.142	0.23
795.316	-0.11
795.489	-0.02
795.663	0.35
795.836	0.16
796.009	0.04
796.183	0.5
796.356	0.05
796.53	-0.28
796.703	-0.23
796.876	0.5
797.05	-0.21
797.223	0.18
797.396	0.22
797.57	0
797.743	0.22
797.916	0.14
798.09	-0.29
798.263	0.27
798.436	0.07
798.609	0.01
798.782	-0.02
798.956	-0.16
799.129	0.06
799.302	-0.01
799.475	-0.05
799.648	-0.08
799.821	0.08
799.994	-0
800.167	-0.26
800.34	0.02
800.514	0.02
800.687	-0.01
800.86	-0.09
801.033	0.01
801.206	0.01
801.379	-0.26
801.551	0.08
801.724	0.26
801.897	0.34
802.07	-0.33
802.243	-0.71
802.416	-0.35
802.589	-0.19
802.762	0.24
802.935	-0.16
803.107	-0.08
803.28	0.23
803.453	0.12
803.626	-0.07
803.798	-0.06
803.971	-0.23
804.144	0.34
804.317	0.12
804.489	0.48
804.662	0.03
804.835	0.24
805.007	-0.21
805.18	0.5
805.353	-0.06
805.525	-0.31
805.698	-0.03
805.87	0.28
806.043	0.18
806.215	-0.36
806.388	-0.02
806.56	0.4
806.733	0.02
806.905	0.02
807.078	-0.43
807.25	-0.55
807.423	-0.12
807.595	0.31
807.768	0.32
807.94	0.36
808.112	0.22
808.285	0.24
808.457	-0.06
808.629	-0.05
808.802	0.11
808.974	0.02
809.146	0.02
809.318	-0.52
809.491	-0.01
809.663	0.22
809.835	-0.23
810.007	0.13
810.18	-0.11
810.352	-0.28
810.524	0.22
810.696	-0.08
810.868	0.23
811.04	-0.13
811.212	-0.04
811.384	0.2
811.556	-0.12
811.728	-0.06
811.901	0.43
812.073	-0.4
812.245	0.21
812.417	-0.14
812.589	-0.58
812.76	-0.07
812.932	0.26
813.104	0.14
813.276	-0.33
813.448	0.36
813.62	0.62
813.792	-0.05
813.964	0.08
814.136	0.32
814.307	-0.33
814.479	-0.51
814.651	-0.24
814.823	0.81
814.995	-0.04
815.166	-0.38
815.338	-0.31
815.51	-0.45
815.681	0.76
815.853	-0.25
816.025	-0.04
816.196	0.31
816.368	0.38
816.54	-0.41
816.711	-0.5
816.883	0
817.054	1.04
817.226	-0.79
817.398	-0.04
817.569	-0.26
817.741	0.01
817.912	0.07
818.084	-0.11
818.255	-0.01
818.426	-0.71
818.598	-0.25
818.769	-0.27
818.941	0.74
819.112	0.73
819.283	0.16
819.455	-0.5
819.626	0.28
819.798	0.41
819.969	-0.11
820.14	-0.2
820.311	-0.43
820.483	0.01
820.654	0.01
820.825	-0.23
820.996	-0.22
821.168	-0.31
821.339	-0.15
821.51	-0.64
821.681	-0.18
821.852	0.17
822.023	-0.37
822.195	-0.98
822.366	0.53
822.537	-0.17
822.708	0.18
822.879	-0.35
823.05	0.56
823.221	-0.33
823.392	0.1
823.563	0.01
823.734	-0.54
823.905	-0.42
824.076	-0.35
824.247	-0.27
824.418	-0.01
824.589	0.36
824.759	0.12
824.93	0.24
825.101	-0.67
825.272	0.12
825.443	0.6
825.614	0.7
825.784	-0.49
825.955	0.58
826.126	0.33
826.297	-0.16
826.467	0.72
826.638	0.19
826.809	-1.09
826.98	-0.14
827.15	0.51
827.321	0.27
827.492	1.11
827.662	-0.3
827.833	0.62
828.003	0.3
828.174	-0.42
828.345	-0.68
828.515	0.46
828.686	0.45
828.856	-0.23
829.027	0.09
829.197	0.38
829.368	0.58
829.538	-0.36
829.709	-0.3
829.879	-0.2
830.049	-0.34
830.22	0.14
830.39	0.02
830.56	0.83
830.731	-0.13
830.901	-0.29
831.072	-0.12
831.242	-0.18
831.412	-0.27
831.582	0.09
831.753	-0.33
831.923	0.42
832.093	0.13
832.263	-0.39
832.434	-0.4
832.604	-0.28
832.774	0.28
832.944	-0.53
833.114	-0.55
833.284	0.31
833.454	-0.06
833.624	0.3
833.795	0.27
833.965	0.54
834.135	0.38
834.305	-0.95
834.475	-0.6
834.645	-0.11
834.815	-0.31
834.985	-0.27
835.155	-0.23
835.325	0.45
835.494	0.44
835.664	-0.31
835.834	-1.24
836.004	0.28
836.174	0.12
836.344	-0.12
836.514	-1.26
836.684	0.08
836.853	0.65
837.023	0.17
837.193	0.13
837.363	0.65
837.532	0.33
837.702	-0.32
837.872	-1.39
838.041	1.12
838.211	0.78
838.381	-0.87
838.55	-0.45
838.72	1.8
838.89	1.32
839.059	0.3
839.229	-0.35
839.398	0.44
839.568	0.34
839.738	-0.28
839.907	0.32
840.077	0.07
840.246	0.14
840.416	-0.68
840.585	-0.5
840.755	0.95
840.924	0.62
841.093	-0.71
841.263	-0.22
841.432	0.69
841.602	-1.2
841.771	0.22
841.94	-0.33
842.11	2.44
842.279	0.89
842.448	-0.77
842.617	-1.57
842.787	0.34
842.956	-1.15
843.125	0.26
843.294	0.31
843.464	0.92
843.633	-0.49
843.802	-0.88
843.971	-0.37
844.14	0.36
844.309	0.24
844.479	-1.28
844.648	-0.43
844.817	-0.83
844.986	-0.51
845.155	0.08
845.324	-0.63
845.493	-0.43
845.662	-1.22
845.831	0.83
846	0.48
846.169	0.17
846.338	0.97
846.507	0.19
846.676	-0.09
846.844	-0.22
847.013	1.39
847.182	-0.45
847.351	-0.47
847.52	0.29
847.689	0.54
847.858	-0.32
848.026	-0.33
848.195	-0.45
848.364	-0.55
848.533	-0.44
848.701	0.19
848.87	-0.01
849.039	0.57
849.207	1.03
849.376	0.18
849.545	0.38
849.713	-0.76
849.882	0.03
850.051	-0.28
850.219	0.23
850.388	0.39
850.556	-1.09
850.725	-0.86
850.893	-0.46
851.062	-0.82
851.23	0.14
851.399	-0.94
851.567	-0.83
851.736	-1.06
851.904	-1.05
852.073	0.73
852.241	0.17
852.41	0.04
852.578	-0.86
852.746	-0.04
852.915	0.62
853.083	-0.35
853.251	-0.66
853.42	0.26
853.588	-0.42
853.756	1.62
853.924	-0.43
854.093	-0.82
854.261	-0.59
854.429	-1.17
854.597	0.81
854.765	-0.36
854.934	0.07
855.102	0.83
855.27	-0.82
855.438	1.11
855.606	0.21
855.774	1.72
855.942	-2.65
856.11	-1.78
856.278	0.26
856.446	1.09
856.614	-0.97
856.782	0.08
856.95	0.77
857.118	0.17
857.286	-0.08
857.454	-0.59
857.622	1.67
857.79	1.85
857.958	-0.79
858.126	0.26
858.294	-2.63
858.462	-0.5
858.629	-1.05
858.797	-1.22
858.965	1.15
859.133	-0.53
859.301	-0.49
859.468	1
859.636	-0.91
859.804	0.9
859.971	-0.25
860.139	-1.43
860.307	0.74
860.474	-0.25
860.642	-1.16
860.81	0.03
860.977	-1.84
861.145	1.44
861.313	-0.74
861.48	0.17
861.648	0.75
861.815	-0.58
861.983	-2.42
862.15	-1.44
862.318	0.71
862.485	0.28
862.653	-0.59
862.82	-0.91
862.988	1.33
863.155	1.73
863.322	-1.8
863.49	0.1
863.657	0.03
863.824	1.61
863.992	-0.18
864.159	-0.01
864.326	1.36
864.494	-1.22
864.661	2.62
864.828	-0.64
864.996	1.45
865.163	2.44
865.33	-1.09
865.497	-2.16
865.664	-0.53
865.832	-1.76
865.999	-0.84
866.166	-1.34
866.333	0.05
866.5	-0.82
866.667	-0.12
866.834	-1.06
867.001	1.55
867.168	-1.31
867.335	-1.18
867.502	-1.83
867.669	-0.31
867.836	2.02
868.003	0.33
868.17	0.88
868.337	-1.51
868.504	1.88
868.671	-1.77
868.838	-1.33
869.005	0.53
869.172	1.23
869.339	0.71
869.505	0.29
869.672	-1.45
869.839	1.69
870.006	0.26
870.173	-3.59
870.339	2.15
870.506	1.72
870.673	-0.75
870.84	1.6
871.006	0.7
871.173	1.29
871.34	1.19
871.506	-1.84
871.673	1.06
871.839	-1.42
872.006	0.2
872.173	-0.09
872.339	1.21
872.506	0.85
872.672	-0.73
872.839	-2.08
873.005	0.32
873.172	0.82
873.338	1.54
873.505	-0.15
873.671	1.84
873.838	0.29
874.004	-1.29
874.171	-1.26
874.337	0.67
874.503	1.83
874.67	-1.92
874.836	-1.1
875.002	2.67
875.169	2.3
875.335	1.63
875.501	-0.38
875.668	-0.77
875.834	0.5
876	-0.26
876.166	0.79
876.332	0.24
876.499	2.22
876.665	-1.36
876.831	-1.31
876.997	3.45
877.163	2.3
877.329	0.46
877.495	0.22
877.662	1.18
877.828	0.92
877.994	-1.16
878.16	-2.56
878.326	-0.46
878.492	-1.81
878.658	-1.31
878.824	-0.24
878.99	0.38
879.156	-1.06
879.322	1.85
879.487	-1.42
879.653	1.16
879.819	-0.87
879.985	-0.48
880.151	0.96
880.317	-0.29
880.483	0.6
880.648	1.69
880.814	-2.37
880.98	0.9
881.146	-2.38
881.312	-1.61
881.477	-0.82
881.643	0.04
881.809	1.44
881.974	0.64
882.14	-1.05
882.306	1.15
882.471	3.26
882.637	-1.48
882.803	0.74
882.968	2.42
883.134	3.8
883.299	1.39
883.465	-0.09
883.63	1.66
883.796	0.71
883.961	0.83
884.127	-0.76
884.292	-2.45
884.458	-2.03
884.623	-2.02
