Data from Apollo_Calib_20240827__AbsoluteIrradiance__363__05-12-02-337.txt Node

Date: Wed Aug 28 05:12:02 BST 2024
User: biology
Spectrometer: FLMT08252
Trigger mode: 0
Integration Time (sec): 5.000000E-1
Scans to average: 5
Electric dark correction enabled: true
Nonlinearity correction enabled: false
Boxcar width: 0
XAxis mode: Wavelengths
Number of Pixels in Spectrum: 3648
>>>>>Begin Spectral Data<<<<<
179.588	-0
179.809	-0
180.03	-0
180.251	-0
180.473	-0
180.694	0
180.915	0
181.136	-0
181.357	0
181.578	0
181.799	-0
182.02	-0
182.241	0
182.462	-0
182.683	0
182.904	-0
183.125	-0
183.346	0
183.567	0
183.788	0
184.009	-0
184.23	0
184.451	0
184.672	-0
184.892	0
185.113	0
185.334	0
185.555	0
185.776	0
185.996	0
186.217	0
186.438	0
186.659	-0
186.879	0
187.1	-0
187.321	-0
187.541	-0
187.762	0
187.983	0
188.203	0
188.424	0
188.644	0
188.865	0
189.086	0
189.306	0
189.527	0
189.747	0
189.968	-0
190.188	0
190.409	0
190.629	0
190.849	-0
191.07	-0
191.29	0
191.511	0
191.731	-0
191.951	-0
192.172	0
192.392	0
192.612	0
192.833	0
193.053	0
193.273	0
193.493	0
193.714	0
193.934	0
194.154	0
194.374	0
194.594	0
194.815	0
195.035	0
195.255	0
195.475	-0
195.695	0
195.915	0
196.135	0
196.355	0
196.575	0
196.795	0
197.015	-0
197.235	0
197.455	0
197.675	0
197.895	0
198.115	-0
198.335	0
198.555	-0
198.775	0
198.995	0
199.214	0
199.434	0
199.654	0
199.874	0
200.094	1.54
200.313	0.7
200.533	0.04
200.753	-0.96
200.973	1.79
201.192	1.25
201.412	-0.54
201.632	0.36
201.851	1
202.071	0.46
202.291	-0.33
202.51	-0.31
202.73	1.05
202.95	0.14
203.169	0.05
203.389	0.1
203.608	0.52
203.828	0
204.047	0.23
204.267	1.07
204.486	0.62
204.706	0.58
204.925	0.08
205.145	0.15
205.364	0.96
205.583	1.28
205.803	0.27
206.022	0.04
206.242	0.44
206.461	0.29
206.68	0.15
206.9	0.45
207.119	0.65
207.338	0.96
207.557	0.3
207.777	0.18
207.996	0.1
208.215	0.62
208.434	0.08
208.654	0.01
208.873	0.5
209.092	0.94
209.311	0.08
209.53	0.29
209.749	0.3
209.968	0.36
210.187	0.02
210.407	-0.15
210.626	0.22
210.845	0.47
211.064	0.28
211.283	0.05
211.502	0.63
211.721	0.08
211.94	0.17
212.159	0.47
212.377	0.58
212.596	0.68
212.815	0.31
213.034	0.09
213.253	0.43
213.472	0.64
213.691	0.21
213.91	0.01
214.128	0.18
214.347	0.76
214.566	-0.11
214.785	-0.2
215.003	0.39
215.222	0.41
215.441	0.15
215.66	-0.04
215.878	0.15
216.097	0.39
216.316	0.1
216.534	0.29
216.753	0.34
216.972	0.23
217.19	0.17
217.409	0.08
217.627	0.14
217.846	0.19
218.064	0.28
218.283	0.05
218.501	0.52
218.72	0.47
218.938	-0.03
219.157	0.01
219.375	0.2
219.594	0.41
219.812	0.1
220.031	-0.04
220.249	0.38
220.467	0.54
220.686	0.07
220.904	-0.07
221.122	-0
221.341	0.58
221.559	0.2
221.777	-0.02
221.995	0.18
222.214	0.39
222.432	0.15
222.65	0.32
222.868	0.28
223.086	0.44
223.305	0.43
223.523	0.14
223.741	0.49
223.959	0.01
224.177	-0.08
224.395	0.01
224.613	0.2
224.831	0.4
225.049	0.11
225.267	0.07
225.485	0.29
225.703	-0.05
225.921	0.08
226.139	0.15
226.357	0.4
226.575	0.27
226.793	0.13
227.011	0.6
227.229	0.11
227.447	0.44
227.665	0.07
227.883	0.1
228.1	0.08
228.318	0.17
228.536	-0.18
228.754	0.01
228.972	0.28
229.189	0.19
229.407	0.13
229.625	0.17
229.843	0.51
230.06	0.26
230.278	-0.1
230.496	0.06
230.713	0.19
230.931	0.27
231.149	0.12
231.366	-0.2
231.584	0.12
231.801	0.57
232.019	0.1
232.236	-0.02
232.454	0.02
232.671	0.16
232.889	0.01
233.106	0.01
233.324	0.14
233.541	0.13
233.759	0.22
233.976	-0.06
234.194	0.24
234.411	0.19
234.628	0.04
234.846	0.12
235.063	0.15
235.28	0.09
235.498	0.07
235.715	0.05
235.932	0.37
236.149	0.11
236.367	0.08
236.584	0.06
236.801	0.07
237.018	0.3
237.236	0.07
237.453	0.06
237.67	0.26
237.887	0.2
238.104	0.06
238.321	0.09
238.538	0.01
238.755	0.16
238.973	-0.01
239.19	0.13
239.407	0.2
239.624	0.12
239.841	0.02
240.058	0.03
240.275	0.24
240.492	0.12
240.709	0.15
240.925	0.01
241.142	0.15
241.359	0.07
241.576	0.09
241.793	0.06
242.01	0.08
242.227	0.29
242.444	0.16
242.66	0.22
242.877	0.1
243.094	0.11
243.311	0.13
243.527	0.07
243.744	0.21
243.961	0.2
244.178	0.05
244.394	0.09
244.611	0.27
244.828	0.27
245.044	0
245.261	0.1
245.477	0.2
245.694	0.16
245.911	-0.1
246.127	0.18
246.344	0.37
246.56	0.13
246.777	0.12
246.993	0.09
247.21	0.12
247.426	0.22
247.643	0.1
247.859	0
248.076	0.14
248.292	0.27
248.508	0.1
248.725	0.22
248.941	0.17
249.157	0.36
249.374	0.13
249.59	0.12
249.806	0.07
250.023	0.28
250.239	0.05
250.455	0.04
250.671	0.13
250.888	0.17
251.104	0.09
251.32	0.11
251.536	0.13
251.752	0.03
251.969	0.12
252.185	0.07
252.401	0.26
252.617	0.17
252.833	0.09
253.049	0.04
253.265	0.15
253.481	0.09
253.697	0.07
253.913	0.05
254.129	0.17
254.345	0.13
254.561	0.1
254.777	0.17
254.993	0.18
255.209	0.15
255.425	0.12
255.641	0.01
255.857	0.24
256.073	0.13
256.288	-0.06
256.504	0.12
256.72	0.13
256.936	0.38
257.152	0.03
257.367	0.08
257.583	0.08
257.799	0.22
258.015	0.01
258.23	0.08
258.446	0.26
258.662	0.16
258.877	0.02
259.093	0.05
259.309	0.14
259.524	0.1
259.74	0.09
259.955	0.03
260.171	0.12
260.387	0.12
260.602	0.17
260.818	0.19
261.033	0.04
261.249	0.1
261.464	0.04
261.68	-0.03
261.895	0.16
262.11	0.19
262.326	0.05
262.541	0
262.757	0.18
262.972	0.18
263.187	0.17
263.403	0.13
263.618	0.17
263.833	0.11
264.049	0.02
264.264	0.07
264.479	0.2
264.694	0.22
264.91	0.08
265.125	0.1
265.34	0.21
265.555	0.29
265.77	0.09
265.986	0.03
266.201	0.18
266.416	0.23
266.631	0.09
266.846	0.14
267.061	0.11
267.276	0.16
267.491	-0
267.706	0.13
267.921	0.16
268.136	0.13
268.351	0.05
268.566	-0.02
268.781	0.18
268.996	0.16
269.211	0.1
269.426	-0
269.641	-0.01
269.856	0.16
270.071	0.04
270.285	0.04
270.5	0.16
270.715	0.13
270.93	0.14
271.145	0.15
271.359	0.15
271.574	0.06
271.789	0.1
272.004	0.07
272.218	0.09
272.433	0.16
272.648	0
272.862	0.15
273.077	0.14
273.292	0.13
273.506	0.08
273.721	0.06
273.936	0.16
274.15	0.2
274.365	0.11
274.579	0.17
274.794	0.2
275.008	0.17
275.223	-0.01
275.437	0.1
275.652	0.13
275.866	0.17
276.081	0.08
276.295	0.17
276.509	0.03
276.724	0.14
276.938	0.11
277.153	0.14
277.367	0.15
277.581	0.11
277.796	0.1
278.01	0.06
278.224	0.16
278.438	0.24
278.653	0.09
278.867	0.03
279.081	0.17
279.295	0.08
279.51	0.11
279.724	-0.07
279.938	0.14
280.152	0.12
280.366	0.06
280.58	0.11
280.794	0.17
281.008	0.14
281.222	0.19
281.437	0.3
281.651	0.15
281.865	0.21
282.079	0.09
282.293	0.04
282.507	0.05
282.721	0.1
282.935	0.13
283.148	-0
283.362	0.09
283.576	0.05
283.79	0.1
284.004	0.07
284.218	0.23
284.432	0.1
284.646	0.12
284.859	0.09
285.073	0.08
285.287	0.1
285.501	0.11
285.714	0.09
285.928	0.15
286.142	0.1
286.356	0.07
286.569	0.12
286.783	0.21
286.997	0.14
287.21	0.09
287.424	0.12
287.637	0.07
287.851	0.12
288.065	0.15
288.278	0.08
288.492	0.09
288.705	0.12
288.919	0.11
289.132	0.06
289.346	0.12
289.559	0.05
289.773	0.01
289.986	0.12
290.2	0.09
290.413	0.14
290.626	0.07
290.84	0.06
291.053	0.08
291.267	0.18
291.48	0.1
291.693	0.11
291.906	0.07
292.12	0.11
292.333	0.05
292.546	0.08
292.76	0.17
292.973	0.15
293.186	0.15
293.399	0.12
293.612	0.18
293.826	0.11
294.039	0.09
294.252	0.1
294.465	0.16
294.678	0.13
294.891	0.1
295.104	0.04
295.317	0.11
295.53	0.13
295.743	0.07
295.956	0.08
296.169	0.21
296.382	0.13
296.595	0.12
296.808	0.09
297.021	0.13
297.234	0.15
297.447	0.09
297.66	0.1
297.873	0.14
298.086	0.15
298.299	0.06
298.511	0.04
298.724	0.14
298.937	0.07
299.15	0.1
299.363	0.1
299.575	0.13
299.788	0.13
300.001	0.09
300.213	0.07
300.426	0.09
300.639	0.09
300.852	0.07
301.064	0.14
301.277	0.21
301.489	0.14
301.702	0.11
301.915	0.11
302.127	0.12
302.34	0.14
302.552	0.16
302.765	0.13
302.977	0.12
303.19	0.07
303.402	0.12
303.615	0.09
303.827	0.08
304.04	0.16
304.252	0.15
304.464	0.05
304.677	0.24
304.889	0.18
305.102	0.06
305.314	0.08
305.526	0.21
305.739	0.1
305.951	0.07
306.163	0.08
306.375	0.26
306.588	0.07
306.8	0.06
307.012	0.06
307.224	0.13
307.436	0.16
307.649	0.06
307.861	0.11
308.073	0.14
308.285	0.12
308.497	0.06
308.709	0.1
308.921	0.09
309.133	0.18
309.346	0.1
309.558	0.1
309.77	0.11
309.982	0.21
310.194	0.13
310.406	0.09
310.617	0.15
310.829	0.13
311.041	0.11
311.253	0.09
311.465	0.1
311.677	0.1
311.889	0.1
312.101	0.09
312.313	0.17
312.524	0.23
312.736	0.06
312.948	0.06
313.16	0.16
313.372	0.2
313.583	0.1
313.795	0.14
314.007	0.13
314.218	0.12
314.43	0.13
314.642	0.08
314.853	0.09
315.065	0.18
315.277	0.09
315.488	0.08
315.7	0.16
315.912	0.14
316.123	0.11
316.335	0.08
316.546	0.19
316.758	0.09
316.969	0.05
317.181	0.1
317.392	0.06
317.604	0.21
317.815	0.06
318.026	0.08
318.238	0.09
318.449	0.13
318.661	0.01
318.872	0.02
319.083	0.07
319.295	0.13
319.506	0.09
319.717	0.12
319.929	0.16
320.14	0.12
320.351	0.11
320.562	0.07
320.774	0.14
320.985	0.14
321.196	0.07
321.407	0.02
321.618	0.19
321.829	0.14
322.041	0.14
322.252	0.09
322.463	0.12
322.674	0.13
322.885	0.08
323.096	0.11
323.307	0.1
323.518	0.1
323.729	0.06
323.94	0.09
324.151	0.12
324.362	0.15
324.573	0.1
324.784	0.06
324.995	0.14
325.206	0.16
325.417	0.09
325.628	0.12
325.838	0.08
326.049	0.11
326.26	0.19
326.471	0.11
326.682	0.13
326.892	0.13
327.103	0.06
327.314	0.07
327.525	0.14
327.735	0.15
327.946	0.09
328.157	0.1
328.368	0.15
328.578	0.09
328.789	0.14
328.999	0.15
329.21	0.1
329.421	0.11
329.631	0.04
329.842	0.07
330.052	0.15
330.263	0.11
330.473	0.14
330.684	0.12
330.894	0.15
331.105	0.11
331.315	0.1
331.526	0.05
331.736	0.17
331.947	0.15
332.157	0.14
332.367	0.08
332.578	0.12
332.788	0.15
332.999	0.17
333.209	0.12
333.419	0.06
333.629	0.14
333.84	0.15
334.05	0.12
334.26	0.17
334.47	0.14
334.681	0.16
334.891	0.07
335.101	0.11
335.311	0.22
335.521	0.12
335.732	0.07
335.942	0.18
336.152	0.12
336.362	0.13
336.572	0.11
336.782	0.13
336.992	0.09
337.202	0.08
337.412	0.08
337.622	0.15
337.832	0.12
338.042	0.11
338.252	0.09
338.462	0.11
338.672	0.13
338.882	0.05
339.092	0.05
339.302	0.18
339.511	0.1
339.721	0.04
339.931	0.08
340.141	0.23
340.351	0.2
340.561	0.16
340.77	0.15
340.98	0.13
341.19	0.14
341.4	0.05
341.609	0.09
341.819	0.12
342.029	0.06
342.238	0.15
342.448	0.11
342.658	0.17
342.867	0.15
343.077	0.15
343.286	0.12
343.496	0.1
343.706	0.18
343.915	0.08
344.125	0.11
344.334	0.08
344.544	0.03
344.753	0.13
344.963	0.09
345.172	0.05
345.381	0.09
345.591	0.11
345.8	0.08
346.01	0.17
346.219	0.15
346.428	-0.02
346.638	0.11
346.847	0.11
347.056	0.17
347.266	0.06
347.475	0.12
347.684	0.14
347.893	0.1
348.103	0.09
348.312	0.14
348.521	0.15
348.73	0.13
348.94	0.15
349.149	0.07
349.358	0.14
349.567	0.07
349.776	0.12
349.985	0.09
350.194	0.14
350.403	0.14
350.612	0.06
350.821	0.09
351.03	0.13
351.239	0.02
351.448	0.11
351.657	0.07
351.866	0.22
352.075	0.12
352.284	0.17
352.493	0.07
352.702	0.15
352.911	0.09
353.12	0.11
353.329	0.08
353.538	0.09
353.746	0.14
353.955	0.08
354.164	0.12
354.373	0.08
354.582	0.16
354.79	0.11
354.999	0.15
355.208	0.11
355.416	0.17
355.625	0.09
355.834	0.11
356.042	0.16
356.251	0.1
356.46	0.09
356.668	0.12
356.877	0.17
357.085	0.17
357.294	0.05
357.503	0.11
357.711	0.1
357.92	0.24
358.128	0.11
358.337	0.09
358.545	0.12
358.754	0.08
358.962	0.13
359.17	0.08
359.379	0.07
359.587	0.12
359.796	0.11
360.004	0.19
360.212	0.09
360.421	0.17
360.629	0.08
360.837	0.08
361.046	0.12
361.254	0.22
361.462	0.11
361.67	0.09
361.879	0.15
362.087	0.18
362.295	0.11
362.503	0.04
362.711	0.08
362.92	0.08
363.128	0.11
363.336	0.07
363.544	0.1
363.752	0.11
363.96	0.06
364.168	0.09
364.376	0.13
364.584	0.13
364.792	0.13
365	0.12
365.208	0.11
365.416	0.12
365.624	0.12
365.832	0.1
366.04	0.18
366.248	0.09
366.456	0.14
366.664	0.12
366.872	0.13
367.079	0.1
367.287	0.1
367.495	0.11
367.703	0.09
367.911	0.1
368.118	0.08
368.326	0.11
368.534	0.04
368.742	0.13
368.949	0.05
369.157	0.1
369.365	0.11
369.572	0.07
369.78	0.05
369.988	0.14
370.195	0.11
370.403	0.11
370.61	0.07
370.818	0.13
371.026	0.21
371.233	0.08
371.441	0.13
371.648	0.05
371.856	0.14
372.063	0.13
372.271	0.08
372.478	0.1
372.685	0.12
372.893	0.17
373.1	0.08
373.308	0.08
373.515	0.2
373.722	0.14
373.93	0.11
374.137	0.14
374.344	0.19
374.552	0.17
374.759	0.12
374.966	0.14
375.173	0.1
375.381	0.15
375.588	0.11
375.795	0.07
376.002	0.07
376.209	0.07
376.417	0.08
376.624	0.11
376.831	0.18
377.038	0.12
377.245	0.04
377.452	0.1
377.659	0.1
377.866	0.09
378.073	0.15
378.28	0.11
378.487	0.15
378.694	0.16
378.901	0.12
379.108	0.1
379.315	0.15
379.522	0.18
379.729	0.17
379.936	0.1
380.143	0.15
380.35	0.12
380.557	0.09
380.763	0.14
380.97	0.15
381.177	0.13
381.384	0.14
381.591	0.04
381.797	0.16
382.004	0.1
382.211	0.16
382.418	0.13
382.624	0.15
382.831	0.18
383.038	0.1
383.244	0.13
383.451	0.14
383.658	0.13
383.864	0.11
384.071	0.06
384.277	0.18
384.484	0.12
384.69	0.17
384.897	0.13
385.103	0.13
385.31	0.12
385.516	0.08
385.723	0.1
385.929	0.07
386.136	0.16
386.342	0.18
386.549	0.14
386.755	0.22
386.961	0.13
387.168	0.15
387.374	0.15
387.58	0.16
387.787	0.13
387.993	0.15
388.199	0.13
388.406	0.11
388.612	0.11
388.818	0.09
389.024	0.11
389.231	0.12
389.437	0.21
389.643	0.2
389.849	0.15
390.055	0.15
390.261	0.15
390.467	0.15
390.674	0.07
390.88	0.1
391.086	0.15
391.292	0.13
391.498	0.19
391.704	0.16
391.91	0.1
392.116	0.14
392.322	0.02
392.528	0.17
392.734	0.13
392.94	0.15
393.146	0.15
393.352	0.18
393.557	0.13
393.763	0.11
393.969	0.15
394.175	0.13
394.381	0.14
394.587	0.11
394.792	0.16
394.998	0.18
395.204	0.19
395.41	0.16
395.615	0.16
395.821	0.18
396.027	0.21
396.233	0.12
396.438	0.17
396.644	0.25
396.85	0.18
397.055	0.15
397.261	0.17
397.466	0.28
397.672	0.16
397.878	0.22
398.083	0.21
398.289	0.13
398.494	0.23
398.7	0.21
398.905	0.12
399.111	0.26
399.316	0.14
399.522	0.12
399.727	0.18
399.932	0.16
400.138	0.15
400.343	0.22
400.549	0.2
400.754	0.17
400.959	0.2
401.165	0.2
401.37	0.21
401.575	0.18
401.78	0.17
401.986	0.14
402.191	0.15
402.396	0.17
402.601	0.23
402.807	0.21
403.012	0.2
403.217	0.23
403.422	0.23
403.627	0.21
403.832	0.18
404.037	0.28
404.243	0.23
404.448	0.2
404.653	0.21
404.858	0.26
405.063	0.25
405.268	0.19
405.473	0.17
405.678	0.21
405.883	0.39
406.088	0.3
406.293	0.2
406.498	0.23
406.703	0.28
406.907	0.29
407.112	0.2
407.317	0.29
407.522	0.36
407.727	0.23
407.932	0.32
408.136	0.39
408.341	0.34
408.546	0.35
408.751	0.31
408.956	0.3
409.16	0.37
409.365	0.3
409.57	0.33
409.774	0.36
409.979	0.38
410.184	0.4
410.388	0.35
410.593	0.45
410.798	0.43
411.002	0.39
411.207	0.47
411.411	0.45
411.616	0.43
411.82	0.47
412.025	0.47
412.229	0.45
412.434	0.52
412.638	0.55
412.843	0.49
413.047	0.56
413.252	0.5
413.456	0.55
413.66	0.59
413.865	0.61
414.069	0.71
414.273	0.64
414.478	0.63
414.682	0.66
414.886	0.74
415.091	0.66
415.295	0.74
415.499	0.87
415.703	0.76
415.908	0.86
416.112	0.84
416.316	1.01
416.52	0.94
416.724	0.91
416.929	0.95
417.133	1.15
417.337	1.05
417.541	1.17
417.745	1.13
417.949	1.28
418.153	1.29
418.357	1.29
418.561	1.45
418.765	1.42
418.969	1.56
419.173	1.62
419.377	1.58
419.581	1.79
419.785	1.71
419.989	1.74
420.193	1.88
420.397	1.99
420.601	2.1
420.804	2.17
421.008	2.16
421.212	2.28
421.416	2.31
421.62	2.33
421.823	2.39
422.027	2.62
422.231	2.5
422.435	2.59
422.638	2.58
422.842	2.76
423.046	2.78
423.249	3.06
423.453	2.99
423.657	3.16
423.86	3.33
424.064	3.52
424.268	3.64
424.471	3.52
424.675	3.78
424.878	3.9
425.082	4.11
425.285	4.33
425.489	4.29
425.692	4.41
425.896	4.4
426.099	4.65
426.303	4.84
426.506	4.98
426.71	5.25
426.913	5.47
427.116	5.7
427.32	5.69
427.523	5.82
427.726	6.17
427.93	6.29
428.133	6.54
428.336	6.81
428.54	6.92
428.743	7.31
428.946	7.56
429.149	7.56
429.353	7.73
429.556	7.85
429.759	7.94
429.962	8.12
430.165	8.35
430.368	8
430.571	8.1
430.775	8.22
430.978	8.28
431.181	8.41
431.384	8.48
431.587	8.64
431.79	9.05
431.993	9.03
432.196	9.35
432.399	9.85
432.602	10.08
432.805	10.18
433.008	10.71
433.211	10.66
433.414	11.1
433.616	11.08
433.819	11.26
434.022	11.62
434.225	11.74
434.428	11.79
434.631	12.36
434.833	12.11
435.036	12.6
435.239	12.8
435.442	12.91
435.645	13.14
435.847	13.21
436.05	13.75
436.253	14.1
436.455	14.17
436.658	14.1
436.861	14.51
437.063	14.83
437.266	14.95
437.468	15.38
437.671	15.68
437.874	15.99
438.076	15.86
438.279	16.6
438.481	16.73
438.684	17.88
438.886	17.46
439.089	17.95
439.291	18.15
439.494	18.77
439.696	19.15
439.899	19.91
440.101	20.52
440.303	21.18
440.506	22.21
440.708	21.98
440.91	22.58
441.113	22.9
441.315	23.53
441.517	23.56
441.72	24.2
441.922	24
442.124	24.11
442.326	24.91
442.529	25.32
442.731	25.62
442.933	26.25
443.135	25.94
443.337	26.28
443.539	27.39
443.742	27.03
443.944	28.1
444.146	28.01
444.348	28.06
444.55	28.24
444.752	28.79
444.954	29.06
445.156	29.08
445.358	29.89
445.56	30.42
445.762	30.42
445.964	31.08
446.166	30.93
446.368	31.16
446.57	31.13
446.772	30.81
446.974	30.6
447.175	31.15
447.377	30.97
447.579	31.64
447.781	31.35
447.983	30.97
448.184	30.48
448.386	31.12
448.588	30.55
448.79	30.52
448.991	31.24
449.193	31.15
449.395	30.02
449.597	29.37
449.798	29.35
450	28.55
450.202	28.38
450.403	28.51
450.605	28.16
450.806	27.86
451.008	27.57
451.21	27.09
451.411	26.13
451.613	24.96
451.814	25.43
452.016	25.35
452.217	23.98
452.419	23.99
452.62	23.41
452.821	22.93
453.023	22.61
453.224	21.92
453.426	21.18
453.627	20.01
453.828	19.95
454.03	20.15
454.231	20.17
454.432	19.72
454.634	19.05
454.835	18.62
455.036	18.47
455.238	17.65
455.439	17.17
455.64	16.74
455.841	16.41
456.042	16.43
456.244	16.03
456.445	15.52
456.646	15.03
456.847	14.83
457.048	14.73
457.249	14.62
457.45	13.9
457.651	13.35
457.852	13.08
458.054	12.45
458.255	12.35
458.456	12.42
458.657	12.32
458.858	11.38
459.058	11.31
459.259	11.37
459.46	10.87
459.661	10.78
459.862	10.69
460.063	10.69
460.264	10.41
460.465	10
460.666	10.11
460.866	9.51
461.067	9.08
461.268	9.15
461.469	9
461.67	8.77
461.87	8.54
462.071	8.44
462.272	8.29
462.473	8.12
462.673	8.4
462.874	8.21
463.075	8.06
463.275	8.1
463.476	8.05
463.676	7.89
463.877	7.63
464.078	7.53
464.278	7.68
464.479	7.4
464.679	7.14
464.88	7.07
465.08	6.88
465.281	6.75
465.481	6.36
465.682	6.06
465.882	5.96
466.083	5.9
466.283	5.8
466.483	5.49
466.684	5.25
466.884	5.08
467.085	5.1
467.285	5.06
467.485	4.97
467.686	4.71
467.886	4.63
468.086	4.5
468.286	4.48
468.487	4.44
468.687	4.26
468.887	4.1
469.087	4.21
469.287	4.09
469.488	3.67
469.688	3.79
469.888	3.77
470.088	3.66
470.288	3.59
470.488	3.46
470.688	3.27
470.888	3.27
471.088	3
471.288	3.06
471.488	3.02
471.688	2.94
471.888	2.83
472.088	3
472.288	2.84
472.488	2.67
472.688	2.6
472.888	2.63
473.088	2.61
473.288	2.42
473.488	2.37
473.688	2.52
473.887	2.36
474.087	2.22
474.287	2.31
474.487	2.19
474.687	2.22
474.886	2.1
475.086	2
475.286	2
475.486	1.95
475.685	1.89
475.885	1.85
476.085	1.8
476.284	1.83
476.484	1.76
476.684	1.76
476.883	1.77
477.083	1.68
477.282	1.58
477.482	1.63
477.681	1.56
477.881	1.51
478.08	1.48
478.28	1.42
478.479	1.48
478.679	1.45
478.878	1.35
479.078	1.33
479.277	1.31
479.477	1.31
479.676	1.3
479.875	1.26
480.075	1.13
480.274	1.21
480.473	1.23
480.673	1.13
480.872	1.18
481.071	1.11
481.271	1.09
481.47	1.02
481.669	1.08
481.868	0.96
482.067	0.96
482.267	0.95
482.466	0.91
482.665	0.9
482.864	0.85
483.063	0.83
483.262	0.9
483.461	0.89
483.661	0.91
483.86	0.84
484.059	0.83
484.258	0.8
484.457	0.74
484.656	0.79
484.855	0.81
485.054	0.68
485.253	0.67
485.452	0.63
485.651	0.68
485.849	0.65
486.048	0.62
486.247	0.57
486.446	0.62
486.645	0.54
486.844	0.55
487.043	0.56
487.241	0.58
487.44	0.51
487.639	0.53
487.838	0.54
488.037	0.49
488.235	0.59
488.434	0.45
488.633	0.44
488.831	0.52
489.03	0.48
489.229	0.47
489.427	0.44
489.626	0.47
489.825	0.46
490.023	0.42
490.222	0.4
490.42	0.44
490.619	0.4
490.817	0.39
491.016	0.36
491.214	0.42
491.413	0.35
491.611	0.34
491.81	0.34
492.008	0.35
492.207	0.33
492.405	0.33
492.604	0.28
492.802	0.29
493	0.3
493.199	0.31
493.397	0.31
493.595	0.29
493.794	0.27
493.992	0.33
494.19	0.28
494.388	0.29
494.587	0.24
494.785	0.25
494.983	0.22
495.181	0.27
495.379	0.25
495.578	0.24
495.776	0.25
495.974	0.26
496.172	0.25
496.37	0.21
496.568	0.21
496.766	0.2
496.964	0.26
497.162	0.23
497.36	0.2
497.558	0.21
497.756	0.23
497.954	0.19
498.152	0.18
498.35	0.22
498.548	0.16
498.746	0.17
498.944	0.17
499.142	0.17
499.34	0.16
499.538	0.17
499.736	0.17
499.933	0.24
500.131	0.19
500.329	0.16
500.527	0.21
500.725	0.21
500.922	0.19
501.12	0.18
501.318	0.16
501.516	0.15
501.713	0.18
501.911	0.16
502.109	0.12
502.306	0.18
502.504	0.14
502.701	0.13
502.899	0.14
503.097	0.18
503.294	0.17
503.492	0.14
503.689	0.15
503.887	0.16
504.084	0.21
504.282	0.14
504.479	0.1
504.677	0.15
504.874	0.09
505.072	0.12
505.269	0.11
505.466	0.16
505.664	0.17
505.861	0.1
506.059	0.1
506.256	0.15
506.453	0.1
506.651	0.16
506.848	0.12
507.045	0.13
507.242	0.11
507.44	0.11
507.637	0.11
507.834	0.09
508.031	0.13
508.229	0.08
508.426	0.12
508.623	0.12
508.82	0.07
509.017	0.07
509.214	0.09
509.411	0.1
509.608	0.06
509.805	0.1
510.003	0.09
510.2	0.09
510.397	0.11
510.594	0.08
510.791	0.06
510.988	0.1
511.184	0.12
511.381	0.09
511.578	0.07
511.775	0.12
511.972	0.08
512.169	0.08
512.366	0.1
512.563	0.08
512.76	0.08
512.956	0.06
513.153	0.07
513.35	0.1
513.547	0.04
513.744	0.07
513.94	0.06
514.137	0.1
514.334	0.1
514.53	0.08
514.727	0.1
514.924	0.13
515.12	0.07
515.317	0.08
515.514	0.05
515.71	0.06
515.907	0.06
516.103	0.07
516.3	0.1
516.497	0.11
516.693	0.1
516.89	0.08
517.086	0.05
517.283	0.12
517.479	0.09
517.676	0.07
517.872	0.08
518.068	0.05
518.265	0.06
518.461	0.07
518.658	0.04
518.854	0.1
519.05	0.06
519.247	0.07
519.443	0.07
519.639	0.08
519.836	0.07
520.032	0.07
520.228	0.07
520.424	0.11
520.621	0.09
520.817	0.07
521.013	0.09
521.209	0.1
521.405	0.11
521.601	0.07
521.798	0.06
521.994	0.15
522.19	0.05
522.386	0.04
522.582	0.06
522.778	0.09
522.974	0.05
523.17	0.06
523.366	0.1
523.562	0.09
523.758	0.06
523.954	0.02
524.15	0.05
524.346	0.09
524.542	0.06
524.738	0.06
524.934	0.05
525.129	0.05
525.325	0.07
525.521	0.06
525.717	0.1
525.913	0.06
526.109	0.04
526.304	0.06
526.5	0.07
526.696	0.07
526.892	0.07
527.087	0.07
527.283	0.03
527.479	0.07
527.674	0.06
527.87	0.06
528.066	0.06
528.261	0.07
528.457	0.07
528.653	0.04
528.848	0.05
529.044	0.07
529.239	0.05
529.435	0.09
529.63	0.07
529.826	0.1
530.021	0.06
530.217	0.09
530.412	0.06
530.608	0.05
530.803	0.06
530.999	0.06
531.194	0.01
531.389	0.05
531.585	0
531.78	0.07
531.975	0.05
532.171	0.06
532.366	0.07
532.561	0.05
532.757	0.03
532.952	0.03
533.147	0.06
533.342	0.06
533.538	0.05
533.733	0.1
533.928	0.07
534.123	0.05
534.318	0.02
534.513	0.05
534.709	0.06
534.904	0.05
535.099	0.05
535.294	0.05
535.489	0.06
535.684	0.06
535.879	0.03
536.074	0.07
536.269	0.05
536.464	0.04
536.659	0.05
536.854	0.03
537.049	0.07
537.244	0.08
537.439	0.04
537.634	0.07
537.828	0.07
538.023	0.07
538.218	0.02
538.413	0.05
538.608	0.03
538.803	0.05
538.997	0.02
539.192	0.07
539.387	0.08
539.582	0.05
539.776	0.06
539.971	0.05
540.166	0.04
540.36	0.03
540.555	0.04
540.75	0.02
540.944	0.05
541.139	0.01
541.334	0.05
541.528	0.05
541.723	0.07
541.917	0.02
542.112	0.01
542.306	0.03
542.501	0.06
542.695	0.04
542.89	0.02
543.084	0.05
543.279	0.05
543.473	0.03
543.668	0.04
543.862	0.03
544.056	0.06
544.251	0.05
544.445	0.07
544.64	0.04
544.834	0.03
545.028	0.04
545.222	0.05
545.417	0.06
545.611	0.05
545.805	0.02
546	0.05
546.194	0.06
546.388	0.03
546.582	0.07
546.776	0.06
546.97	0.05
547.165	0.07
547.359	0.07
547.553	0.04
547.747	0.06
547.941	0.05
548.135	0.04
548.329	0.07
548.523	0.08
548.717	0.06
548.911	0.03
549.105	0.02
549.299	0.05
549.493	0.07
549.687	0.04
549.881	0.05
550.075	0.04
550.269	0.02
550.463	0.05
550.657	0.02
550.85	0.02
551.044	0.03
551.238	0.06
551.432	0.04
551.626	0.01
551.82	0.03
552.013	0.03
552.207	0.04
552.401	0.06
552.594	0.05
552.788	0.04
552.982	0.03
553.176	0.02
553.369	0.08
553.563	0.04
553.756	0.01
553.95	-0.01
554.144	0.04
554.337	0.06
554.531	0.04
554.724	0.04
554.918	0.05
555.111	0.07
555.305	0.04
555.498	0.09
555.692	0.05
555.885	0.04
556.079	0.06
556.272	0.01
556.466	0.06
556.659	0.06
556.852	0.03
557.046	0.03
557.239	0.08
557.432	0.01
557.626	0.02
557.819	0.05
558.012	0.07
558.206	0.06
558.399	0.06
558.592	0.07
558.785	0.04
558.979	0.06
559.172	0.05
559.365	0.05
559.558	0.06
559.751	0.04
559.944	0.07
560.138	0.02
560.331	0.03
560.524	0.02
560.717	0.03
560.91	0.03
561.103	0.08
561.296	0.04
561.489	0.07
561.682	0.04
561.875	0.08
562.068	0.08
562.261	0.05
562.454	0.07
562.647	0.08
562.84	0.05
563.032	0.04
563.225	0.05
563.418	0.05
563.611	0.04
563.804	0.04
563.997	-0.01
564.19	0.01
564.382	0.04
564.575	0.04
564.768	0.04
564.961	0.03
565.153	0.04
565.346	0.05
565.539	0.07
565.731	0.06
565.924	0.08
566.117	0.07
566.309	0.04
566.502	0.02
566.695	0.02
566.887	0.05
567.08	0.01
567.272	0.05
567.465	0.02
567.657	0.04
567.85	0.05
568.042	0.06
568.235	0.07
568.427	0.04
568.62	0.06
568.812	0.06
569.005	0.04
569.197	-0
569.389	0.05
569.582	0.05
569.774	0.04
569.966	-0.01
570.159	-0.03
570.351	0.07
570.543	0.02
570.736	0.03
570.928	0.01
571.12	0.04
571.312	-0
571.505	-0.01
571.697	0.07
571.889	0.02
572.081	0.02
572.273	0.02
572.465	0.07
572.658	0.04
572.85	0.04
573.042	0.02
573.234	0.03
573.426	0.07
573.618	0.01
573.81	0.03
574.002	0.08
574.194	0.08
574.386	0.02
574.578	-0.03
574.77	0.02
574.962	0.05
575.154	0
575.346	0.02
575.538	0.06
575.729	0.01
575.921	0.02
576.113	0.02
576.305	0.05
576.497	0.03
576.689	0.03
576.88	0.03
577.072	0.07
577.264	0.02
577.456	0.01
577.647	-0.05
577.839	0.04
578.031	0.07
578.223	-0
578.414	-0
578.606	0.06
578.798	0.04
578.989	-0.02
579.181	0.05
579.372	0.03
579.564	0.03
579.755	0.05
579.947	0.05
580.139	0.05
580.33	-0.02
580.522	0.02
580.713	-0.04
580.905	0.04
581.096	0.06
581.287	0.04
581.479	0.03
581.67	0.06
581.862	0.02
582.053	0.01
582.244	-0.01
582.436	0.03
582.627	0.06
582.818	-0.01
583.01	-0.02
583.201	0.04
583.392	0.07
583.583	0.04
583.775	0.04
583.966	-0.01
584.157	0.06
584.348	0.02
584.54	-0
584.731	0.04
584.922	0.05
585.113	0
585.304	0.04
585.495	0.06
585.686	0.05
585.877	0.06
586.068	0.04
586.259	0.03
586.45	0.04
586.641	-0.01
586.832	-0.03
587.023	0.05
587.214	0.01
587.405	0.03
587.596	0.01
587.787	0.06
587.978	0.05
588.169	0.02
588.36	0.03
588.551	0.03
588.742	0
588.932	0.06
589.123	0.01
589.314	0.06
589.505	0.04
589.696	0.03
589.886	0.02
590.077	-0.01
590.268	0.06
590.458	-0.02
590.649	0.01
590.84	0.06
591.03	-0.01
591.221	-0.02
591.412	-0.02
591.602	0.05
591.793	0.06
591.984	0.01
592.174	0.04
592.365	0.09
592.555	0.01
592.746	0.02
592.936	0.03
593.127	0.04
593.317	0.07
593.508	0.02
593.698	0.01
593.889	0.02
594.079	0.05
594.269	-0.01
594.46	0.02
594.65	0.05
594.84	0.05
595.031	-0.01
595.221	0
595.411	-0.01
595.602	0.05
595.792	0.04
595.982	0
596.172	0.1
596.363	0.03
596.553	0.03
596.743	-0
596.933	0.01
597.123	0.09
597.314	0.02
597.504	-0.03
597.694	0.06
597.884	0.06
598.074	0.02
598.264	-0
598.454	0.04
598.644	0.03
598.834	0.02
599.024	-0.03
599.214	0
599.404	0.06
599.594	0.01
599.784	-0.01
599.974	0.07
600.164	0.06
600.354	0.01
600.544	-0.02
600.734	0.04
600.924	0.07
601.114	0
601.303	0.03
601.493	0.06
601.683	0
601.873	0.02
602.063	-0.02
602.252	0.04
602.442	-0.03
602.632	0.01
602.821	-0.01
603.011	0.04
603.201	0.02
603.39	0.02
603.58	0.02
603.77	0.02
603.959	0.05
604.149	0.04
604.339	0.03
604.528	0.04
604.718	0.03
604.907	-0
605.097	-0
605.286	-0.02
605.476	0.04
605.665	0.02
605.855	0.01
606.044	0.05
606.234	0.06
606.423	0.02
606.612	-0.01
606.802	0.04
606.991	0.05
607.181	0.03
607.37	-0.02
607.559	0.03
607.749	0.02
607.938	0.02
608.127	0.01
608.316	0.01
608.506	0.02
608.695	0.02
608.884	0
609.073	0.05
609.263	0.08
609.452	0.03
609.641	0.04
609.83	0
610.019	0.02
610.208	0
610.397	0.02
610.586	0.05
610.775	0.01
610.965	-0.01
611.154	-0.01
611.343	0.03
611.532	0.03
611.721	0.02
611.91	0.01
612.099	0.05
612.287	0.01
612.476	-0.01
612.665	0.01
612.854	-0
613.043	0.07
613.232	0.03
613.421	-0.01
613.61	0.05
613.798	-0
613.987	0.07
614.176	0.06
614.365	0.04
614.554	0.02
614.742	0.04
614.931	-0
615.12	0.05
615.309	0.03
615.497	0.03
615.686	0
615.875	0.03
616.063	0.04
616.252	0
616.44	-0
616.629	0.04
616.818	0.04
617.006	-0.02
617.195	-0.02
617.383	0.06
617.572	0.04
617.76	-0
617.949	0.03
618.137	0.05
618.326	0.07
618.514	0.02
618.703	-0.03
618.891	0.08
619.079	-0.04
619.268	0.07
619.456	0.01
619.644	0.07
619.833	0.02
620.021	0
620.209	-0.03
620.398	0.03
620.586	0.04
620.774	0.03
620.962	0.04
621.151	0.1
621.339	0
621.527	-0.01
621.715	-0
621.903	-0.02
622.092	-0.02
622.28	0.03
622.468	0.01
622.656	0.02
622.844	0.02
623.032	0.01
623.22	-0.05
623.408	0.06
623.596	0.05
623.784	0.05
623.972	-0.03
624.16	0.01
624.348	0.08
624.536	0
624.724	-0.01
624.912	0.09
625.1	0.05
625.288	-0.01
625.476	-0
625.664	0.06
625.851	-0.02
626.039	0
626.227	0.06
626.415	0.07
626.603	-0.05
626.79	0.02
626.978	-0.04
627.166	0.04
627.354	0.06
627.541	-0.02
627.729	-0.05
627.917	0.07
628.104	0.07
628.292	-0
628.48	0.04
628.667	0.05
628.855	0.05
629.042	0
629.23	0.01
629.418	0.02
629.605	0.02
629.793	0
629.98	-0
630.168	0.06
630.355	0.01
630.543	0.02
630.73	-0.01
630.917	0.05
631.105	0.07
631.292	0.01
631.48	-0
631.667	0.1
631.854	0.02
632.042	0
632.229	-0.01
632.416	0.03
632.604	0.02
632.791	-0.04
632.978	0.06
633.165	0.05
633.353	0.09
633.54	0.06
633.727	-0.05
633.914	-0.01
634.101	-0.06
634.289	0.06
634.476	-0
634.663	-0
634.85	0.03
635.037	-0.02
635.224	-0.03
635.411	0.09
635.598	0.08
635.785	0.01
635.972	0.02
636.159	0.04
636.346	-0.02
636.533	0.03
636.72	-0.01
636.907	0.01
637.094	0.02
637.281	0.01
637.468	0.02
637.655	0.05
637.842	0.04
638.029	-0.01
638.215	0.03
638.402	0.06
638.589	-0.01
638.776	0.02
638.963	-0.01
639.149	0.07
639.336	0.1
639.523	0.02
639.709	0.02
639.896	0
640.083	0.1
640.27	0.02
640.456	0
640.643	0.06
640.829	-0.03
641.016	0.02
641.203	-0.05
641.389	0.05
641.576	0.03
641.762	0.01
641.949	-0.03
642.135	0.05
642.322	0.04
642.508	-0.05
642.695	0.04
642.881	0
643.068	0.02
643.254	0.03
643.441	0.08
643.627	0.02
643.813	-0.01
644	0.07
644.186	-0.02
644.372	0.04
644.559	0.03
644.745	0.03
644.931	0.01
645.118	0.02
645.304	0
645.49	0.01
645.676	-0.01
645.862	0.01
646.049	0.03
646.235	0.01
646.421	0.09
646.607	0.08
646.793	-0.02
646.979	-0.01
647.165	0.01
647.352	0.03
647.538	0.05
647.724	0.02
647.91	0.06
648.096	0.04
648.282	0.05
648.468	0.03
648.654	0.05
648.84	0.03
649.026	0.02
649.212	0.03
649.397	-0.03
649.583	-0.04
649.769	0.04
649.955	0.02
650.141	0.05
650.327	0.07
650.513	-0.03
650.698	0.05
650.884	-0.07
651.07	0.03
651.256	0.05
651.442	0.04
651.627	0.02
651.813	0.04
651.999	0.03
652.184	-0.01
652.37	0
652.556	-0.02
652.741	0.11
652.927	-0.04
653.113	-0
653.298	0.02
653.484	0.02
653.669	-0.05
653.855	0.02
654.04	0.07
654.226	0.03
654.412	-0.01
654.597	0.01
654.782	0.03
654.968	0.08
655.153	0.02
655.339	-0
655.524	-0.02
655.71	0.03
655.895	-0.02
656.08	0.03
656.266	0.07
656.451	0.03
656.636	-0.04
656.822	0.05
657.007	-0.02
657.192	-0.01
657.378	-0.05
657.563	-0.01
657.748	0.04
657.933	0
658.118	0.02
658.304	0.02
658.489	0.03
658.674	0.03
658.859	-0.01
659.044	0.05
659.229	0.02
659.414	0.01
659.599	0.02
659.785	-0.03
659.97	0.02
660.155	0.02
660.34	0.04
660.525	0.01
660.71	0.01
660.895	0.08
661.08	0.01
661.264	-0.02
661.449	0.06
661.634	0.05
661.819	0.05
662.004	0.05
662.189	-0.04
662.374	0.02
662.559	-0.02
662.743	-0.07
662.928	0.01
663.113	-0.02
663.298	-0.06
663.483	0.01
663.667	0.03
663.852	-0.03
664.037	0.06
664.221	0.01
664.406	0.05
664.591	0.02
664.775	0.03
664.96	0.05
665.145	0.04
665.329	0.05
665.514	0.03
665.698	-0
665.883	-0.07
666.068	0.1
666.252	0.01
666.437	-0.05
666.621	-0.01
666.806	0.04
666.99	0
667.174	-0.03
667.359	0.08
667.543	0.02
667.728	0.01
667.912	-0.04
668.096	0.06
668.281	-0
668.465	0.01
668.649	-0.01
668.834	-0.05
669.018	-0
669.202	0
669.387	-0.02
669.571	0.06
669.755	0.01
669.939	0.03
670.124	0.03
670.308	0.1
670.492	0.07
670.676	-0
670.86	0.02
671.044	-0.04
671.228	0.06
671.413	0
671.597	-0.01
671.781	-0
671.965	0.01
672.149	-0.02
672.333	0.02
672.517	-0.03
672.701	0.03
672.885	-0.02
673.069	-0.07
673.253	0.06
673.437	-0.01
673.621	-0.01
673.804	0.01
673.988	0.02
674.172	0.01
674.356	-0.09
674.54	0.01
674.724	0.12
674.908	0.01
675.091	0.03
675.275	0
675.459	0.11
675.643	0.02
675.826	0.04
676.01	-0.01
676.194	0
676.377	0.04
676.561	0.05
676.745	0
676.928	0.03
677.112	0.04
677.296	-0.01
677.479	0.01
677.663	-0.03
677.846	0.04
678.03	-0.02
678.213	-0
678.397	0.07
678.58	0.01
678.764	-0.02
678.947	0.03
679.131	0.01
679.314	0.02
679.498	-0.01
679.681	0
679.865	0.09
680.048	-0.01
680.231	-0.01
680.415	0.01
680.598	0.01
680.781	0.02
680.965	-0.03
681.148	0.06
681.331	0.01
681.514	0.06
681.698	0.04
681.881	0.03
682.064	0.04
682.247	0.03
682.43	-0.08
682.614	0.06
682.797	0.03
682.98	0.08
683.163	-0.05
683.346	0.07
683.529	0.03
683.712	-0.02
683.895	0.07
684.078	-0.01
684.261	0.02
684.444	0.06
684.627	0.03
684.81	0.03
684.993	0
685.176	0.05
685.359	-0.02
685.542	0
685.725	0.1
685.908	0
686.091	0
686.274	0.01
686.457	0.02
686.639	0.02
686.822	0.08
687.005	-0.01
687.188	0.04
687.371	0.12
687.553	0.04
687.736	0.05
687.919	0.07
688.102	0.09
688.284	0.02
688.467	0.02
688.65	-0
688.832	0.07
689.015	0.02
689.197	-0.01
689.38	0.1
689.563	0.1
689.745	0.04
689.928	-0.01
690.11	0.02
690.293	0.04
690.475	-0.02
690.658	0.05
690.84	0.04
691.023	0
691.205	0
691.388	-0.01
691.57	0.08
691.752	0.08
691.935	-0.04
692.117	0.01
692.3	0.07
692.482	0.01
692.664	0.05
692.847	0.02
693.029	0.08
693.211	0.05
693.393	0.02
693.576	-0.02
693.758	0.02
693.94	-0.03
694.122	-0.02
694.304	-0.03
694.487	0.02
694.669	0.11
694.851	-0.01
695.033	0.04
695.215	-0.03
695.397	-0.04
695.579	0.07
695.761	-0.02
695.943	-0.03
696.125	0.09
696.308	0.04
696.49	-0.02
696.671	0.13
696.853	-0.01
697.035	0.11
697.217	0.05
697.399	0.1
697.581	0.03
697.763	0.02
697.945	-0.01
698.127	0.06
698.309	0.11
698.491	0.05
698.672	0.08
698.854	0.07
699.036	0.1
699.218	-0.04
699.399	0.07
699.581	0.1
699.763	-0
699.945	-0
700.126	-0.01
700.308	0.06
700.49	-0.05
700.671	-0.08
700.853	0.03
701.035	-0.03
701.216	0
701.398	-0.07
701.579	-0.01
701.761	0.1
701.943	-0.02
702.124	0
702.306	-0.04
702.487	0.14
702.669	-0.01
702.85	-0.01
703.031	-0.06
703.213	0.09
703.394	0.08
703.576	0.01
703.757	0.11
703.938	0.07
704.12	0.23
704.301	0.04
704.483	-0.08
704.664	0.04
704.845	0.13
705.026	0.04
705.208	0.07
705.389	-0.01
705.57	0.02
705.751	-0.02
705.933	0.09
706.114	0.09
706.295	0.04
706.476	-0.04
706.657	0.09
706.838	0.03
707.02	0.08
707.201	-0.05
707.382	-0.01
707.563	0.06
707.744	-0.02
707.925	-0.07
708.106	-0.01
708.287	0.09
708.468	0.12
708.649	0.02
708.83	0.06
709.011	0.04
709.192	0.06
709.373	0.01
709.554	0.04
709.734	0.04
709.915	0.06
710.096	0.02
710.277	-0.1
710.458	0.01
710.639	0.02
710.819	-0.03
711	-0.05
711.181	0.12
711.362	0.11
711.542	-0.01
711.723	0.02
711.904	0.1
712.085	0.09
712.265	0
712.446	-0.03
712.627	-0.04
712.807	0.04
712.988	-0.03
713.168	-0.09
713.349	0.09
713.53	-0.09
713.71	-0.04
713.891	-0.01
714.071	0.07
714.252	-0.01
714.432	0.01
714.613	-0.08
714.793	0.04
714.974	0.11
715.154	0.07
715.334	0.04
715.515	0.09
715.695	-0.06
715.876	0.05
716.056	0.03
716.236	-0.05
716.417	0.06
716.597	-0.06
716.777	0.23
716.957	0.04
717.138	0.04
717.318	-0.05
717.498	-0.1
717.678	0.04
717.859	0.09
718.039	-0.12
718.219	0.03
718.399	0.04
718.579	0.01
718.759	-0.01
718.939	0.07
719.12	-0.01
719.3	-0.01
719.48	-0.04
719.66	-0.06
719.84	0.1
720.02	-0.01
720.2	0.05
720.38	0.01
720.56	0.09
720.74	-0.03
720.92	0.07
721.1	0.12
721.279	0.07
721.459	-0.05
721.639	-0.1
721.819	0.01
721.999	-0.02
722.179	0.15
722.359	0.01
722.538	0.03
722.718	-0.01
722.898	-0.03
723.078	0.01
723.257	-0.05
723.437	0.02
723.617	0.05
723.797	0.06
723.976	-0
724.156	0.09
724.336	0.16
724.515	0.16
724.695	-0.11
724.874	-0.01
725.054	0.07
725.234	0
725.413	0.03
725.593	-0.1
725.772	0.09
725.952	0.08
726.131	0.05
726.311	0.05
726.49	-0
726.67	-0.09
726.849	0.01
727.028	-0.02
727.208	-0.04
727.387	0.04
727.567	-0.01
727.746	0.02
727.925	-0.01
728.105	-0.04
728.284	-0
728.463	-0.04
728.643	0.11
728.822	-0.16
729.001	-0.02
729.18	0.03
729.359	0.02
729.539	0.1
729.718	0.05
729.897	0.06
730.076	-0.01
730.255	-0.06
730.434	0.06
730.614	0.04
730.793	0.07
730.972	-0.08
731.151	0.09
731.33	0.07
731.509	0.06
731.688	0.01
731.867	0.04
732.046	-0.11
732.225	0.21
732.404	-0.08
732.583	-0.01
732.762	0.04
732.941	0.1
733.12	-0.03
733.298	0.01
733.477	0.11
733.656	0.09
733.835	-0.04
734.014	0.03
734.193	0.01
734.371	0.06
734.55	0.1
734.729	-0.02
734.908	0.12
735.086	0.03
735.265	0.1
735.444	-0.17
735.623	0.01
735.801	-0.15
735.98	-0.01
736.159	-0.04
736.337	0.08
736.516	0.1
736.694	-0
736.873	0
737.052	0.29
737.23	0.06
737.409	0
737.587	0.18
737.766	-0.1
737.944	-0.01
738.123	0.01
738.301	-0.06
738.479	0.12
738.658	0.11
738.836	-0.1
739.015	0.02
739.193	0.17
739.371	-0.1
739.55	0.07
739.728	-0.05
739.906	0.25
740.085	0.05
740.263	0.04
740.441	-0.13
740.62	0.18
740.798	0.17
740.976	-0.09
741.154	-0.09
741.332	0.21
741.511	-0.05
741.689	0.12
741.867	0.19
742.045	0.18
742.223	0.07
742.401	-0.05
742.579	0.03
742.757	0.13
742.935	-0.01
743.114	-0.09
743.292	-0.09
743.47	0.02
743.648	-0.03
743.826	0.09
744.004	0.08
744.181	0.19
744.359	0.08
744.537	0.04
744.715	-0.14
744.893	0.01
745.071	0.08
745.249	0.03
745.427	-0.01
745.605	0.02
745.782	-0.02
745.96	0.06
746.138	0.11
746.316	0.08
746.493	-0.01
746.671	0.05
746.849	0.04
747.027	0.15
747.204	-0.06
747.382	0.16
747.56	-0.09
747.737	0.01
747.915	-0.03
748.093	0.09
748.27	0.01
748.448	0.03
748.625	-0.04
748.803	-0.08
748.98	0.04
749.158	0.13
749.335	0.11
749.513	-0
749.69	0.02
749.868	-0
750.045	0.04
750.223	-0.07
750.4	-0.15
750.578	0.29
750.755	0.03
750.932	-0.11
751.11	0.14
751.287	-0.08
751.464	0.17
751.642	-0.09
751.819	0.07
751.996	0.04
752.173	-0.07
752.351	-0.01
752.528	0.11
752.705	0.01
752.882	0.09
753.06	-0.03
753.237	-0.07
753.414	0.28
753.591	0.2
753.768	0.1
753.945	-0.03
754.122	0.04
754.299	0.19
754.476	-0.08
754.654	0.03
754.831	0.13
755.008	0.11
755.185	0.01
755.362	-0.07
755.539	0.08
755.716	-0.04
755.892	0.03
756.069	-0.12
756.246	0.01
756.423	0.14
756.6	0.23
756.777	-0.09
756.954	0.14
757.131	0
757.307	-0.21
757.484	-0.07
757.661	0.11
757.838	0.03
758.015	-0.08
758.191	0.14
758.368	-0.03
758.545	0.33
758.721	0.1
758.898	-0.09
759.075	0.06
759.251	0.2
759.428	0.07
759.605	-0.14
759.781	0.15
759.958	0.08
760.134	0.09
760.311	-0.01
760.488	0.12
760.664	0.15
760.841	-0.03
761.017	0.04
761.194	0.11
761.37	0.03
761.547	-0.01
761.723	0.02
761.899	0.19
762.076	-0.01
762.252	-0.08
762.429	0.02
762.605	0.06
762.781	-0.13
762.958	0.05
763.134	-0.06
763.31	-0.04
763.486	0.14
763.663	-0.26
763.839	0.11
764.015	-0.17
764.191	-0.11
764.368	0.05
764.544	-0.1
764.72	0.1
764.896	0.21
765.072	0.06
765.248	-0.19
765.425	0.04
765.601	0.17
765.777	-0.02
765.953	-0.19
766.129	-0.02
766.305	-0.05
766.481	0.04
766.657	-0.03
766.833	0.13
767.009	-0.1
767.185	-0.05
767.361	-0.01
767.537	-0.03
767.713	0.19
767.889	-0.07
768.065	-0.04
768.24	0.14
768.416	0.11
768.592	0.04
768.768	0.03
768.944	0.02
769.12	-0.08
769.295	-0.05
769.471	0.04
769.647	-0.02
769.823	0.29
769.998	-0.03
770.174	-0.13
770.35	0.33
770.525	0.38
770.701	0.19
770.877	0.04
771.052	0.02
771.228	0.2
771.403	0.14
771.579	0.1
771.755	0.37
771.93	-0.13
772.106	-0.04
772.281	-0.14
772.457	-0.06
772.632	0.16
772.808	-0.13
772.983	0
773.159	-0.17
773.334	0.24
773.509	0.06
773.685	-0.04
773.86	0.41
774.036	0.18
774.211	0.09
774.386	-0.05
774.562	0.06
774.737	0.15
774.912	-0.16
775.087	0.03
775.263	0.06
775.438	0.05
775.613	-0.13
775.788	-0.01
775.964	0.35
776.139	0.45
776.314	-0.17
776.489	0.2
776.664	-0.01
776.839	-0.07
777.014	0.12
777.19	0.15
777.365	0.15
777.54	0.15
777.715	-0.03
777.89	-0.04
778.065	-0.19
778.24	0.06
778.415	0.1
778.59	-0.23
778.765	-0.12
778.94	0.02
779.115	-0.12
779.289	-0.03
779.464	-0.01
779.639	0.12
779.814	-0.32
779.989	-0.14
780.164	0.24
780.339	0.03
780.513	-0.05
780.688	-0.11
780.863	-0.03
781.038	0.32
781.212	-0.1
781.387	-0.15
781.562	0.42
781.737	-0.02
781.911	0.1
782.086	-0.04
782.261	0.17
782.435	0.2
782.61	-0.05
782.784	-0.05
782.959	0.1
783.134	-0.18
783.308	-0.36
783.483	0.04
783.657	0.39
783.832	0.15
784.006	-0.21
784.181	0.17
784.355	0.21
784.53	-0.23
784.704	-0.11
784.878	0.06
785.053	0.09
785.227	0.25
785.402	0.55
785.576	-0.21
785.75	-0.07
785.925	-0.03
786.099	0.04
786.273	0.06
786.448	0.11
786.622	0.21
786.796	-0.14
786.97	-0.15
787.145	0.54
787.319	-0.1
787.493	0.06
787.667	-0.04
787.841	0.16
788.015	0.29
788.19	-0.07
788.364	0.12
788.538	0.19
788.712	0.19
788.886	0.01
789.06	0.37
789.234	0.08
789.408	-0.14
789.582	0.04
789.756	-0.15
789.93	0.03
790.104	0.04
790.278	-0.16
790.452	-0.28
790.626	0.14
790.8	-0.14
790.973	0.16
791.147	0.32
791.321	0.28
791.495	0.23
791.669	0.22
791.843	0.22
792.016	0.06
792.19	0.54
792.364	-0.18
792.538	0.57
792.711	0.35
792.885	0.03
793.059	-0.21
793.233	-0.12
793.406	0.4
793.58	-0.02
793.754	0.18
793.927	-0.28
794.101	0.35
794.274	-0.05
794.448	0.38
794.622	-0.31
794.795	0.33
794.969	-0.27
795.142	0.41
795.316	-0.06
795.489	-0.3
795.663	0.53
795.836	0.09
796.009	-0.22
796.183	0.3
796.356	0.01
796.53	-0.02
796.703	-0.05
796.876	0.57
797.05	-0.13
797.223	-0.09
797.396	-0.04
797.57	0.14
797.743	0.43
797.916	0.09
798.09	0.13
798.263	0.29
798.436	0.45
798.609	-0.33
798.782	-0.01
798.956	0.33
799.129	-0.17
799.302	0.03
799.475	-0.18
799.648	-0.23
799.821	-0.02
799.994	-0.09
800.167	-0.72
800.34	-0.11
800.514	0.23
800.687	-0.19
800.86	-0.35
801.033	-0.16
801.206	0.07
801.379	0.01
801.551	0.27
801.724	0.26
801.897	0.61
802.07	-0.15
802.243	-0.31
802.416	0.05
802.589	-0.09
802.762	0.16
802.935	0.09
803.107	0.11
803.28	0.2
803.453	0.38
803.626	-0.27
803.798	-0.04
803.971	0.17
804.144	-0.05
804.317	0.32
804.489	0.4
804.662	0.14
804.835	-0.03
805.007	-0.13
805.18	0.37
805.353	0.01
805.525	-0.28
805.698	-0.31
805.87	0.37
806.043	0.34
806.215	-0.36
806.388	-0.25
806.56	0.17
806.733	0.21
806.905	0.17
807.078	-0.1
807.25	-0.09
807.423	0.37
807.595	0.18
807.768	0.4
807.94	0.68
808.112	0.35
808.285	-0.04
808.457	-0
808.629	-0.1
808.802	0.18
808.974	0.19
809.146	-0.17
809.318	-0.43
809.491	-0.04
809.663	0.45
809.835	-0.18
810.007	0.11
810.18	-0.04
810.352	-0.42
810.524	-0.18
810.696	0.03
810.868	0.45
811.04	-0.26
811.212	-0.2
811.384	0.08
811.556	-0.07
811.728	-0.17
811.901	0.44
812.073	-0.06
812.245	0.29
812.417	-0.08
812.589	-0.68
812.76	-0.02
812.932	-0.01
813.104	0.36
813.276	0.02
813.448	0.36
813.62	-0.12
813.792	0.03
813.964	0.14
814.136	0.66
814.307	0.11
814.479	-0.41
814.651	0.12
814.823	0.83
814.995	0.03
815.166	0.27
815.338	-0.65
815.51	-0.3
815.681	0.91
815.853	0.06
816.025	-0.28
816.196	0.38
816.368	0.26
816.54	-0.44
816.711	-0.46
816.883	0.41
817.054	1.07
817.226	-0.62
817.398	0.3
817.569	-0.24
817.741	-0.32
817.912	-0.01
818.084	0.12
818.255	0.1
818.426	-0.31
818.598	-0.21
818.769	-0.17
818.941	-0.14
819.112	0.76
819.283	-0
819.455	-0.35
819.626	0.14
819.798	0.09
819.969	0.06
820.14	-0.05
820.311	0.33
820.483	0.31
820.654	0.14
820.825	0.11
820.996	-0.33
821.168	-0.36
821.339	0.31
821.51	-0.41
821.681	-0.39
821.852	-0.01
822.023	-0.58
822.195	-0.33
822.366	0.57
822.537	-0.04
822.708	0.1
822.879	-0.2
823.05	0.74
823.221	0.05
823.392	0.51
823.563	-0.08
823.734	0.12
823.905	0.12
824.076	-0.35
824.247	-0.54
824.418	-0.83
824.589	0.72
824.759	-0.03
824.93	0.04
825.101	-0.89
825.272	0.67
825.443	0.41
825.614	0.27
825.784	-0.54
825.955	1.04
826.126	0.57
826.297	0.07
826.467	0.72
826.638	0.64
826.809	-0.68
826.98	0.02
827.15	-0.46
827.321	0.03
827.492	1.13
827.662	-0.02
827.833	1.34
828.003	0.27
828.174	-0.82
828.345	-0.28
828.515	1.1
828.686	-0.12
828.856	-0.26
829.027	-0.02
829.197	0.14
829.368	-0.02
829.538	-0.31
829.709	-0.49
829.879	0.65
830.049	0.64
830.22	-0.31
830.39	0.4
830.56	0.47
830.731	-0.19
830.901	-0.9
831.072	0.41
831.242	0.03
831.412	0.12
831.582	-0.16
831.753	-0.82
831.923	0.89
832.093	0.21
832.263	-0.05
832.434	-0.5
832.604	-0.26
832.774	0
832.944	-0.14
833.114	-0.19
833.284	0.31
833.454	-0.43
833.624	-0.19
833.795	-0.17
833.965	0.66
834.135	0.38
834.305	-1.21
834.475	-0.33
834.645	-0.05
834.815	-0.3
834.985	-0.88
835.155	-0.49
835.325	0.07
835.494	0.44
835.664	-0.59
835.834	-0.88
836.004	-0.13
836.174	0.2
836.344	-0.35
836.514	-1.29
836.684	-0.89
836.853	-0.2
837.023	0.17
837.193	-0.69
837.363	0.09
837.532	0.47
837.702	0.28
837.872	-1.03
838.041	0.55
838.211	1.38
838.381	0.17
838.55	0.15
838.72	1.99
838.89	1.27
839.059	-0.9
839.229	-0.91
839.398	1.64
839.568	0.24
839.738	-0.52
839.907	1.09
840.077	0.46
840.246	0.03
840.416	-0.18
840.585	-0.16
840.755	0.68
840.924	1.33
841.093	-0.55
841.263	0.05
841.432	0.36
841.602	0.17
841.771	0.31
841.94	-0.22
842.11	2.21
842.279	0.97
842.448	-1.01
842.617	-1.22
842.787	1.54
842.956	-0.89
843.125	0.05
843.294	0.15
843.464	0.74
843.633	0.73
843.802	-0.79
843.971	-0.22
844.14	0.57
844.309	0.97
844.479	-0.36
844.648	-0.85
844.817	-0.21
844.986	0.17
845.155	-1.16
845.324	0.16
845.493	-0.47
845.662	-0.23
845.831	-0
846	0.5
846.169	0.09
846.338	1.52
846.507	-0.45
846.676	0.56
846.844	-0.49
847.013	1.06
847.182	0.56
847.351	-1.06
847.52	-0.99
847.689	0.19
847.858	-0.3
848.026	0.19
848.195	-0.5
848.364	-0.14
848.533	-0.18
848.701	-0.27
848.87	0.25
849.039	0.48
849.207	0.79
849.376	1.74
849.545	1.39
849.713	-0.23
849.882	-0.22
850.051	-0.43
850.219	0.44
850.388	1.03
850.556	-0.95
850.725	-0.04
850.893	1.23
851.062	-0.82
851.23	0.81
851.399	-1.79
851.567	-0.65
851.736	-0.57
851.904	-1.06
852.073	-0.36
852.241	0.47
852.41	-0.67
852.578	-0.84
852.746	-0.36
852.915	0.1
853.083	-0.52
853.251	-1.95
853.42	-0.59
853.588	0.28
853.756	1.09
853.924	-1.15
854.093	0.19
854.261	-0.7
854.429	-0.52
854.597	0.2
854.765	-1.15
854.934	0.54
855.102	0.95
855.27	0.59
855.438	0.79
855.606	1.35
855.774	1.78
855.942	-1.2
856.11	-1.22
856.278	0.02
856.446	0.73
856.614	0.46
856.782	-0.19
856.95	1.3
857.118	0.65
857.286	0.77
857.454	-0.98
857.622	1.78
857.79	1.13
857.958	-0.31
858.126	-0.16
858.294	-1.87
858.462	0.08
858.629	-1.28
858.797	-0.58
858.965	0.86
859.133	-0.52
859.301	-0.4
859.468	0.46
859.636	-0.43
859.804	2.53
859.971	0.02
860.139	-0.23
860.307	0.43
860.474	0.34
860.642	-0.54
860.81	-0.77
860.977	0.04
861.145	0.72
861.313	0.28
861.48	-1.03
861.648	0.69
861.815	-1.86
861.983	-0.9
862.15	-0.73
862.318	0.97
862.485	0.5
862.653	-1.23
862.82	-0.45
862.988	1.05
863.155	1.04
863.322	-0.93
863.49	-1.06
863.657	-0.74
863.824	1.65
863.992	0.32
864.159	-0.35
864.326	1.69
864.494	-2.07
864.661	1.71
864.828	-1.93
864.996	1.65
865.163	2.54
865.33	-1.68
865.497	-3.19
865.664	-1.64
865.832	-2.33
865.999	-0.27
866.166	-0.82
866.333	0.36
866.5	-0.95
866.667	-1.61
866.834	-1.1
867.001	1.07
867.168	-2.35
867.335	0.46
867.502	-2.55
867.669	1.15
867.836	3.17
868.003	0.55
868.17	0.09
868.337	-0.84
868.504	3.01
868.671	-4.26
868.838	-0.57
869.005	0.58
869.172	1.21
869.339	-0.96
869.505	-2.02
869.672	0.91
869.839	2.04
870.006	0.28
870.173	-2.02
870.339	1.02
870.506	3.06
870.673	-2.02
870.84	1.54
871.006	0.24
871.173	0.36
871.34	-0.11
871.506	-1.96
871.673	0.32
871.839	-1.95
872.006	0.67
872.173	-2.44
872.339	0.33
872.506	2.35
872.672	-1.05
872.839	-2.83
873.005	0.11
873.172	3.65
873.338	0.98
873.505	-0.37
873.671	0.62
873.838	0.96
874.004	-1.43
874.171	-2.48
874.337	0.66
874.503	-0.11
874.67	-1.76
874.836	-0.18
875.002	2.83
875.169	2.01
875.335	0.14
875.501	0.08
875.668	3.1
875.834	-0.13
876	-0.57
876.166	1.28
876.332	1.36
876.499	2.51
876.665	-1.2
876.831	-0.9
876.997	2.19
877.163	1.94
877.329	-1.63
877.495	-0.86
877.662	2.36
877.828	1.77
877.994	0.49
878.16	-1.35
878.326	-0.37
878.492	-1.04
878.658	-1.8
878.824	-0.36
878.99	-0.47
879.156	-0.56
879.322	3.34
879.487	0.71
879.653	-1.09
879.819	1.88
879.985	-0.26
880.151	0.52
880.317	1.25
880.483	1.64
880.648	0.86
880.814	-2.93
880.98	-0.85
881.146	-3.34
881.312	-0.94
881.477	-0.66
881.643	-1.41
881.809	1.75
881.974	1.95
882.14	-1.66
882.306	0.92
882.471	4.07
882.637	-0.45
882.803	0.03
882.968	2.41
883.134	2.58
883.299	-1.29
883.465	-0.54
883.63	0.76
883.796	1.73
883.961	0.54
884.127	0.98
884.292	-4.88
884.458	-2.79
884.623	-2.79
