Data from Apollo_Calib_20240827__AbsoluteIrradiance__409__05-58-00-629.txt Node

Date: Wed Aug 28 05:58:00 BST 2024
User: biology
Spectrometer: FLMT08252
Trigger mode: 0
Integration Time (sec): 5.000000E-1
Scans to average: 5
Electric dark correction enabled: true
Nonlinearity correction enabled: false
Boxcar width: 0
XAxis mode: Wavelengths
Number of Pixels in Spectrum: 3648
>>>>>Begin Spectral Data<<<<<
179.588	-0
179.809	-0
180.03	-0
180.251	-0
180.473	-0
180.694	0
180.915	0
181.136	-0
181.357	0
181.578	0
181.799	-0
182.02	0
182.241	-0
182.462	-0
182.683	0
182.904	-0
183.125	-0
183.346	0
183.567	0
183.788	0
184.009	-0
184.23	0
184.451	0
184.672	-0
184.892	-0
185.113	0
185.334	0
185.555	-0
185.776	0
185.996	0
186.217	0
186.438	0
186.659	-0
186.879	0
187.1	0
187.321	-0
187.541	-0
187.762	0
187.983	0
188.203	0
188.424	0
188.644	-0
188.865	0
189.086	0
189.306	0
189.527	0
189.747	0
189.968	0
190.188	0
190.409	0
190.629	0
190.849	0
191.07	0
191.29	0
191.511	0
191.731	0
191.951	-0
192.172	0
192.392	0
192.612	0
192.833	0
193.053	0
193.273	0
193.493	0
193.714	0
193.934	0
194.154	0
194.374	0
194.594	0
194.815	0
195.035	-0
195.255	0
195.475	0
195.695	0
195.915	0
196.135	0
196.355	0
196.575	0
196.795	0
197.015	-0
197.235	0
197.455	-0
197.675	0
197.895	0
198.115	0
198.335	0
198.555	0
198.775	0
198.995	0
199.214	0
199.434	0
199.654	0
199.874	0
200.094	0.92
200.313	-0.1
200.533	0
200.753	-0.5
200.973	1.11
201.192	1.58
201.412	-0.79
201.632	-0.16
201.851	0.94
202.071	-0.32
202.291	-0.15
202.51	-0.34
202.73	1.29
202.95	0.35
203.169	-0.47
203.389	0.06
203.608	0.58
203.828	-0.19
204.047	-0.02
204.267	0.67
204.486	0.32
204.706	0.46
204.925	0.14
205.145	0.29
205.364	0.41
205.583	1
205.803	0.19
206.022	-0.33
206.242	0.3
206.461	0.35
206.68	0.06
206.9	-0.06
207.119	0.7
207.338	0.8
207.557	0.08
207.777	0.09
207.996	0.3
208.215	0.76
208.434	-0.03
208.654	-0.25
208.873	0.37
209.092	0.9
209.311	0.31
209.53	0.04
209.749	-0
209.968	0.29
210.187	0.22
210.407	-0.53
210.626	0.14
210.845	0.2
211.064	0.2
211.283	-0.04
211.502	0.52
211.721	0.35
211.94	0.07
212.159	0.25
212.377	0.42
212.596	0.49
212.815	0.22
213.034	0.38
213.253	0.41
213.472	0.35
213.691	0.08
213.91	-0.12
214.128	0.01
214.347	0.52
214.566	-0.08
214.785	-0.4
215.003	0.51
215.222	0.34
215.441	0.27
215.66	-0.31
215.878	0.24
216.097	0.27
216.316	-0.13
216.534	0.2
216.753	0.28
216.972	0.05
217.19	0.04
217.409	-0.04
217.627	0.15
217.846	0.2
218.064	0.29
218.283	0.02
218.501	0.44
218.72	0.25
218.938	-0.01
219.157	0.17
219.375	0.23
219.594	0.23
219.812	-0.12
220.031	-0.02
220.249	0.44
220.467	0.59
220.686	-0.05
220.904	-0.1
221.122	-0.08
221.341	0.47
221.559	0.26
221.777	-0.05
221.995	0.21
222.214	0.21
222.432	0.01
222.65	0.19
222.868	0.24
223.086	0.15
223.305	0.29
223.523	0.1
223.741	0.46
223.959	0.03
224.177	-0.12
224.395	0.1
224.613	0.21
224.831	0.09
225.049	0.01
225.267	0.02
225.485	0.27
225.703	0.06
225.921	0.05
226.139	0.06
226.357	0.23
226.575	0.17
226.793	0.1
227.011	0.72
227.229	0.15
227.447	0.28
227.665	0.11
227.883	0.04
228.1	0.14
228.318	0.14
228.536	-0.11
228.754	0.04
228.972	0.12
229.189	0.38
229.407	0.05
229.625	0.21
229.843	0.28
230.06	0.27
230.278	-0.03
230.496	0.07
230.713	0.11
230.931	0.27
231.149	-0.04
231.366	-0.05
231.584	0.05
231.801	0.45
232.019	-0.16
232.236	-0.02
232.454	-0.03
232.671	0.24
232.889	0.17
233.106	0.02
233.324	0.06
233.541	0.08
233.759	0.06
233.976	0.05
234.194	0.11
234.411	0.15
234.628	-0.04
234.846	0
235.063	0.03
235.28	0.08
235.498	0.08
235.715	-0.11
235.932	0.18
236.149	0.04
236.367	-0.12
236.584	0.14
236.801	0.1
237.018	0.19
237.236	0.12
237.453	-0.01
237.67	0.21
237.887	0.02
238.104	0.09
238.321	0
238.538	-0.01
238.755	0.19
238.973	-0.04
239.19	0.11
239.407	0.18
239.624	0.11
239.841	-0.1
240.058	0.01
240.275	0.05
240.492	-0
240.709	-0.02
240.925	0.09
241.142	0.15
241.359	-0.07
241.576	0.05
241.793	0.08
242.01	0.12
242.227	0.17
242.444	0.1
242.66	0.27
242.877	0.04
243.094	-0.04
243.311	0.05
243.527	0.13
243.744	0.08
243.961	0.13
244.178	-0.03
244.394	0.05
244.611	0.19
244.828	0.26
245.044	-0.02
245.261	0.03
245.477	0.14
245.694	0.14
245.911	-0.04
246.127	0.13
246.344	0.25
246.56	0.11
246.777	0.01
246.993	0.13
247.21	0.19
247.426	0.07
247.643	0.03
247.859	-0.04
248.076	0.01
248.292	0.27
248.508	-0.02
248.725	0.16
248.941	0.14
249.157	0.16
249.374	0.04
249.59	0.06
249.806	0.05
250.023	0.27
250.239	0.04
250.455	0.01
250.671	0.05
250.888	0.03
251.104	0.02
251.32	0.05
251.536	0.09
251.752	0.04
251.969	0.1
252.185	0.09
252.401	0.19
252.617	0.1
252.833	0.02
253.049	0.1
253.265	0.11
253.481	0.09
253.697	0.05
253.913	-0.02
254.129	0.1
254.345	0.13
254.561	0.03
254.777	0.07
254.993	0.09
255.209	0.11
255.425	0.04
255.641	0.04
255.857	0.2
256.073	0.06
256.288	0.05
256.504	-0.05
256.72	0.15
256.936	0.19
257.152	0.03
257.367	0.05
257.583	0.12
257.799	0.18
258.015	0.03
258.23	0.01
258.446	0.15
258.662	0.07
258.877	-0.02
259.093	-0.07
259.309	0.09
259.524	-0
259.74	-0.02
259.955	-0.06
260.171	0.03
260.387	0.06
260.602	0.14
260.818	0.11
261.033	0.05
261.249	-0
261.464	0.08
261.68	0.01
261.895	0.07
262.11	0.12
262.326	0.02
262.541	-0.05
262.757	0.16
262.972	0.13
263.187	0.05
263.403	0.05
263.618	0.13
263.833	0.02
264.049	0.06
264.264	0.07
264.479	0.12
264.694	0.15
264.91	-0.01
265.125	0.1
265.34	0.1
265.555	0.2
265.77	0.14
265.986	0.02
266.201	0.13
266.416	0.15
266.631	0.01
266.846	0.05
267.061	0.06
267.276	0.1
267.491	-0.08
267.706	0.11
267.921	0.11
268.136	0.08
268.351	0.06
268.566	-0.04
268.781	0.15
268.996	0.1
269.211	0.12
269.426	-0.01
269.641	0.06
269.856	0.17
270.071	0.01
270.285	-0.03
270.5	0.16
270.715	0.12
270.93	0.04
271.145	0.1
271.359	0.07
271.574	-0.01
271.789	0.03
272.004	0.04
272.218	0.02
272.433	0.09
272.648	-0.01
272.862	0.15
273.077	0.03
273.292	0.03
273.506	-0.01
273.721	0.02
273.936	0.09
274.15	0.13
274.365	0.02
274.579	0.14
274.794	0.12
275.008	0.15
275.223	-0.03
275.437	0.02
275.652	0.15
275.866	0.13
276.081	0.06
276.295	0.11
276.509	0.05
276.724	0.04
276.938	0.01
277.153	0.04
277.367	0.16
277.581	0.01
277.796	0.06
278.01	-0.04
278.224	0.12
278.438	0.18
278.653	-0.01
278.867	-0
279.081	0.16
279.295	0.04
279.51	0.04
279.724	-0.01
279.938	0.09
280.152	0
280.366	0.01
280.58	0.11
280.794	0.14
281.008	0.06
281.222	0.11
281.437	0.18
281.651	0.08
281.865	0.16
282.079	0.03
282.293	-0.07
282.507	0.05
282.721	0.01
282.935	0.07
283.148	-0.07
283.362	0.03
283.576	0.01
283.79	0.05
284.004	0.02
284.218	0.11
284.432	0.02
284.646	0.07
284.859	0.05
285.073	0.09
285.287	0.05
285.501	0.05
285.714	0.05
285.928	0.02
286.142	0.1
286.356	0.03
286.569	0.05
286.783	0.16
286.997	0.09
287.21	0.08
287.424	0.06
287.637	0.05
287.851	0.06
288.065	0.12
288.278	0.01
288.492	0.04
288.705	0.07
288.919	0.09
289.132	0.04
289.346	0.12
289.559	-0.02
289.773	-0
289.986	0.01
290.2	0.02
290.413	0.14
290.626	-0.02
290.84	0.03
291.053	0.01
291.267	0.1
291.48	0.06
291.693	0.06
291.906	0.03
292.12	0.04
292.333	0.04
292.546	0.04
292.76	0.18
292.973	0.05
293.186	0.11
293.399	0.03
293.612	0.14
293.826	0.08
294.039	0.09
294.252	0.06
294.465	0.1
294.678	0.07
294.891	0.09
295.104	0.01
295.317	0.04
295.53	0.05
295.743	0.05
295.956	0.06
296.169	0.11
296.382	0.08
296.595	0.05
296.808	0.01
297.021	0.07
297.234	0.09
297.447	0.03
297.66	0.03
297.873	0.07
298.086	0.05
298.299	0.01
298.511	-0.03
298.724	0.01
298.937	0
299.15	-0.02
299.363	0.07
299.575	0.11
299.788	0.08
300.001	0
300.213	0.02
300.426	0.03
300.639	0.02
300.852	-0.01
301.064	0.09
301.277	0.13
301.489	0.08
301.702	0.08
301.915	0.04
302.127	0.07
302.34	0.07
302.552	0.06
302.765	-0.03
302.977	0.07
303.19	0.02
303.402	0
303.615	0.05
303.827	0.05
304.04	0.02
304.252	0.09
304.464	0.05
304.677	0.15
304.889	0.12
305.102	0.02
305.314	-0.02
305.526	0.09
305.739	0.06
305.951	0.05
306.163	0.01
306.375	0.11
306.588	0.03
306.8	0
307.012	-0.02
307.224	0.09
307.436	0.1
307.649	0
307.861	0.03
308.073	0.09
308.285	-0.02
308.497	-0.01
308.709	0.05
308.921	0.03
309.133	0.07
309.346	0.03
309.558	0.02
309.77	0.13
309.982	0.08
310.194	0.1
310.406	0.02
310.617	0.1
310.829	0.07
311.041	0.08
311.253	-0
311.465	0.01
311.677	0.09
311.889	0.07
312.101	0.04
312.313	0.08
312.524	0.09
312.736	-0
312.948	0.05
313.16	0.16
313.372	0.12
313.583	0.07
313.795	0.02
314.007	0.05
314.218	0.13
314.43	0.05
314.642	-0.01
314.853	0.02
315.065	0.08
315.277	0.02
315.488	0.05
315.7	0.12
315.912	0.06
316.123	0.08
316.335	0
316.546	0.13
316.758	0.05
316.969	0.03
317.181	0.06
317.392	0.03
317.604	0.1
317.815	0.03
318.026	0.04
318.238	0.04
318.449	0.09
318.661	-0.03
318.872	-0.02
319.083	0.03
319.295	0.08
319.506	0.01
319.717	0.08
319.929	0.09
320.14	0.05
320.351	0.06
320.562	-0.01
320.774	0.05
320.985	0.03
321.196	-0.02
321.407	-0.02
321.618	0.08
321.829	0.05
322.041	0.06
322.252	0.06
322.463	0.05
322.674	0.06
322.885	0
323.096	0.06
323.307	0.08
323.518	0.06
323.729	0.02
323.94	0.08
324.151	0.05
324.362	0.08
324.573	0.06
324.784	0.03
324.995	0.13
325.206	0.05
325.417	0.02
325.628	0.02
325.838	0.03
326.049	0.05
326.26	0.07
326.471	0.04
326.682	0.1
326.892	0.05
327.103	0.02
327.314	0.02
327.525	0.09
327.735	0.03
327.946	0.01
328.157	-0
328.368	0.06
328.578	0.02
328.789	0.07
328.999	0.03
329.21	0.03
329.421	0.09
329.631	0.01
329.842	-0.01
330.052	0.04
330.263	0.06
330.473	0.09
330.684	0.03
330.894	0.05
331.105	0.06
331.315	0.04
331.526	-0.03
331.736	0.14
331.947	0.06
332.157	0.07
332.367	0.01
332.578	0.12
332.788	0.14
332.999	0.1
333.209	0.04
333.419	-0.01
333.629	0.06
333.84	0.11
334.05	0.07
334.26	0.13
334.47	0.1
334.681	0.09
334.891	0.02
335.101	0.12
335.311	0.12
335.521	0.05
335.732	-0.01
335.942	0.1
336.152	0.07
336.362	0.05
336.572	0.04
336.782	0.06
336.992	0.05
337.202	0.04
337.412	-0.01
337.622	0.05
337.832	0.04
338.042	0.03
338.252	-0.01
338.462	0.07
338.672	0.06
338.882	-0.04
339.092	0.06
339.302	0.1
339.511	0.09
339.721	0
339.931	-0.02
340.141	0.11
340.351	0.09
340.561	0.03
340.77	0.03
340.98	0.06
341.19	0.06
341.4	0.02
341.609	-0.02
341.819	0.01
342.029	0
342.238	0.07
342.448	0.06
342.658	0.06
342.867	0.1
343.077	0.04
343.286	0.06
343.496	0.05
343.706	0.12
343.915	0.04
344.125	0.1
344.334	0.07
344.544	-0
344.753	-0
344.963	0.02
345.172	-0.01
345.381	0.05
345.591	0.03
345.8	0.06
346.01	0.13
346.219	0.09
346.428	-0.1
346.638	0.01
346.847	0.04
347.056	0.1
347.266	0.01
347.475	0.06
347.684	0.07
347.893	0.06
348.103	0.04
348.312	0.01
348.521	0.05
348.73	0.06
348.94	0.04
349.149	0.02
349.358	0.07
349.567	0.04
349.776	-0.02
349.985	0.02
350.194	0.09
350.403	0.07
350.612	0.02
350.821	0.02
351.03	0.06
351.239	-0.02
351.448	0.05
351.657	0.03
351.866	0.11
352.075	0.09
352.284	0.13
352.493	-0.01
352.702	0.05
352.911	0.08
353.12	0.04
353.329	0.01
353.538	0.06
353.746	0.02
353.955	0.05
354.164	0.05
354.373	0.03
354.582	0.09
354.79	0.05
354.999	0.09
355.208	0.03
355.416	0.09
355.625	0.02
355.834	0.04
356.042	0.08
356.251	0.04
356.46	0.01
356.668	0.05
356.877	0.11
357.085	0.09
357.294	-0.07
357.503	0.04
357.711	0.05
357.92	0.17
358.128	0.07
358.337	0.05
358.545	0.08
358.754	0.03
358.962	0.08
359.17	0.01
359.379	0.07
359.587	0.06
359.796	0.02
360.004	0.09
360.212	0.09
360.421	0.14
360.629	-0.01
360.837	0.04
361.046	0.05
361.254	0.16
361.462	0.04
361.67	0
361.879	0.02
362.087	0.12
362.295	0.07
362.503	0.01
362.711	0.03
362.92	-0
363.128	0.01
363.336	0.03
363.544	0.01
363.752	0.01
363.96	0.07
364.168	0.05
364.376	0.05
364.584	0.02
364.792	0.06
365	0.07
365.208	0.05
365.416	0.08
365.624	0.1
365.832	0.02
366.04	0.12
366.248	0.07
366.456	0.07
366.664	0.03
366.872	0.08
367.079	0.04
367.287	0.07
367.495	0.06
367.703	0.03
367.911	0.07
368.118	0.07
368.326	0.03
368.534	0.02
368.742	0.1
368.949	0.01
369.157	0.01
369.365	0.06
369.572	0.05
369.78	0.01
369.988	0.1
370.195	0.05
370.403	0.08
370.61	0.05
370.818	0.07
371.026	0.09
371.233	0.01
371.441	0.05
371.648	0
371.856	0.09
372.063	0.06
372.271	0.02
372.478	0.01
372.685	0.04
372.893	0.13
373.1	0.01
373.308	0.02
373.515	0.12
373.722	0.07
373.93	0.02
374.137	0.05
374.344	0.11
374.552	0.1
374.759	0.09
374.966	0.03
375.173	0
375.381	0.11
375.588	0.08
375.795	-0.01
376.002	0.03
376.209	0.01
376.417	0.04
376.624	0.02
376.831	0.05
377.038	0.04
377.245	-0.01
377.452	0.04
377.659	0.04
377.866	0.02
378.073	0.06
378.28	0.08
378.487	0.09
378.694	0.06
378.901	0.03
379.108	0.04
379.315	0.06
379.522	0.1
379.729	0.06
379.936	0.03
380.143	0.06
380.35	0.07
380.557	0.02
380.763	0.05
380.97	0.05
381.177	0.09
381.384	0.06
381.591	-0
381.797	0.01
382.004	0.07
382.211	0.07
382.418	0.05
382.624	0.08
382.831	0.12
383.038	0.04
383.244	0.04
383.451	0.02
383.658	0.04
383.864	0.04
384.071	0.05
384.277	0.08
384.484	0.01
384.69	0.08
384.897	0.03
385.103	0.05
385.31	0.01
385.516	0.05
385.723	0.02
385.929	0.05
386.136	0.04
386.342	0.09
386.549	0.02
386.755	0.08
386.961	0.03
387.168	0.05
387.374	0.07
387.58	0.08
387.787	0.05
387.993	0.04
388.199	0.05
388.406	0.02
388.612	0.06
388.818	0.08
389.024	0.07
389.231	0.05
389.437	0.12
389.643	0.09
389.849	0.05
390.055	0.1
390.261	0.06
390.467	0.05
390.674	0.04
390.88	0.06
391.086	0.06
391.292	0.03
391.498	0.11
391.704	0.04
391.91	0.04
392.116	0.03
392.322	-0.01
392.528	0.06
392.734	0.04
392.94	0.05
393.146	0.05
393.352	0.06
393.557	0.05
393.763	0.03
393.969	0.08
394.175	0.07
394.381	0.07
394.587	0
394.792	0.08
394.998	0.1
395.204	0.1
395.41	0.04
395.615	0.05
395.821	0.1
396.027	0.07
396.233	0.03
396.438	0.05
396.644	0.13
396.85	0.06
397.055	0.06
397.261	0.05
397.466	0.15
397.672	0.05
397.878	0.11
398.083	0.09
398.289	0.03
398.494	0.08
398.7	0.08
398.905	-0.01
399.111	0.15
399.316	0.01
399.522	0.1
399.727	0.06
399.932	0.07
400.138	0.04
400.343	0.1
400.549	0.06
400.754	0.06
400.959	0.11
401.165	0.06
401.37	0.07
401.575	0.15
401.78	0.06
401.986	0.04
402.191	0.05
402.396	0.05
402.601	0.11
402.807	0.03
403.012	0.05
403.217	0.09
403.422	0.07
403.627	-0.01
403.832	0.02
404.037	0.1
404.243	0.08
404.448	0.01
404.653	0.07
404.858	0.09
405.063	0.09
405.268	0.02
405.473	0.05
405.678	0.04
405.883	0.2
406.088	0.1
406.293	-0.03
406.498	0.04
406.703	0.09
406.907	0.1
407.112	0.01
407.317	0.1
407.522	0.12
407.727	0.02
407.932	0.05
408.136	0.15
408.341	0.05
408.546	0.06
408.751	0.05
408.956	0.06
409.16	0.15
409.365	0.09
409.57	0.05
409.774	0.08
409.979	0.1
410.184	0.09
410.388	0.04
410.593	0.12
410.798	0.08
411.002	0.06
411.207	0.06
411.411	0.05
411.616	0.02
411.82	0.04
412.025	0.06
412.229	0.08
412.434	0.12
412.638	0.07
412.843	0.02
413.047	0.05
413.252	0.02
413.456	0.04
413.66	0.1
413.865	0.06
414.069	0.11
414.273	0.04
414.478	0.06
414.682	0.08
414.886	0.04
415.091	0.02
415.295	-0.04
415.499	0.1
415.703	0.06
415.908	0.1
416.112	-0.01
416.316	0.08
416.52	0.06
416.724	0.01
416.929	0.02
417.133	0.14
417.337	0.04
417.541	0.06
417.745	0.04
417.949	0.11
418.153	0.07
418.357	0.03
418.561	0.13
418.765	0.07
418.969	0.16
419.173	0.12
419.377	0.02
419.581	0.13
419.785	0.04
419.989	0.04
420.193	0.08
420.397	0.06
420.601	0.12
420.804	0.1
421.008	0.12
421.212	0.14
421.416	0.13
421.62	0.04
421.823	0.08
422.027	0.21
422.231	0.14
422.435	0.04
422.638	0.12
422.842	0.07
423.046	0.03
423.249	0.06
423.453	0.09
423.657	0.08
423.86	0.05
424.064	0.06
424.268	0.12
424.471	0.09
424.675	0.15
424.878	0.16
425.082	0.11
425.285	0.13
425.489	0.12
425.692	0.06
425.896	0.03
426.099	0.08
426.303	0.06
426.506	0.02
426.71	0.1
426.913	0.08
427.116	0.14
427.32	0.1
427.523	0.11
427.726	0.13
427.93	0.02
428.133	0.09
428.336	0.02
428.54	0.03
428.743	0.13
428.946	0.1
429.149	0.05
429.353	0.11
429.556	0.07
429.759	0.1
429.962	0.07
430.165	0.14
430.368	0.1
430.571	0.05
430.775	0.11
430.978	0.06
431.181	0.1
431.384	0.09
431.587	0.07
431.79	0.07
431.993	0.06
432.196	0.07
432.399	0.06
432.602	0.13
432.805	0.04
433.008	0.07
433.211	-0.01
433.414	0.13
433.616	0.11
433.819	0.03
434.022	0.02
434.225	0.18
434.428	0.09
434.631	0.15
434.833	0.07
435.036	0.05
435.239	0.12
435.442	0.11
435.645	0.06
435.847	0.1
436.05	0.1
436.253	0.09
436.455	0.03
436.658	0.05
436.861	0.14
437.063	0.06
437.266	0.15
437.468	0.11
437.671	0.21
437.874	0.12
438.076	0.03
438.279	0
438.481	0.08
438.684	0.03
438.886	0.12
439.089	0.02
439.291	0.16
439.494	0.11
439.696	0.03
439.899	0.1
440.101	0.11
440.303	0.04
440.506	0.14
440.708	0.09
440.91	0.1
441.113	0.03
441.315	0.15
441.517	0.06
441.72	0.11
441.922	0.04
442.124	0.07
442.326	0.14
442.529	0.18
442.731	0.09
442.933	0.18
443.135	0.08
443.337	0.05
443.539	0.11
443.742	0.07
443.944	0.1
444.146	0.1
444.348	0.08
444.55	0.04
444.752	0.12
444.954	-0.01
445.156	0.1
445.358	0.02
445.56	0.13
445.762	0.04
445.964	0.08
446.166	0.05
446.368	0.08
446.57	0.14
446.772	0.12
446.974	0.07
447.175	0.1
447.377	0.05
447.579	0.05
447.781	-0.01
447.983	0.19
448.184	0.14
448.386	0.13
448.588	0.06
448.79	0.08
448.991	0.13
449.193	0.08
449.395	0.09
449.597	0.15
449.798	0.14
450	0.15
450.202	0.1
450.403	0.14
450.605	0.15
450.806	0.08
451.008	0.03
451.21	0.05
451.411	0.09
451.613	0.11
451.814	0.1
452.016	0.13
452.217	0.09
452.419	0.15
452.62	0.07
452.821	0.14
453.023	0.18
453.224	0.17
453.426	0.06
453.627	0.08
453.828	0.1
454.03	0.15
454.231	0.11
454.432	0.06
454.634	0.17
454.835	0.1
455.036	0.03
455.238	0.19
455.439	0.16
455.64	0.05
455.841	0.06
456.042	0.21
456.244	0.15
456.445	0.02
456.646	0.09
456.847	0.08
457.048	0.16
457.249	0.17
457.45	0.28
457.651	0.06
457.852	0.16
458.054	0.16
458.255	0.11
458.456	0.13
458.657	0.11
458.858	0.06
459.058	0.16
459.259	0.16
459.46	0.14
459.661	0.08
459.862	0.21
460.063	0.09
460.264	0.17
460.465	0.05
460.666	0.23
460.866	0.06
461.067	0.11
461.268	0.08
461.469	0.08
461.67	0.12
461.87	0.13
462.071	0.09
462.272	0.09
462.473	0.13
462.673	0.14
462.874	0.03
463.075	0.1
463.275	0.1
463.476	0.14
463.676	0.14
463.877	0.17
464.078	0.13
464.278	0.15
464.479	0.11
464.679	0.13
464.88	0.14
465.08	0.18
465.281	0.09
465.481	0.11
465.682	0.14
465.882	0.18
466.083	0.13
466.283	0.11
466.483	0.15
466.684	0.05
466.884	0.11
467.085	0.17
467.285	0.18
467.485	0.08
467.686	0.12
467.886	0.09
468.086	0.11
468.286	0.15
468.487	0.15
468.687	0.08
468.887	0.13
469.087	0.19
469.287	0.1
469.488	0.07
469.688	0.18
469.888	0.19
470.088	0.17
470.288	0.19
470.488	0.19
470.688	0.09
470.888	0.14
471.088	0.13
471.288	0.18
471.488	0.18
471.688	0.21
471.888	0.13
472.088	0.22
472.288	0.19
472.488	0.15
472.688	0.1
472.888	0.16
473.088	0.2
473.288	0.16
473.488	0.17
473.688	0.23
473.887	0.16
474.087	0.14
474.287	0.19
474.487	0.12
474.687	0.17
474.886	0.16
475.086	0.14
475.286	0.16
475.486	0.22
475.685	0.17
475.885	0.16
476.085	0.18
476.284	0.21
476.484	0.19
476.684	0.21
476.883	0.28
477.083	0.22
477.282	0.16
477.482	0.28
477.681	0.27
477.881	0.22
478.08	0.16
478.28	0.22
478.479	0.26
478.679	0.32
478.878	0.22
479.078	0.22
479.277	0.2
479.477	0.23
479.676	0.31
479.875	0.25
480.075	0.22
480.274	0.25
480.473	0.29
480.673	0.24
480.872	0.28
481.071	0.28
481.271	0.3
481.47	0.25
481.669	0.23
481.868	0.29
482.067	0.28
482.267	0.25
482.466	0.29
482.665	0.25
482.864	0.26
483.063	0.29
483.262	0.32
483.461	0.37
483.661	0.39
483.86	0.35
484.059	0.38
484.258	0.36
484.457	0.36
484.656	0.38
484.855	0.45
485.054	0.34
485.253	0.36
485.452	0.35
485.651	0.41
485.849	0.38
486.048	0.44
486.247	0.43
486.446	0.47
486.645	0.41
486.844	0.47
487.043	0.48
487.241	0.49
487.44	0.44
487.639	0.49
487.838	0.5
488.037	0.5
488.235	0.59
488.434	0.53
488.633	0.47
488.831	0.57
489.03	0.65
489.229	0.6
489.427	0.57
489.626	0.64
489.825	0.65
490.023	0.65
490.222	0.64
490.42	0.66
490.619	0.71
490.817	0.7
491.016	0.69
491.214	0.75
491.413	0.75
491.611	0.73
491.81	0.75
492.008	0.78
492.207	0.84
492.405	0.85
492.604	0.78
492.802	0.84
493	0.87
493.199	0.91
493.397	0.92
493.595	0.94
493.794	0.91
493.992	1.01
494.19	1
494.388	1.03
494.587	0.97
494.785	1.05
494.983	1.03
495.181	1.08
495.379	1.12
495.578	1.12
495.776	1.15
495.974	1.15
496.172	1.18
496.37	1.25
496.568	1.28
496.766	1.27
496.964	1.34
497.162	1.39
497.36	1.38
497.558	1.43
497.756	1.46
497.954	1.47
498.152	1.51
498.35	1.55
498.548	1.53
498.746	1.61
498.944	1.57
499.142	1.65
499.34	1.67
499.538	1.79
499.736	1.74
499.933	1.82
500.131	1.85
500.329	1.93
500.527	1.99
500.725	2.06
500.922	2.1
501.12	2.04
501.318	2.13
501.516	2.11
501.713	2.24
501.911	2.25
502.109	2.26
502.306	2.37
502.504	2.32
502.701	2.39
502.899	2.52
503.097	2.61
503.294	2.58
503.492	2.72
503.689	2.74
503.887	2.76
504.084	2.89
504.282	2.89
504.479	2.87
504.677	3.01
504.874	3.08
505.072	3
505.269	3.25
505.466	3.26
505.664	3.33
505.861	3.3
506.059	3.42
506.256	3.51
506.453	3.57
506.651	3.71
506.848	3.78
507.045	3.78
507.242	3.87
507.44	3.87
507.637	4.03
507.834	4.02
508.031	4.19
508.229	4.17
508.426	4.22
508.623	4.34
508.82	4.44
509.017	4.48
509.214	4.51
509.411	4.67
509.608	4.7
509.805	4.86
510.003	4.89
510.2	4.96
510.397	5.18
510.594	5.1
510.791	5.25
510.988	5.28
511.184	5.29
511.381	5.27
511.578	5.52
511.775	5.66
511.972	5.68
512.169	5.74
512.366	5.82
512.563	5.98
512.76	6.08
512.956	6.23
513.153	6.16
513.35	6.16
513.547	6.22
513.744	6.37
513.94	6.47
514.137	6.62
514.334	6.65
514.53	6.76
514.727	6.98
514.924	6.86
515.12	6.94
515.317	7.05
515.514	6.97
515.71	7.04
515.907	7.33
516.103	7.39
516.3	7.28
516.497	7.46
516.693	7.47
516.89	7.57
517.086	7.65
517.283	7.71
517.479	7.55
517.676	7.87
517.872	7.92
518.068	7.92
518.265	7.95
518.461	7.97
518.658	8.14
518.854	8.09
519.05	8.25
519.247	8.34
519.443	8.21
519.639	8.47
519.836	8.25
520.032	8.24
520.228	8.45
520.424	8.34
520.621	8.39
520.817	8.49
521.013	8.44
521.209	8.64
521.405	8.63
521.601	8.6
521.798	8.5
521.994	8.44
522.19	8.45
522.386	8.54
522.582	8.64
522.778	8.76
522.974	8.49
523.17	8.54
523.366	8.43
523.562	8.52
523.758	8.52
523.954	8.28
524.15	8.51
524.346	8.44
524.542	8.47
524.738	8.37
524.934	8.44
525.129	8.39
525.325	8.26
525.521	8.23
525.717	8.39
525.913	8.18
526.109	8.21
526.304	8.22
526.5	8.14
526.696	8.15
526.892	7.94
527.087	8.2
527.283	8.03
527.479	7.92
527.674	7.7
527.87	7.86
528.066	7.77
528.261	7.72
528.457	7.61
528.653	7.73
528.848	7.58
529.044	7.67
529.239	7.39
529.435	7.36
529.63	7.21
529.826	7.26
530.021	7.11
530.217	7.12
530.412	7.03
530.608	6.98
530.803	6.94
530.999	6.76
531.194	6.76
531.389	6.78
531.585	6.64
531.78	6.71
531.975	6.56
532.171	6.58
532.366	6.43
532.561	6.4
532.757	6.25
532.952	6.36
533.147	6.1
533.342	6.15
533.538	5.96
533.733	6.12
533.928	5.76
534.123	5.83
534.318	5.8
534.513	5.68
534.709	5.77
534.904	5.58
535.099	5.61
535.294	5.54
535.489	5.51
535.684	5.31
535.879	5.32
536.074	5.32
536.269	5.21
536.464	5.19
536.659	5.06
536.854	4.99
537.049	5.05
537.244	4.94
537.439	4.89
537.634	4.88
537.828	4.83
538.023	4.77
538.218	4.66
538.413	4.58
538.608	4.58
538.803	4.51
538.997	4.44
539.192	4.48
539.387	4.37
539.582	4.29
539.776	4.2
539.971	4.26
540.166	4.23
540.36	4.13
540.555	4.13
540.75	4.05
540.944	3.98
541.139	3.99
541.334	3.89
541.528	3.9
541.723	3.88
541.917	3.86
542.112	3.71
542.306	3.66
542.501	3.6
542.695	3.66
542.89	3.59
543.084	3.56
543.279	3.54
543.473	3.52
543.668	3.48
543.862	3.37
544.056	3.34
544.251	3.36
544.445	3.35
544.64	3.28
544.834	3.15
545.028	3.08
545.222	3.15
545.417	3.19
545.611	3.12
545.805	3.06
546	2.93
546.194	2.96
546.388	2.94
546.582	2.89
546.776	2.87
546.97	2.84
547.165	2.83
547.359	2.79
547.553	2.67
547.747	2.7
547.941	2.73
548.135	2.61
548.329	2.65
548.523	2.64
548.717	2.53
548.911	2.49
549.105	2.48
549.299	2.51
549.493	2.48
549.687	2.41
549.881	2.39
550.075	2.37
550.269	2.28
550.463	2.3
550.657	2.26
550.85	2.24
551.044	2.16
551.238	2.19
551.432	2.11
551.626	2.11
551.82	2.11
552.013	2.01
552.207	2.09
552.401	2.1
552.594	1.96
552.788	1.95
552.982	1.92
553.176	1.85
553.369	1.94
553.563	1.85
553.756	1.77
553.95	1.85
554.144	1.81
554.337	1.81
554.531	1.71
554.724	1.71
554.918	1.7
555.111	1.71
555.305	1.62
555.498	1.66
555.692	1.65
555.885	1.57
556.079	1.54
556.272	1.5
556.466	1.51
556.659	1.51
556.852	1.47
557.046	1.44
557.239	1.42
557.432	1.42
557.626	1.38
557.819	1.39
558.012	1.37
558.206	1.37
558.399	1.31
558.592	1.34
558.785	1.23
558.979	1.31
559.172	1.23
559.365	1.24
559.558	1.21
559.751	1.21
559.944	1.21
560.138	1.14
560.331	1.13
560.524	1.12
560.717	1.12
560.91	1.11
561.103	1.08
561.296	1.04
561.489	1.04
561.682	1.05
561.875	1.07
562.068	1.01
562.261	1
562.454	1.03
562.647	0.99
562.84	0.99
563.032	0.96
563.225	0.93
563.418	0.91
563.611	0.94
563.804	0.9
563.997	0.87
564.19	0.83
564.382	0.88
564.575	0.84
564.768	0.85
564.961	0.87
565.153	0.79
565.346	0.84
565.539	0.84
565.731	0.81
565.924	0.81
566.117	0.83
566.309	0.79
566.502	0.76
566.695	0.72
566.887	0.76
567.08	0.72
567.272	0.71
567.465	0.68
567.657	0.68
567.85	0.69
568.042	0.69
568.235	0.71
568.427	0.66
568.62	0.67
568.812	0.66
569.005	0.64
569.197	0.59
569.389	0.63
569.582	0.62
569.774	0.63
569.966	0.57
570.159	0.54
570.351	0.58
570.543	0.57
570.736	0.57
570.928	0.51
571.12	0.55
571.312	0.51
571.505	0.47
571.697	0.58
571.889	0.52
572.081	0.51
572.273	0.48
572.465	0.56
572.658	0.48
572.85	0.5
573.042	0.48
573.234	0.48
573.426	0.51
573.618	0.45
573.81	0.47
574.002	0.49
574.194	0.48
574.386	0.42
574.578	0.35
574.77	0.41
574.962	0.42
575.154	0.4
575.346	0.44
575.538	0.41
575.729	0.38
575.921	0.39
576.113	0.39
576.305	0.42
576.497	0.39
576.689	0.38
576.88	0.33
577.072	0.39
577.264	0.34
577.456	0.35
577.647	0.28
577.839	0.36
578.031	0.39
578.223	0.33
578.414	0.31
578.606	0.33
578.798	0.33
578.989	0.27
579.181	0.34
579.372	0.32
579.564	0.31
579.755	0.32
579.947	0.31
580.139	0.33
580.33	0.26
580.522	0.27
580.713	0.22
580.905	0.31
581.096	0.3
581.287	0.31
581.479	0.27
581.67	0.29
581.862	0.25
582.053	0.26
582.244	0.23
582.436	0.26
582.627	0.26
582.818	0.24
583.01	0.23
583.201	0.27
583.392	0.25
583.583	0.25
583.775	0.21
583.966	0.21
584.157	0.2
584.348	0.22
584.54	0.19
584.731	0.24
584.922	0.2
585.113	0.2
585.304	0.23
585.495	0.24
585.686	0.22
585.877	0.23
586.068	0.2
586.259	0.24
586.45	0.21
586.641	0.19
586.832	0.13
587.023	0.22
587.214	0.18
587.405	0.21
587.596	0.14
587.787	0.23
587.978	0.22
588.169	0.15
588.36	0.17
588.551	0.2
588.742	0.19
588.932	0.2
589.123	0.18
589.314	0.2
589.505	0.19
589.696	0.19
589.886	0.14
590.077	0.14
590.268	0.13
590.458	0.11
590.649	0.12
590.84	0.17
591.03	0.15
591.221	0.1
591.412	0.11
591.602	0.19
591.793	0.19
591.984	0.13
592.174	0.12
592.365	0.23
592.555	0.13
592.746	0.17
592.936	0.14
593.127	0.15
593.317	0.18
593.508	0.13
593.698	0.13
593.889	0.16
594.079	0.14
594.269	0.11
594.46	0.1
594.65	0.13
594.84	0.15
595.031	0.1
595.221	0.11
595.411	0.1
595.602	0.15
595.792	0.09
595.982	0.1
596.172	0.17
596.363	0.14
596.553	0.12
596.743	0.12
596.933	0.11
597.123	0.15
597.314	0.1
597.504	0.09
597.694	0.15
597.884	0.15
598.074	0.1
598.264	0.09
598.454	0.1
598.644	0.1
598.834	0.11
599.024	0.04
599.214	0.08
599.404	0.13
599.594	0.1
599.784	0.07
599.974	0.19
600.164	0.13
600.354	0.08
600.544	0.07
600.734	0.1
600.924	0.14
601.114	0.08
601.303	0.09
601.493	0.09
601.683	0.08
601.873	0.1
602.063	0.08
602.252	0.14
602.442	0.02
602.632	0.05
602.821	0.06
603.011	0.11
603.201	0.07
603.39	0.07
603.58	0.05
603.77	0.09
603.959	0.15
604.149	0.08
604.339	0.05
604.528	0.12
604.718	0.12
604.907	0.08
605.097	0.06
605.286	0.03
605.476	0.11
605.665	0.11
605.855	0.08
606.044	0.1
606.234	0.09
606.423	0.1
606.612	0.05
606.802	0.05
606.991	0.1
607.181	0.09
607.37	0.05
607.559	0.06
607.749	0.05
607.938	0.08
608.127	0.06
608.316	0.05
608.506	0.1
608.695	0.08
608.884	0.04
609.073	0.07
609.263	0.09
609.452	0.09
609.641	0.07
609.83	0.05
610.019	0.08
610.208	0.04
610.397	0.06
610.586	0.11
610.775	0.05
610.965	0.05
611.154	0.03
611.343	0.09
611.532	0.08
611.721	0.03
611.91	0.06
612.099	0.07
612.287	0.02
612.476	0.05
612.665	0.1
612.854	0.04
613.043	0.08
613.232	0.08
613.421	0.03
613.61	0.06
613.798	0.06
613.987	0.11
614.176	0.08
614.365	0.11
614.554	0.04
614.742	0.09
614.931	0.06
615.12	0.08
615.309	0.04
615.497	0.07
615.686	0.02
615.875	0.04
616.063	0.07
616.252	0.06
616.44	0.04
616.629	0.1
616.818	0.11
617.006	0.04
617.195	0.05
617.383	0.09
617.572	0.04
617.76	0.06
617.949	0.03
618.137	0.07
618.326	0.07
618.514	0.02
618.703	0.04
618.891	0.12
619.079	0.01
619.268	0.09
619.456	0.04
619.644	0.07
619.833	0.06
620.021	0.05
620.209	0
620.398	0.09
620.586	0.05
620.774	0.08
620.962	0.07
621.151	0.1
621.339	0.05
621.527	-0.01
621.715	0.01
621.903	0.01
622.092	0.01
622.28	0.05
622.468	0.05
622.656	0.07
622.844	0.09
623.032	0.04
623.22	-0.02
623.408	0.1
623.596	0.04
623.784	0.09
623.972	0.03
624.16	0.06
624.348	0.1
624.536	0.08
624.724	0.05
624.912	0.08
625.1	0.05
625.288	-0.01
625.476	0.02
625.664	0.07
625.851	0.01
626.039	0.05
626.227	0.06
626.415	0.05
626.603	0.01
626.79	0.05
626.978	0.01
627.166	0.09
627.354	0.05
627.541	0.02
627.729	0.01
627.917	0.1
628.104	0.05
628.292	0.06
628.48	0.04
628.667	0.05
628.855	0.07
629.042	0.04
629.23	0.05
629.418	0.03
629.605	0.04
629.793	0.02
629.98	0.04
630.168	0.02
630.355	0.03
630.543	0.08
630.73	0.01
630.917	0.09
631.105	0.12
631.292	0.05
631.48	0.04
631.667	0.09
631.854	0.06
632.042	0.03
632.229	-0.01
632.416	0.03
632.604	0.06
632.791	0.04
632.978	0.09
633.165	0.06
633.353	0.09
633.54	0.08
633.727	0.01
633.914	0.03
634.101	-0.03
634.289	0.09
634.476	0.02
634.663	0.03
634.85	0.06
635.037	-0.01
635.224	0.02
635.411	0.06
635.598	0.1
635.785	0.03
635.972	0.02
636.159	0.08
636.346	0.02
636.533	0.05
636.72	0.03
636.907	0.04
637.094	0.08
637.281	0.03
637.468	0.06
637.655	0
637.842	0.04
638.029	0.02
638.215	0.08
638.402	0.05
638.589	0.04
638.776	0
638.963	0.02
639.149	0.08
639.336	0.07
639.523	0.05
639.709	0.05
639.896	0.05
640.083	0.06
640.27	0.09
640.456	0.04
640.643	0.07
640.829	0
641.016	0.04
641.203	-0.02
641.389	0.04
641.576	0.07
641.762	0.03
641.949	0.01
642.135	0.07
642.322	0.03
642.508	-0.04
642.695	0.04
642.881	0.03
643.068	0.02
643.254	0.02
643.441	0.04
643.627	0.04
643.813	0
644	0.09
644.186	0.03
644.372	-0.01
644.559	0.06
644.745	0.03
644.931	0.02
645.118	0.02
645.304	0.04
645.49	0.03
645.676	0.02
645.862	0.04
646.049	0.09
646.235	0.06
646.421	0.11
646.607	0.1
646.793	0.01
646.979	0.04
647.165	0.02
647.352	0.07
647.538	0.07
647.724	0.04
647.91	0.04
648.096	0.06
648.282	0.11
648.468	0.06
648.654	-0
648.84	0.02
649.026	0.06
649.212	0.03
649.397	0
649.583	-0.03
649.769	0.06
649.955	0.04
650.141	0.06
650.327	0.09
650.513	0.01
650.698	0.08
650.884	-0.03
651.07	0.05
651.256	0.05
651.442	0.04
651.627	0.04
651.813	0.06
651.999	0.07
652.184	0.04
652.37	0.01
652.556	0.03
652.741	0.1
652.927	0
653.113	0.06
653.298	0.05
653.484	0.02
653.669	0
653.855	0.06
654.04	0.04
654.226	0.03
654.412	0.01
654.597	-0.02
654.782	0.04
654.968	0.1
655.153	0.07
655.339	0.03
655.524	-0
655.71	0.07
655.895	-0
656.08	0.02
656.266	0.05
656.451	0.02
656.636	-0.03
656.822	0
657.007	-0.01
657.192	0.01
657.378	-0.01
657.563	0.02
657.748	0.08
657.933	0.03
658.118	0.01
658.304	0.04
658.489	0.07
658.674	0.06
658.859	0.01
659.044	0.05
659.229	0.1
659.414	-0.01
659.599	0.03
659.785	-0.02
659.97	0.01
660.155	0.06
660.34	0.06
660.525	0.04
660.71	0.02
660.895	0.09
661.08	0.01
661.264	0.03
661.449	0.08
661.634	0.12
661.819	0.03
662.004	0.07
662.189	-0.02
662.374	0
662.559	-0.01
662.743	0.02
662.928	0.04
663.113	0
663.298	-0.02
663.483	0.05
663.667	0.03
663.852	0.02
664.037	0.07
664.221	0
664.406	0.07
664.591	0.09
664.775	0.1
664.96	0.06
665.145	0.02
665.329	0.07
665.514	0.03
665.698	0.04
665.883	-0.01
666.068	0.08
666.252	0.02
666.437	0.04
666.621	0.07
666.806	0.06
666.99	0.03
667.174	0.02
667.359	0.12
667.543	0.03
667.728	0.01
667.912	0.01
668.096	0.07
668.281	0.05
668.465	0.06
668.649	0.04
668.834	0.03
669.018	0.03
669.202	0.02
669.387	0.02
669.571	0.1
669.755	0.05
669.939	0.05
670.124	0.04
670.308	0.1
670.492	0.08
670.676	0.04
670.86	0.05
671.044	0.04
671.228	0.07
671.413	0.04
671.597	0.02
671.781	0.02
671.965	0.06
672.149	0.09
672.333	0.04
672.517	0.02
672.701	0.09
672.885	0.03
673.069	0
673.253	0.06
673.437	0.03
673.621	0.03
673.804	0.03
673.988	0.04
674.172	0.04
674.356	-0
674.54	0.03
674.724	0.14
674.908	0.05
675.091	0.1
675.275	0.07
675.459	0.09
675.643	0.11
675.826	0.07
676.01	0.09
676.194	0.06
676.377	0.11
676.561	0.09
676.745	0.05
676.928	0.08
677.112	0.1
677.296	-0.01
677.479	-0
677.663	0.05
677.846	0.09
678.03	0.06
678.213	0
678.397	0.05
678.58	0.05
678.764	0.03
678.947	0.03
679.131	0.05
679.314	0.12
679.498	0.04
679.681	0.07
679.865	0.11
680.048	0.1
680.231	0.05
680.415	0.04
680.598	0.06
680.781	0.05
680.965	0.07
681.148	0.08
681.331	0.05
681.514	0.07
681.698	0.05
681.881	0.08
682.064	0.05
682.247	0.07
682.43	0
682.614	0.1
682.797	0.1
682.98	0.04
683.163	0
683.346	0.05
683.529	0.05
683.712	-0
683.895	0.1
684.078	-0
684.261	0.03
684.444	0.08
684.627	0.09
684.81	0.01
684.993	0.02
685.176	0.07
685.359	-0.01
685.542	0.04
685.725	0.07
685.908	0.04
686.091	0.06
686.274	0.1
686.457	0.08
686.639	0.05
686.822	0.06
687.005	0.04
687.188	0.09
687.371	0.14
687.553	0.05
687.736	0.06
687.919	0.12
688.102	0.11
688.284	0.05
688.467	0.05
688.65	-0
688.832	0.03
689.015	0.04
689.197	0
689.38	0.15
689.563	0.09
689.745	0.01
689.928	0.01
690.11	0.05
690.293	0.12
690.475	0.01
690.658	0.03
690.84	0.04
691.023	0.01
691.205	0.04
691.388	0.06
691.57	0.09
691.752	0.08
691.935	-0.03
692.117	0.02
692.3	0.07
692.482	0.04
692.664	0.06
692.847	0.04
693.029	0.09
693.211	0.02
693.393	0.07
693.576	-0
693.758	0.07
693.94	0.05
694.122	0.04
694.304	0
694.487	0.04
694.669	0.17
694.851	-0.02
695.033	0.02
695.215	0.04
695.397	-0.06
695.579	0.12
695.761	0.04
695.943	-0.01
696.125	0.11
696.308	0.11
696.49	-0.05
696.671	0.17
696.853	0.02
697.035	0.17
697.217	0.06
697.399	0.09
697.581	0.07
697.763	0.01
697.945	0.06
698.127	0.03
698.309	0.11
698.491	0.05
698.672	0.07
698.854	0.1
699.036	0.14
699.218	-0
699.399	0.1
699.581	0.09
699.763	0.09
699.945	-0.05
700.126	-0.04
700.308	0
700.49	0.08
700.671	-0.05
700.853	0.06
701.035	0.09
701.216	0.01
701.398	0.01
701.579	0.04
701.761	0.13
701.943	0
702.124	0.04
702.306	0.05
702.487	0.12
702.669	0.03
702.85	0.02
703.031	0.01
703.213	0.19
703.394	0.11
703.576	0.02
703.757	0.1
703.938	0.08
704.12	0.21
704.301	0.04
704.483	0.04
704.664	0.02
704.845	0.19
705.026	0.16
705.208	0.03
705.389	0.04
705.57	0.03
705.751	-0.01
705.933	0.06
706.114	0.09
706.295	0.06
706.476	-0.06
706.657	0.1
706.838	0.14
707.02	0.11
707.201	0.11
707.382	0.03
707.563	0.05
707.744	0.06
707.925	-0
708.106	-0.05
708.287	0.1
708.468	0.15
708.649	-0.01
708.83	0.07
709.011	0.04
709.192	0.17
709.373	-0.04
709.554	0.02
709.734	0.09
709.915	0.06
710.096	0.04
710.277	-0.03
710.458	0.06
710.639	0.06
710.819	-0.02
711	0.04
711.181	0.1
711.362	0.11
711.542	0.06
711.723	0.05
711.904	0.1
712.085	0.09
712.265	0.09
712.446	0.03
712.627	-0.02
712.807	0.09
712.988	0.06
713.168	-0.03
713.349	0.08
713.53	-0.07
713.71	0
713.891	0.01
714.071	0.13
714.252	0.06
714.432	-0.04
714.613	-0.03
714.793	0.04
714.974	0.14
715.154	0.06
715.334	0.11
715.515	0.16
715.695	-0.03
715.876	0.08
716.056	0.05
716.236	0.01
716.417	0.03
716.597	0.01
716.777	0.18
716.957	0.1
717.138	0.08
717.318	0.02
717.498	0.01
717.678	0.06
717.859	0.06
718.039	0
718.219	0.07
718.399	0.09
718.579	-0.01
718.759	-0.03
718.939	0.17
719.12	-0.03
719.3	0.05
719.48	-0.12
719.66	-0.1
719.84	0.2
720.02	0.06
720.2	-0.01
720.38	0.07
720.56	0.15
720.74	-0.02
720.92	0.06
721.1	0.06
721.279	0.13
721.459	0.03
721.639	-0.04
721.819	0.09
721.999	0.06
722.179	0.09
722.359	-0.03
722.538	0.05
722.718	0.06
722.898	0.02
723.078	0.04
723.257	0.04
723.437	0.03
723.617	0.04
723.797	0.07
723.976	0.06
724.156	0.16
724.336	0.15
724.515	0.12
724.695	-0.02
724.874	0.08
725.054	0.1
725.234	-0.05
725.413	0.11
725.593	-0.01
725.772	0.08
725.952	0.04
726.131	0.02
726.311	0.03
726.49	0.02
726.67	0.01
726.849	0.03
727.028	0.14
727.208	0.03
727.387	0.09
727.567	-0.02
727.746	0.09
727.925	-0.08
728.105	-0.12
728.284	-0
728.463	-0.03
728.643	0.03
728.822	-0.02
729.001	-0.03
729.18	0.08
729.359	0.07
729.539	0.02
729.718	0.07
729.897	0.12
730.076	0.08
730.255	-0.13
730.434	0.03
730.614	0.03
730.793	0.12
730.972	0.13
731.151	-0.05
731.33	0.26
731.509	0.11
731.688	0.1
731.867	0.01
732.046	-0.1
732.225	0.21
732.404	0.02
732.583	-0
732.762	0.06
732.941	0.13
733.12	0.05
733.298	0.03
733.477	0.12
733.656	0.07
733.835	-0.02
734.014	0.04
734.193	0.04
734.371	0.05
734.55	0.05
734.729	-0.09
734.908	0.14
735.086	0.06
735.265	0.08
735.444	-0.08
735.623	-0.04
735.801	-0
735.98	0.03
736.159	0.04
736.337	0.13
736.516	0.1
736.694	0.1
736.873	0.09
737.052	0.11
737.23	0.27
737.409	-0.02
737.587	0.24
737.766	-0.14
737.944	-0.07
738.123	0.1
738.301	0.15
738.479	0.1
738.658	0.15
738.836	0.03
739.015	0.06
739.193	0.17
739.371	-0.04
739.55	0.14
739.728	-0.09
739.906	0.12
740.085	0.17
740.263	-0.01
740.441	-0.02
740.62	0.2
740.798	0.04
740.976	-0.12
741.154	-0.01
741.332	0.33
741.511	0.12
741.689	0.11
741.867	0.18
742.045	0.09
742.223	0.01
742.401	-0.08
742.579	-0.12
742.757	0.07
742.935	-0.04
743.114	-0
743.292	-0.07
743.47	0.08
743.648	-0.02
743.826	0.05
744.004	0.1
744.181	0.13
744.359	-0.03
744.537	-0
744.715	0.02
744.893	0.01
745.071	0.02
745.249	0.04
745.427	0.1
745.605	0.14
745.782	0.04
745.96	0.19
746.138	0.13
746.316	0.11
746.493	0.12
746.671	0.06
746.849	0.11
747.027	0.2
747.204	0.01
747.382	0.12
747.56	-0.11
747.737	0.07
747.915	-0.04
748.093	0.08
748.27	-0.05
748.448	0.09
748.625	-0.12
748.803	0.01
748.98	0.02
749.158	0.12
749.335	0.14
749.513	0.04
749.69	0.04
749.868	-0.07
750.045	0.12
750.223	0.04
750.4	-0.13
750.578	0.16
750.755	0.07
750.932	-0.04
751.11	0.09
751.287	-0.03
751.464	0.21
751.642	-0.03
751.819	0.07
751.996	0.13
752.173	-0.02
752.351	-0.05
752.528	0.15
752.705	0.04
752.882	-0.02
753.06	0.01
753.237	0.13
753.414	0.2
753.591	0.14
753.768	-0.01
753.945	-0.05
754.122	-0.04
754.299	0.13
754.476	-0.01
754.654	0.12
754.831	0.06
755.008	0.19
755.185	0.03
755.362	-0.14
755.539	0.04
755.716	-0.07
755.892	0.02
756.069	0.04
756.246	-0.01
756.423	0.02
756.6	0.31
756.777	0.2
756.954	0.01
757.131	0.08
757.307	-0.01
757.484	-0.01
757.661	-0
757.838	0.01
758.015	0.01
758.191	0.12
758.368	0.04
758.545	0.22
758.721	0.09
758.898	-0.1
759.075	0.21
759.251	0.25
759.428	0.09
759.605	-0.01
759.781	0.02
759.958	0.11
760.134	0.09
760.311	0.04
760.488	0.26
760.664	0.11
760.841	0.03
761.017	-0.08
761.194	0.1
761.37	0.18
761.547	0.03
761.723	0.07
761.899	0.16
762.076	0.05
762.252	-0.08
762.429	-0.02
762.605	0.01
762.781	0
762.958	0.12
763.134	-0.01
763.31	-0.06
763.486	0.29
763.663	-0.11
763.839	0.11
764.015	-0.13
764.191	-0.07
764.368	-0.05
764.544	-0.01
764.72	0.03
764.896	0.09
765.072	0.04
765.248	-0.01
765.425	-0.08
765.601	0.03
765.777	0.05
765.953	-0.13
766.129	0.13
766.305	-0.07
766.481	0.14
766.657	0.03
766.833	0.22
767.009	-0.08
767.185	-0.01
767.361	0.13
767.537	-0.04
767.713	0.15
767.889	-0
768.065	0.1
768.24	-0.15
768.416	0.11
768.592	0.03
768.768	0.08
768.944	0.18
769.12	-0.12
769.295	-0.05
769.471	0.17
769.647	0.09
769.823	0.11
769.998	0.07
770.174	0.02
770.35	0.22
770.525	0.27
770.701	0.18
770.877	0.07
771.052	0.01
771.228	0.11
771.403	0.08
771.579	0.12
771.755	0.21
771.93	-0.01
772.106	-0
772.281	-0.1
772.457	0.04
772.632	0.17
772.808	-0.05
772.983	0.03
773.159	-0.09
773.334	0.09
773.509	0.08
773.685	-0.06
773.86	0.47
774.036	0.21
774.211	0.06
774.386	-0.09
774.562	-0.05
774.737	0.22
774.912	-0.01
775.087	0.23
775.263	0.14
775.438	0.12
775.613	0.01
775.788	-0.07
775.964	0.12
776.139	0.29
776.314	-0.09
776.489	0.02
776.664	0.04
776.839	0.08
777.014	0.33
777.19	0.27
777.365	0.09
777.54	0.23
777.715	-0.05
777.89	0.03
778.065	-0.1
778.24	0.08
778.415	0.18
778.59	-0.09
778.765	0.07
778.94	0.07
779.115	-0.09
779.289	-0.05
779.464	0.05
779.639	0.1
779.814	-0.16
779.989	-0.1
780.164	0.25
780.339	0.15
780.513	-0.09
780.688	-0.23
780.863	0.07
781.038	0.04
781.212	-0.1
781.387	0.06
781.562	0.3
781.737	-0.04
781.911	0.17
782.086	-0.08
782.261	0.1
782.435	0.29
782.61	0.02
782.784	0.17
782.959	0.42
783.134	-0.06
783.308	-0.2
783.483	0.11
783.657	0.28
783.832	0.17
784.006	-0.2
784.181	0.1
784.355	0.16
784.53	-0.11
784.704	-0.1
784.878	0.3
785.053	-0.03
785.227	0.29
785.402	0.41
785.576	-0.12
785.75	0.21
785.925	-0.01
786.099	0.23
786.273	0.27
786.448	0.12
786.622	0.33
786.796	0.18
786.97	0.06
787.145	0.34
787.319	-0.57
787.493	-0.11
787.667	-0.25
787.841	-0.02
788.015	0.31
788.19	0.05
788.364	0.16
788.538	0.36
788.712	0.31
788.886	0.03
789.06	0.15
789.234	0.16
789.408	-0.18
789.582	-0.1
789.756	-0.23
789.93	0.08
790.104	0.07
790.278	0.03
790.452	-0.01
790.626	0.27
790.8	-0.05
790.973	0.36
791.147	0.32
791.321	0.38
791.495	0.2
791.669	0.01
791.843	0.15
792.016	0.18
792.19	0.39
792.364	-0.05
792.538	0.64
792.711	0.39
792.885	0.02
793.059	-0.13
793.233	-0.36
793.406	0.29
793.58	0.12
793.754	0.09
793.927	0.1
794.101	0.37
794.274	0.04
794.448	0.48
794.622	-0.25
794.795	0.37
794.969	0.08
795.142	0.33
795.316	-0.12
795.489	-0.1
795.663	0.52
795.836	-0.08
796.009	-0.25
796.183	0.49
796.356	0.27
796.53	0.04
796.703	0.09
796.876	0.36
797.05	-0.27
797.223	-0.03
797.396	0.15
797.57	0.05
797.743	0.2
797.916	0.25
798.09	-0.14
798.263	0.26
798.436	0.27
798.609	-0.19
798.782	0.05
798.956	0.02
799.129	0.33
799.302	0.01
799.475	-0.08
799.648	-0.26
799.821	-0.11
799.994	0.1
800.167	-0.22
800.34	0.3
800.514	0.09
800.687	-0.1
800.86	-0.03
801.033	0.04
801.206	-0.09
801.379	-0.36
801.551	0.4
801.724	0.28
801.897	0.61
802.07	-0.17
802.243	-0.36
802.416	-0.14
802.589	0.08
802.762	0.26
802.935	-0.07
803.107	0.56
803.28	0.43
803.453	0.14
803.626	-0.2
803.798	-0.03
803.971	-0.32
804.144	0.07
804.317	0.42
804.489	0.3
804.662	-0.08
804.835	-0.04
805.007	-0.29
805.18	0.6
805.353	0.32
805.525	-0.18
805.698	-0.06
805.87	0.63
806.043	0.29
806.215	-0.03
806.388	-0.14
806.56	0.23
806.733	0.46
806.905	0.08
807.078	0.03
807.25	0.1
807.423	0.06
807.595	-0.05
807.768	0.1
807.94	0.47
808.112	0.2
808.285	0.45
808.457	-0.11
808.629	-0.19
808.802	-0.03
808.974	0.12
809.146	-0.11
809.318	-0.27
809.491	0.39
809.663	0.39
809.835	0.1
810.007	0.11
810.18	-0
810.352	-0.46
810.524	0.22
810.696	0.24
810.868	0.4
811.04	0.05
811.212	-0.29
811.384	0.38
811.556	0.11
811.728	0.03
811.901	0.67
812.073	0.07
812.245	0.42
812.417	0.16
812.589	-0.3
812.76	-0.06
812.932	0.41
813.104	0.85
813.276	0.01
813.448	0.45
813.62	0.12
813.792	0.06
813.964	0.09
814.136	0.44
814.307	0.22
814.479	-0.23
814.651	-0.34
814.823	0.88
814.995	0.23
815.166	0.62
815.338	-0.39
815.51	-0.58
815.681	1.02
815.853	0.74
816.025	-0.24
816.196	0.82
816.368	0.42
816.54	-1.11
816.711	-0.45
816.883	0.44
817.054	1.12
817.226	-0.36
817.398	0.34
817.569	-0.28
817.741	0.47
817.912	0.17
818.084	-0
818.255	0.17
818.426	-0.3
818.598	0.25
818.769	0.04
818.941	-0.12
819.112	0.51
819.283	0.6
819.455	-0.42
819.626	0.15
819.798	0.04
819.969	0.07
820.14	-0.28
820.311	-0.06
820.483	0.2
820.654	0.61
820.825	0.18
820.996	-0.23
821.168	-0.16
821.339	-0.09
821.51	-0.31
821.681	-0.44
821.852	0.3
822.023	-0.32
822.195	-0.56
822.366	0.22
822.537	0.37
822.708	0.44
822.879	-0.06
823.05	0.47
823.221	-0.06
823.392	0.59
823.563	0.05
823.734	0.35
823.905	0.47
824.076	-0.18
824.247	-0.27
824.418	-0.13
824.589	0.61
824.759	0.13
824.93	0.23
825.101	-0.35
825.272	1.09
825.443	0.65
825.614	0.55
825.784	-0.82
825.955	1.14
826.126	0.73
826.297	0.13
826.467	0.79
826.638	1.48
826.809	-0.95
826.98	0.13
827.15	0.34
827.321	0.02
827.492	0.8
827.662	-0.11
827.833	1.14
828.003	0.49
828.174	-0.13
828.345	-0.76
828.515	0.48
828.686	0.75
828.856	-0.16
829.027	0.08
829.197	0.42
829.368	0.47
829.538	0.41
829.709	-0.05
829.879	0.64
830.049	0.03
830.22	-0.29
830.39	-0.1
830.56	0.36
830.731	-0.36
830.901	-0.17
831.072	-0.07
831.242	1.01
831.412	0.01
831.582	-0.08
831.753	-0.41
831.923	0.73
832.093	0.47
832.263	-0.05
832.434	-0.06
832.604	0.19
832.774	0.58
832.944	-0.24
833.114	-0.09
833.284	0.64
833.454	-0.49
833.624	-0.14
833.795	-0.02
833.965	0.46
834.135	0.91
834.305	-0.75
834.475	-0.17
834.645	0.37
834.815	-0.21
834.985	-0.59
835.155	-0.2
835.325	0.56
835.494	0.21
835.664	0.15
835.834	-0.85
836.004	0.49
836.174	0.46
836.344	-0.28
836.514	-1.31
836.684	0.44
836.853	0.44
837.023	-0.02
837.193	-0.34
837.363	0.18
837.532	0.57
837.702	0.25
837.872	-0.48
838.041	0.73
838.211	2.01
838.381	-0.59
838.55	0.4
838.72	2.06
838.89	1.64
839.059	0.09
839.229	-0
839.398	1.49
839.568	0.41
839.738	-0.28
839.907	0.91
840.077	0.85
840.246	-0.46
840.416	-0.8
840.585	-0.06
840.755	0.9
840.924	1.06
841.093	0.25
841.263	0.35
841.432	0.69
841.602	-0.82
841.771	0.17
841.94	0.57
842.11	1.95
842.279	1.71
842.448	0.15
842.617	-0.42
842.787	1.02
842.956	-0.6
843.125	-0.58
843.294	-0.25
843.464	1.38
843.633	-0.51
843.802	-0.57
843.971	-0.39
844.14	0.27
844.309	1.13
844.479	-0.27
844.648	-0.69
844.817	-0
844.986	0.17
845.155	-0.15
845.324	-0.31
845.493	0.05
845.662	-1
845.831	0.62
846	0.3
846.169	0.29
846.338	1.77
846.507	1.06
846.676	0.04
846.844	-0.73
847.013	0.69
847.182	0.68
847.351	-0.16
847.52	-0.45
847.689	0.69
847.858	0.08
848.026	-0.23
848.195	0.71
848.364	-0.25
848.533	0.03
848.701	-1
848.87	0.08
849.039	1.38
849.207	1.38
849.376	0.48
849.545	1.27
849.713	-0.15
849.882	0.22
850.051	0.85
850.219	0.24
850.388	0.51
850.556	-0.52
850.725	-0.78
850.893	0.5
851.062	0.6
851.23	-0.06
851.399	-1.3
851.567	-0.07
851.736	-0.96
851.904	-1.22
852.073	0.28
852.241	0.59
852.41	0.66
852.578	-0.24
852.746	-0.19
852.915	1.22
853.083	-0.13
853.251	-0.69
853.42	-1.02
853.588	-0.58
853.756	1.51
853.924	0.74
854.093	0.1
854.261	0.04
854.429	-1.43
854.597	-0.35
854.765	-0.57
854.934	1.23
855.102	1.84
855.27	-0.12
855.438	1.66
855.606	1.12
855.774	0.79
855.942	-1.76
856.11	-0.73
856.278	0.12
856.446	1.01
856.614	0.23
856.782	-0.07
856.95	1.63
857.118	0.74
857.286	0.79
857.454	-0.47
857.622	1.25
857.79	1.19
857.958	-1.37
858.126	-0.02
858.294	-1.37
858.462	-0.28
858.629	0.5
858.797	-0.37
858.965	-0.22
859.133	0.29
859.301	-0.17
859.468	1.19
859.636	-0.31
859.804	2.03
859.971	1.86
860.139	0.11
860.307	1.01
860.474	-0.15
860.642	-0.41
860.81	0.38
860.977	0.11
861.145	1.47
861.313	0.57
861.48	0.82
861.648	2.38
861.815	0.66
861.983	-1.01
862.15	0.13
862.318	1.1
862.485	0.04
862.653	0.1
862.82	-1.83
862.988	3.28
863.155	1.26
863.322	-1.56
863.49	-1.2
863.657	-0.07
863.824	1.76
863.992	0.63
864.159	-0.32
864.326	1.95
864.494	-0.1
864.661	3.73
864.828	-0.64
864.996	1.06
865.163	2.62
865.33	-0.7
865.497	-2.42
865.664	-0.96
865.832	-0.48
865.999	0.86
866.166	-1.45
866.333	-1.15
866.5	0.3
866.667	0.29
866.834	0.19
867.001	1.91
867.168	-1.21
867.335	0.74
867.502	-1.56
867.669	0.95
867.836	2.27
868.003	0.59
868.17	1.93
868.337	-1.02
868.504	2.5
868.671	-0.85
868.838	-0.17
869.005	0.96
869.172	0.47
869.339	-0
869.505	-0.65
869.672	1.47
869.839	1.57
870.006	-0.55
870.173	-2.43
870.339	1.14
870.506	1.18
870.673	-0.77
870.84	2.1
871.006	0.82
871.173	1.12
871.34	0.48
871.506	0.1
871.673	0.62
871.839	-1.94
872.006	-0.07
872.173	-1.07
872.339	-0.02
872.506	1.82
872.672	-0.12
872.839	-1.75
873.005	0.43
873.172	2.63
873.338	2.7
873.505	-1.46
873.671	-1.33
873.838	1.22
874.004	-0.87
874.171	0.87
874.337	0.72
874.503	0.65
874.67	0.65
874.836	-0.72
875.002	2.97
875.169	1.37
875.335	0.16
875.501	-0.6
875.668	1.07
875.834	0.46
876	-1.12
876.166	2.13
876.332	2.35
876.499	1.46
876.665	-1.43
876.831	2.23
876.997	3.77
877.163	0.62
877.329	-1.17
877.495	0.57
877.662	1.96
877.828	0.35
877.994	-0.68
878.16	-0.89
878.326	-0.59
878.492	0.72
878.658	-1.69
878.824	1.23
878.99	1
879.156	1.21
879.322	1.25
879.487	0.34
879.653	2.95
879.819	-0.17
879.985	-2.42
880.151	-0.39
880.317	1.59
880.483	1.31
880.648	1.98
880.814	-2.54
880.98	0.99
881.146	-2.36
881.312	0.15
881.477	0.04
881.643	-0.13
881.809	3.73
881.974	0.6
882.14	-0.58
882.306	0.64
882.471	2.24
882.637	-1.99
882.803	1.7
882.968	1.76
883.134	2.56
883.299	-0.26
883.465	0.39
883.63	1.44
883.796	0.82
883.961	-0.02
884.127	-0.13
884.292	-2.23
884.458	-2.25
884.623	-2.25
