Data from Apollo_Calib_20240827__AbsoluteIrradiance__445__06-34-00-547.txt Node

Date: Wed Aug 28 06:34:00 BST 2024
User: biology
Spectrometer: FLMT08252
Trigger mode: 0
Integration Time (sec): 5.000000E-1
Scans to average: 5
Electric dark correction enabled: true
Nonlinearity correction enabled: false
Boxcar width: 0
XAxis mode: Wavelengths
Number of Pixels in Spectrum: 3648
>>>>>Begin Spectral Data<<<<<
179.588	-0
179.809	-0
180.03	-0
180.251	-0
180.473	-0
180.694	0
180.915	0
181.136	-0
181.357	0
181.578	-0
181.799	0
182.02	-0
182.241	-0
182.462	-0
182.683	0
182.904	-0
183.125	0
183.346	-0
183.567	0
183.788	0
184.009	0
184.23	0
184.451	0
184.672	0
184.892	0
185.113	0
185.334	0
185.555	0
185.776	0
185.996	0
186.217	0
186.438	0
186.659	0
186.879	0
187.1	0
187.321	-0
187.541	0
187.762	0
187.983	0
188.203	0
188.424	0
188.644	0
188.865	0
189.086	0
189.306	0
189.527	0
189.747	0
189.968	0
190.188	0
190.409	0
190.629	0
190.849	0
191.07	0
191.29	0
191.511	0
191.731	0
191.951	0
192.172	0
192.392	0
192.612	0
192.833	0
193.053	0
193.273	0
193.493	0
193.714	0
193.934	0
194.154	0
194.374	0
194.594	0
194.815	0
195.035	0
195.255	0
195.475	0
195.695	0
195.915	0
196.135	0
196.355	0
196.575	0
196.795	0
197.015	0
197.235	0
197.455	0
197.675	0
197.895	0
198.115	0
198.335	0
198.555	0
198.775	0
198.995	0
199.214	0
199.434	0
199.654	0
199.874	0
200.094	-0.63
200.313	1.28
200.533	0.82
200.753	0.67
200.973	1.84
201.192	1.31
201.412	0.11
201.632	0.81
201.851	1.82
202.071	0.79
202.291	0.9
202.51	0.07
202.73	1.47
202.95	0.63
203.169	0.39
203.389	1.14
203.608	0.87
203.828	0
204.047	0.76
204.267	1.37
204.486	0.99
204.706	0.76
204.925	0.43
205.145	0.65
205.364	1.25
205.583	1.37
205.803	0.57
206.022	0.35
206.242	0.63
206.461	0.87
206.68	0.39
206.9	1.02
207.119	0.89
207.338	1.31
207.557	0.72
207.777	0.53
207.996	0.63
208.215	1.36
208.434	0.5
208.654	0.05
208.873	0.54
209.092	1.19
209.311	0.32
209.53	0.59
209.749	0.32
209.968	0.39
210.187	0.38
210.407	-0
210.626	0.3
210.845	0.69
211.064	0.26
211.283	0.38
211.502	0.64
211.721	0.6
211.94	0.43
212.159	0.48
212.377	0.84
212.596	1.04
212.815	0.48
213.034	0.64
213.253	0.83
213.472	0.49
213.691	0.19
213.91	0.13
214.128	0.27
214.347	0.96
214.566	0.01
214.785	0.11
215.003	0.7
215.222	0.45
215.441	0.42
215.66	0.12
215.878	0.22
216.097	0.53
216.316	0.21
216.534	0.08
216.753	0.55
216.972	0.36
217.19	0.35
217.409	0.17
217.627	0.17
217.846	0.26
218.064	0.54
218.283	0.33
218.501	0.78
218.72	0.66
218.938	0.2
219.157	0.14
219.375	0.47
219.594	0.59
219.812	0.28
220.031	0.34
220.249	0.76
220.467	0.75
220.686	0.26
220.904	0.22
221.122	0.23
221.341	0.64
221.559	0.37
221.777	-0.01
221.995	0.31
222.214	0.36
222.432	0.3
222.65	0.51
222.868	0.24
223.086	0.3
223.305	0.43
223.523	0.31
223.741	0.59
223.959	0.15
224.177	0.18
224.395	0.17
224.613	0.4
224.831	0.55
225.049	0.2
225.267	0.28
225.485	0.33
225.703	0.27
225.921	0.27
226.139	0.29
226.357	0.35
226.575	0.32
226.793	0.21
227.011	0.96
227.229	0.34
227.447	0.37
227.665	0.16
227.883	0.07
228.1	0.24
228.318	0.28
228.536	0.04
228.754	0
228.972	0.17
229.189	0.49
229.407	0.19
229.625	0.18
229.843	0.51
230.06	0.27
230.278	0.15
230.496	0.28
230.713	0.39
230.931	0.27
231.149	0.09
231.366	0.03
231.584	0.22
231.801	0.51
232.019	0.25
232.236	0.1
232.454	0.11
232.671	0.34
232.889	0.08
233.106	0.14
233.324	0.22
233.541	0.32
233.759	0.32
233.976	0.12
234.194	0.3
234.411	0.23
234.628	0.17
234.846	0.16
235.063	0.22
235.28	0.28
235.498	0.22
235.715	0.14
235.932	0.4
236.149	0.24
236.367	0.21
236.584	0.27
236.801	0.21
237.018	0.32
237.236	0.22
237.453	0.06
237.67	0.41
237.887	0.24
238.104	0.18
238.321	0.13
238.538	0.16
238.755	0.37
238.973	0.06
239.19	0.19
239.407	0.36
239.624	0.21
239.841	0.11
240.058	0.18
240.275	0.28
240.492	0.12
240.709	0.18
240.925	0.17
241.142	0.14
241.359	0.13
241.576	0.2
241.793	0.15
242.01	0.22
242.227	0.23
242.444	0.21
242.66	0.22
242.877	0.17
243.094	0.19
243.311	0.26
243.527	0.19
243.744	0.18
243.961	0.33
244.178	0.09
244.394	0.08
244.611	0.33
244.828	0.32
245.044	0.11
245.261	0.08
245.477	0.14
245.694	0.3
245.911	0.17
246.127	0.25
246.344	0.33
246.56	0.24
246.777	0.2
246.993	0.13
247.21	0.24
247.426	0.29
247.643	0.13
247.859	0.09
248.076	0.12
248.292	0.4
248.508	0.08
248.725	0.17
248.941	0.27
249.157	0.32
249.374	0.11
249.59	0.2
249.806	0.22
250.023	0.24
250.239	0.14
250.455	0.11
250.671	0.15
250.888	0.21
251.104	0.26
251.32	0.11
251.536	0.12
251.752	0.16
251.969	0.1
252.185	0.16
252.401	0.37
252.617	0.17
252.833	0.18
253.049	0.16
253.265	0.14
253.481	0.2
253.697	0.16
253.913	0.12
254.129	0.24
254.345	0.2
254.561	0.1
254.777	0.14
254.993	0.3
255.209	0.16
255.425	0.19
255.641	0.08
255.857	0.16
256.073	0.13
256.288	0.01
256.504	0.1
256.72	0.15
256.936	0.27
257.152	0.15
257.367	0.11
257.583	0.2
257.799	0.23
258.015	0.13
258.23	0.14
258.446	0.28
258.662	0.16
258.877	0.11
259.093	0.09
259.309	0.12
259.524	0.16
259.74	0.08
259.955	0.11
260.171	0.19
260.387	0.13
260.602	0.18
260.818	0.2
261.033	0.04
261.249	0.08
261.464	0.08
261.68	0.02
261.895	0.15
262.11	0.21
262.326	0.13
262.541	0.1
262.757	0.29
262.972	0.25
263.187	0.21
263.403	0.18
263.618	0.21
263.833	0.13
264.049	0.08
264.264	0.16
264.479	0.26
264.694	0.29
264.91	0.03
265.125	0.08
265.34	0.21
265.555	0.36
265.77	0.18
265.986	0.11
266.201	0.22
266.416	0.2
266.631	0.14
266.846	0.17
267.061	0.1
267.276	0.17
267.491	0.07
267.706	0.24
267.921	0.18
268.136	0.14
268.351	0.11
268.566	0.07
268.781	0.27
268.996	0.18
269.211	0.21
269.426	0.16
269.641	0.08
269.856	0.19
270.071	0.08
270.285	-0
270.5	0.2
270.715	0.29
270.93	0.12
271.145	0.11
271.359	0.25
271.574	0.13
271.789	0.11
272.004	0.08
272.218	0.06
272.433	0.22
272.648	0.09
272.862	0.21
273.077	0.18
273.292	0.14
273.506	0.07
273.721	0.02
273.936	0.16
274.15	0.18
274.365	0.1
274.579	0.23
274.794	0.23
275.008	0.19
275.223	0.03
275.437	0.18
275.652	0.21
275.866	0.15
276.081	0.09
276.295	0.2
276.509	0.14
276.724	0.19
276.938	0.13
277.153	0.15
277.367	0.14
277.581	0.09
277.796	0.07
278.01	0.1
278.224	0.13
278.438	0.24
278.653	0.06
278.867	0.12
279.081	-0.06
279.295	0.07
279.51	0.11
279.724	0.02
279.938	0.17
280.152	0.12
280.366	0.08
280.58	0.14
280.794	0.17
281.008	0.15
281.222	0.18
281.437	0.29
281.651	0.16
281.865	0.22
282.079	0.14
282.293	0.04
282.507	0.1
282.721	0.12
282.935	0.14
283.148	0.07
283.362	0.09
283.576	0.07
283.79	0.1
284.004	0.09
284.218	0.19
284.432	0.09
284.646	0.13
284.859	0.15
285.073	0.1
285.287	0.11
285.501	0.12
285.714	0.1
285.928	0.15
286.142	0.17
286.356	0.11
286.569	0.12
286.783	0.19
286.997	0.12
287.21	0.11
287.424	0.12
287.637	0.12
287.851	0.11
288.065	0.14
288.278	0.1
288.492	0.12
288.705	0.08
288.919	0.13
289.132	0.06
289.346	0.17
289.559	0.05
289.773	0.06
289.986	0.06
290.2	0.11
290.413	0.15
290.626	0.1
290.84	0.07
291.053	0.12
291.267	0.17
291.48	0.08
291.693	0.15
291.906	0.1
292.12	0.09
292.333	0.11
292.546	0.14
292.76	0.19
292.973	0.14
293.186	0.12
293.399	0.06
293.612	0.16
293.826	0.12
294.039	0.08
294.252	0.1
294.465	0.18
294.678	0.14
294.891	0.1
295.104	0.07
295.317	0.08
295.53	0.12
295.743	0.13
295.956	0.11
296.169	0.22
296.382	0.16
296.595	0.13
296.808	0.1
297.021	0.18
297.234	0.14
297.447	0.1
297.66	0.15
297.873	0.16
298.086	0.13
298.299	0.11
298.511	0.06
298.724	0.12
298.937	0.05
299.15	0.12
299.363	0.11
299.575	0.13
299.788	0.17
300.001	0.11
300.213	0.06
300.426	0.13
300.639	0.05
300.852	0.08
301.064	0.16
301.277	0.18
301.489	0.15
301.702	0.12
301.915	0.09
302.127	0.1
302.34	0.12
302.552	0.11
302.765	0.07
302.977	0.14
303.19	0.07
303.402	0.08
303.615	0.1
303.827	0.12
304.04	0.1
304.252	0.1
304.464	0.08
304.677	0.22
304.889	0.15
305.102	0.1
305.314	0.07
305.526	0.11
305.739	0.13
305.951	0.08
306.163	0.08
306.375	0.21
306.588	0.08
306.8	0.07
307.012	0.02
307.224	0.13
307.436	0.18
307.649	0.06
307.861	0.12
308.073	0.14
308.285	0.13
308.497	0.08
308.709	0.11
308.921	0.14
309.133	0.17
309.346	0.08
309.558	0.11
309.77	0.15
309.982	0.2
310.194	0.16
310.406	0.03
310.617	0.19
310.829	0.1
311.041	0.12
311.253	0.08
311.465	0.08
311.677	0.12
311.889	0.12
312.101	0.09
312.313	0.14
312.524	0.19
312.736	0.03
312.948	0.07
313.16	0.22
313.372	0.15
313.583	0.14
313.795	0.08
314.007	0.09
314.218	0.15
314.43	0.09
314.642	0.09
314.853	0.06
315.065	0.11
315.277	0.11
315.488	0.12
315.7	0.14
315.912	0.13
316.123	0.14
316.335	0.09
316.546	0.24
316.758	0.13
316.969	0.11
317.181	0.08
317.392	0.1
317.604	0.12
317.815	0.07
318.026	0.09
318.238	0.08
318.449	0.11
318.661	0.03
318.872	0.06
319.083	0.1
319.295	0.12
319.506	0.1
319.717	0.11
319.929	0.13
320.14	0.11
320.351	0.12
320.562	0.05
320.774	0.06
320.985	0.1
321.196	0.04
321.407	0.07
321.618	0.17
321.829	0.17
322.041	0.16
322.252	0.13
322.463	0.14
322.674	0.12
322.885	0.08
323.096	0.08
323.307	0.13
323.518	0.08
323.729	0.03
323.94	0.11
324.151	0.06
324.362	0.13
324.573	0.09
324.784	0.09
324.995	0.15
325.206	0.1
325.417	0.06
325.628	0.07
325.838	0.14
326.049	0.1
326.26	0.13
326.471	0.14
326.682	0.12
326.892	0.15
327.103	0.03
327.314	0.09
327.525	0.17
327.735	0.1
327.946	0.13
328.157	0.1
328.368	0.14
328.578	0.1
328.789	0.13
328.999	0.13
329.21	0.1
329.421	0.14
329.631	0.08
329.842	0.06
330.052	0.11
330.263	0.1
330.473	0.15
330.684	0.08
330.894	0.09
331.105	0.09
331.315	0.08
331.526	0.1
331.736	0.17
331.947	0.09
332.157	0.12
332.367	0.07
332.578	0.14
332.788	0.18
332.999	0.15
333.209	0.13
333.419	0.07
333.629	0.13
333.84	0.13
334.05	0.13
334.26	0.16
334.47	0.1
334.681	0.17
334.891	0.12
335.101	0.13
335.311	0.18
335.521	0.1
335.732	0.1
335.942	0.17
336.152	0.14
336.362	0.17
336.572	0.1
336.782	0.15
336.992	0.1
337.202	0.12
337.412	0.08
337.622	0.1
337.832	0.14
338.042	0.1
338.252	0.08
338.462	0.11
338.672	0.09
338.882	0.08
339.092	0.11
339.302	0.14
339.511	0.12
339.721	0.08
339.931	0.07
340.141	0.12
340.351	0.13
340.561	0.1
340.77	0.1
340.98	0.14
341.19	0.14
341.4	0.09
341.609	0.03
341.819	0.07
342.029	0.06
342.238	0.1
342.448	0.08
342.658	0.09
342.867	0.09
343.077	0.09
343.286	0.13
343.496	0.07
343.706	0.21
343.915	0.06
344.125	0.09
344.334	0.16
344.544	0.07
344.753	0.07
344.963	0.08
345.172	0.06
345.381	0.06
345.591	0.07
345.8	0.09
346.01	0.16
346.219	0.14
346.428	-0.02
346.638	0.13
346.847	0.11
347.056	0.18
347.266	0.08
347.475	0.1
347.684	0.09
347.893	0.18
348.103	0.13
348.312	0.08
348.521	0.09
348.73	0.11
348.94	0.12
349.149	0.11
349.358	0.08
349.567	0.1
349.776	0.05
349.985	0.1
350.194	0.13
350.403	0.18
350.612	0.07
350.821	0.07
351.03	0.1
351.239	0.05
351.448	0.13
351.657	0.1
351.866	0.2
352.075	0.13
352.284	0.17
352.493	0.05
352.702	0.17
352.911	0.09
353.12	0.14
353.329	0.11
353.538	0.14
353.746	0.1
353.955	0.06
354.164	0.1
354.373	0.11
354.582	0.12
354.79	0.12
354.999	0.13
355.208	0.11
355.416	0.17
355.625	0.07
355.834	0.11
356.042	0.1
356.251	0.08
356.46	0.09
356.668	0.1
356.877	0.19
357.085	0.12
357.294	0.04
357.503	0.15
357.711	0.11
357.92	0.21
358.128	0.07
358.337	0.12
358.545	0.13
358.754	0.11
358.962	0.15
359.17	0.13
359.379	0.12
359.587	0.12
359.796	0.14
360.004	0.12
360.212	0.08
360.421	0.15
360.629	0.09
360.837	0.1
361.046	0.13
361.254	0.19
361.462	0.09
361.67	0.07
361.879	0.11
362.087	0.21
362.295	0.09
362.503	0.1
362.711	0.05
362.92	0.07
363.128	0.1
363.336	0.07
363.544	0.05
363.752	0.1
363.96	0.1
364.168	0.05
364.376	0.11
364.584	0.13
364.792	0.12
365	0.13
365.208	0.13
365.416	0.13
365.624	0.15
365.832	0.07
366.04	0.17
366.248	0.12
366.456	0.13
366.664	0.1
366.872	0.1
367.079	0.06
367.287	0.11
367.495	0.12
367.703	0.13
367.911	0.12
368.118	0.12
368.326	0.07
368.534	0.06
368.742	0.18
368.949	0.06
369.157	0.08
369.365	0.09
369.572	0.06
369.78	0.07
369.988	0.13
370.195	0.12
370.403	0.16
370.61	0.1
370.818	0.12
371.026	0.17
371.233	0.08
371.441	0.12
371.648	0.07
371.856	0.14
372.063	0.13
372.271	0.14
372.478	0.09
372.685	0.1
372.893	0.14
373.1	0.07
373.308	0.07
373.515	0.17
373.722	0.13
373.93	0.08
374.137	0.14
374.344	0.13
374.552	0.14
374.759	0.13
374.966	0.1
375.173	0.07
375.381	0.18
375.588	0.09
375.795	0.09
376.002	0.09
376.209	0.07
376.417	0.11
376.624	0.11
376.831	0.15
377.038	0.07
377.245	0.06
377.452	0.1
377.659	0.11
377.866	0.07
378.073	0.09
378.28	0.08
378.487	0.12
378.694	0.15
378.901	0.1
379.108	0.13
379.315	0.14
379.522	0.21
379.729	0.14
379.936	0.11
380.143	0.1
380.35	0.1
380.557	0.1
380.763	0.12
380.97	0.13
381.177	0.15
381.384	0.12
381.591	0.07
381.797	0.09
382.004	0.15
382.211	0.16
382.418	0.11
382.624	0.16
382.831	0.15
383.038	0.11
383.244	0.08
383.451	0.07
383.658	0.12
383.864	0.1
384.071	0.12
384.277	0.16
384.484	0.08
384.69	0.15
384.897	0.15
385.103	0.09
385.31	0.03
385.516	0.09
385.723	0.1
385.929	0.13
386.136	0.13
386.342	0.17
386.549	0.07
386.755	0.16
386.961	0.15
387.168	0.11
387.374	0.12
387.58	0.15
387.787	0.16
387.993	0.15
388.199	0.1
388.406	0.09
388.612	0.15
388.818	0.1
389.024	0.05
389.231	0.09
389.437	0.19
389.643	0.15
389.849	0.14
390.055	0.11
390.261	0.13
390.467	0.12
390.674	0.07
390.88	0.11
391.086	0.11
391.292	0.1
391.498	0.16
391.704	0.14
391.91	0.08
392.116	0.08
392.322	0
392.528	0.15
392.734	0.12
392.94	0.15
393.146	0.14
393.352	0.13
393.557	0.08
393.763	0.1
393.969	0.14
394.175	0.15
394.381	0.12
394.587	0.06
394.792	0.08
394.998	0.15
395.204	0.19
395.41	0.11
395.615	0.1
395.821	0.17
396.027	0.17
396.233	0.09
396.438	0.12
396.644	0.19
396.85	0.15
397.055	0.12
397.261	0.15
397.466	0.12
397.672	0.14
397.878	0.17
398.083	0.15
398.289	0.09
398.494	0.21
398.7	0.14
398.905	0.05
399.111	0.24
399.316	0.12
399.522	0.1
399.727	0.15
399.932	0.15
400.138	0.13
400.343	0.19
400.549	0.17
400.754	0.14
400.959	0.13
401.165	0.13
401.37	0.17
401.575	0.23
401.78	0.15
401.986	0.11
402.191	0.14
402.396	0.16
402.601	0.13
402.807	0.15
403.012	0.13
403.217	0.21
403.422	0.16
403.627	0.12
403.832	0.16
404.037	0.15
404.243	0.19
404.448	0.12
404.653	0.16
404.858	0.23
405.063	0.17
405.268	0.1
405.473	0.13
405.678	0.09
405.883	0.32
406.088	0.13
406.293	0.07
406.498	0.06
406.703	0.17
406.907	0.15
407.112	0.07
407.317	0.18
407.522	0.15
407.727	0.11
407.932	0.14
408.136	0.23
408.341	0.18
408.546	0.15
408.751	0.18
408.956	0.16
409.16	0.21
409.365	0.14
409.57	0.09
409.774	0.16
409.979	0.17
410.184	0.16
410.388	0.09
410.593	0.22
410.798	0.16
411.002	0.12
411.207	0.15
411.411	0.16
411.616	0.11
411.82	0.16
412.025	0.16
412.229	0.12
412.434	0.21
412.638	0.17
412.843	0.17
413.047	0.16
413.252	0.15
413.456	0.12
413.66	0.19
413.865	0.12
414.069	0.19
414.273	0.12
414.478	0.12
414.682	0.13
414.886	0.16
415.091	0.09
415.295	0.09
415.499	0.2
415.703	0.14
415.908	0.16
416.112	0.07
416.316	0.21
416.52	0.16
416.724	0.09
416.929	0.12
417.133	0.28
417.337	0.12
417.541	0.13
417.745	0.16
417.949	0.21
418.153	0.17
418.357	0.13
418.561	0.31
418.765	0.15
418.969	0.28
419.173	0.18
419.377	0.17
419.581	0.24
419.785	0.11
419.989	0.09
420.193	0.14
420.397	0.19
420.601	0.22
420.804	0.24
421.008	0.09
421.212	0.14
421.416	0.21
421.62	0.12
421.823	0.15
422.027	0.26
422.231	0.19
422.435	0.16
422.638	0.18
422.842	0.18
423.046	0.19
423.249	0.2
423.453	0.21
423.657	0.17
423.86	0.18
424.064	0.16
424.268	0.26
424.471	0.16
424.675	0.25
424.878	0.26
425.082	0.19
425.285	0.23
425.489	0.16
425.692	0.16
425.896	0.17
426.099	0.2
426.303	0.19
426.506	0.1
426.71	0.18
426.913	0.26
427.116	0.21
427.32	0.21
427.523	0.22
427.726	0.31
427.93	0.23
428.133	0.21
428.336	0.16
428.54	0.2
428.743	0.2
428.946	0.29
429.149	0.19
429.353	0.21
429.556	0.19
429.759	0.2
429.962	0.13
430.165	0.17
430.368	0.21
430.571	0.16
430.775	0.2
430.978	0.16
431.181	0.16
431.384	0.22
431.587	0.17
431.79	0.2
431.993	0.2
432.196	0.18
432.399	0.19
432.602	0.23
432.805	0.2
433.008	0.16
433.211	0.16
433.414	0.25
433.616	0.28
433.819	0.25
434.022	0.09
434.225	0.28
434.428	0.26
434.631	0.33
434.833	0.2
435.036	0.2
435.239	0.24
435.442	0.21
435.645	0.2
435.847	0.19
436.05	0.24
436.253	0.23
436.455	0.12
436.658	0.19
436.861	0.26
437.063	0.17
437.266	0.16
437.468	0.21
437.671	0.33
437.874	0.22
438.076	0.17
438.279	0.16
438.481	0.19
438.684	0.14
438.886	0.29
439.089	0.14
439.291	0.28
439.494	0.25
439.696	0.19
439.899	0.21
440.101	0.27
440.303	0.17
440.506	0.29
440.708	0.24
440.91	0.29
441.113	0.25
441.315	0.31
441.517	0.19
441.72	0.31
441.922	0.2
442.124	0.18
442.326	0.22
442.529	0.25
442.731	0.23
442.933	0.34
443.135	0.23
443.337	0.2
443.539	0.26
443.742	0.26
443.944	0.26
444.146	0.21
444.348	0.21
444.55	0.18
444.752	0.2
444.954	0.16
445.156	0.24
445.358	0.21
445.56	0.34
445.762	0.24
445.964	0.24
446.166	0.16
446.368	0.2
446.57	0.32
446.772	0.22
446.974	0.19
447.175	0.24
447.377	0.2
447.579	0.2
447.781	0.17
447.983	0.29
448.184	0.24
448.386	0.24
448.588	0.15
448.79	0.26
448.991	0.21
449.193	0.26
449.395	0.23
449.597	0.28
449.798	0.28
450	0.26
450.202	0.28
450.403	0.26
450.605	0.32
450.806	0.24
451.008	0.17
451.21	0.3
451.411	0.26
451.613	0.2
451.814	0.28
452.016	0.3
452.217	0.25
452.419	0.32
452.62	0.25
452.821	0.28
453.023	0.32
453.224	0.28
453.426	0.27
453.627	0.25
453.828	0.36
454.03	0.3
454.231	0.31
454.432	0.27
454.634	0.39
454.835	0.28
455.036	0.25
455.238	0.32
455.439	0.38
455.64	0.25
455.841	0.31
456.042	0.4
456.244	0.32
456.445	0.28
456.646	0.21
456.847	0.32
457.048	0.35
457.249	0.42
457.45	0.54
457.651	0.25
457.852	0.34
458.054	0.29
458.255	0.34
458.456	0.4
458.657	0.3
458.858	0.29
459.058	0.28
459.259	0.41
459.46	0.27
459.661	0.33
459.862	0.52
460.063	0.32
460.264	0.41
460.465	0.33
460.666	0.48
460.866	0.34
461.067	0.35
461.268	0.32
461.469	0.31
461.67	0.32
461.87	0.34
462.071	0.32
462.272	0.32
462.473	0.34
462.673	0.4
462.874	0.35
463.075	0.42
463.275	0.37
463.476	0.41
463.676	0.46
463.877	0.4
464.078	0.45
464.278	0.45
464.479	0.47
464.679	0.44
464.88	0.44
465.08	0.46
465.281	0.41
465.481	0.45
465.682	0.44
465.882	0.49
466.083	0.44
466.283	0.45
466.483	0.39
466.684	0.43
466.884	0.42
467.085	0.47
467.285	0.53
467.485	0.45
467.686	0.51
467.886	0.43
468.086	0.49
468.286	0.5
468.487	0.54
468.687	0.47
468.887	0.48
469.087	0.57
469.287	0.52
469.488	0.47
469.688	0.61
469.888	0.59
470.088	0.61
470.288	0.62
470.488	0.61
470.688	0.59
470.888	0.59
471.088	0.55
471.288	0.65
471.488	0.66
471.688	0.66
471.888	0.63
472.088	0.77
472.288	0.68
472.488	0.66
472.688	0.72
472.888	0.75
473.088	0.73
473.288	0.71
473.488	0.73
473.688	0.81
473.887	0.77
474.087	0.76
474.287	0.8
474.487	0.77
474.687	0.89
474.886	0.84
475.086	0.84
475.286	0.91
475.486	0.87
475.685	0.87
475.885	0.83
476.085	0.92
476.284	0.95
476.484	0.95
476.684	0.99
476.883	1.07
477.083	0.97
477.282	1
477.482	1.06
477.681	1.15
477.881	1.1
478.08	1.07
478.28	1.08
478.479	1.14
478.679	1.2
478.878	1.18
479.078	1.16
479.277	1.23
479.477	1.17
479.676	1.26
479.875	1.24
480.075	1.24
480.274	1.29
480.473	1.36
480.673	1.33
480.872	1.44
481.071	1.45
481.271	1.5
481.47	1.47
481.669	1.45
481.868	1.46
482.067	1.5
482.267	1.52
482.466	1.54
482.665	1.58
482.864	1.6
483.063	1.65
483.262	1.72
483.461	1.77
483.661	1.78
483.86	1.79
484.059	1.85
484.258	1.89
484.457	1.91
484.656	1.94
484.855	2.06
485.054	1.93
485.253	1.97
485.452	2.05
485.651	2.13
485.849	2.13
486.048	2.19
486.247	2.19
486.446	2.29
486.645	2.27
486.844	2.34
487.043	2.39
487.241	2.37
487.44	2.45
487.639	2.51
487.838	2.56
488.037	2.57
488.235	2.66
488.434	2.72
488.633	2.61
488.831	2.84
489.03	2.84
489.229	2.91
489.427	2.95
489.626	2.95
489.825	3.02
490.023	3.17
490.222	3.14
490.42	3.17
490.619	3.29
490.817	3.35
491.016	3.34
491.214	3.42
491.413	3.5
491.611	3.5
491.81	3.55
492.008	3.59
492.207	3.79
492.405	3.78
492.604	3.74
492.802	3.93
493	4.05
493.199	4.04
493.397	4.15
493.595	4.27
493.794	4.23
493.992	4.41
494.19	4.43
494.388	4.55
494.587	4.48
494.785	4.58
494.983	4.6
495.181	4.79
495.379	4.9
495.578	5.01
495.776	5.07
495.974	5.03
496.172	5.12
496.37	5.39
496.568	5.5
496.766	5.48
496.964	5.71
497.162	5.68
497.36	5.85
497.558	5.87
497.756	6.05
497.954	6.01
498.152	6.18
498.35	6.42
498.548	6.32
498.746	6.45
498.944	6.52
499.142	6.62
499.34	6.82
499.538	7.03
499.736	6.86
499.933	7.02
500.131	7.14
500.329	7.5
500.527	7.44
500.725	7.71
500.922	7.76
501.12	7.86
501.318	8.13
501.516	8.13
501.713	8.39
501.911	8.33
502.109	8.46
502.306	8.69
502.504	8.53
502.701	8.83
502.899	9.03
503.097	9.41
503.294	9.21
503.492	9.59
503.689	9.75
503.887	9.74
504.084	9.9
504.282	9.99
504.479	10.03
504.677	10.42
504.874	10.46
505.072	10.35
505.269	10.96
505.466	10.96
505.664	11.14
505.861	11.09
506.059	11.4
506.256	11.41
506.453	11.71
506.651	11.95
506.848	12.15
507.045	12.12
507.242	12.21
507.44	12.44
507.637	12.66
507.834	12.6
508.031	13.05
508.229	12.98
508.426	12.84
508.623	13.34
508.82	13.58
509.017	13.6
509.214	13.55
509.411	14.03
509.608	13.95
509.805	14.33
510.003	14.36
510.2	14.6
510.397	14.94
510.594	14.74
510.791	15.11
510.988	15.15
511.184	15.08
511.381	14.93
511.578	15.43
511.775	15.8
511.972	15.56
512.169	15.8
512.366	15.93
512.563	16.2
512.76	16.39
512.956	16.49
513.153	16.46
513.35	16.32
513.547	16.54
513.744	16.78
513.94	16.83
514.137	17.18
514.334	17.03
514.53	17.15
514.727	17.76
514.924	17.34
515.12	17.46
515.317	17.63
515.514	17.3
515.71	17.34
515.907	17.96
516.103	17.93
516.3	17.66
516.497	18.09
516.693	17.97
516.89	18.03
517.086	18.07
517.283	18.21
517.479	17.74
517.676	18.31
517.872	18.36
518.068	18.34
518.265	18.28
518.461	18.09
518.658	18.41
518.854	18.32
519.05	18.56
519.247	18.64
519.443	18.32
519.639	18.62
519.836	18.18
520.032	18.04
520.228	18.45
520.424	18.13
520.621	18.24
520.817	18.39
521.013	18.07
521.209	18.39
521.405	18.25
521.601	18.16
521.798	18.02
521.994	17.82
522.19	17.76
522.386	17.87
522.582	17.92
522.778	17.99
522.974	17.59
523.17	17.51
523.366	17.32
523.562	17.35
523.758	17.3
523.954	16.82
524.15	17.19
524.346	17.05
524.542	17.12
524.738	16.84
524.934	16.99
525.129	16.85
525.325	16.49
525.521	16.31
525.717	16.66
525.913	16.22
526.109	16.13
526.304	16.27
526.5	16.01
526.696	15.98
526.892	15.66
527.087	16.04
527.283	15.58
527.479	15.4
527.674	14.96
527.87	15.21
528.066	15.03
528.261	14.98
528.457	14.64
528.653	14.87
528.848	14.61
529.044	14.61
529.239	14.16
529.435	14.05
529.63	13.84
529.826	13.77
530.021	13.69
530.217	13.74
530.412	13.45
530.608	13.36
530.803	13.19
530.999	12.87
531.194	12.97
531.389	12.96
531.585	12.82
531.78	12.86
531.975	12.55
532.171	12.48
532.366	12.28
532.561	12.24
532.757	11.96
532.952	12.16
533.147	11.59
533.342	11.75
533.538	11.56
533.733	11.64
533.928	11.08
534.123	11.16
534.318	11.21
534.513	10.91
534.709	11.01
534.904	10.81
535.099	10.81
535.294	10.69
535.489	10.54
535.684	10.28
535.879	10.25
536.074	10.27
536.269	10.06
536.464	10.07
536.659	9.82
536.854	9.72
537.049	9.66
537.244	9.56
537.439	9.44
537.634	9.27
537.828	9.29
538.023	9.12
538.218	9.04
538.413	8.84
538.608	8.79
538.803	8.76
538.997	8.64
539.192	8.59
539.387	8.45
539.582	8.35
539.776	8.15
539.971	8.23
540.166	8.17
540.36	7.97
540.555	8.04
540.75	7.89
540.944	7.79
541.139	7.71
541.334	7.58
541.528	7.5
541.723	7.46
541.917	7.42
542.112	7.21
542.306	7
542.501	6.98
542.695	7.01
542.89	6.92
543.084	6.87
543.279	6.85
543.473	6.72
543.668	6.74
543.862	6.45
544.056	6.4
544.251	6.46
544.445	6.44
544.64	6.39
544.834	6.03
545.028	5.88
545.222	6.05
545.417	6.16
545.611	5.95
545.805	5.88
546	5.66
546.194	5.68
546.388	5.68
546.582	5.53
546.776	5.49
546.97	5.44
547.165	5.38
547.359	5.33
547.553	5.19
547.747	5.14
547.941	5.23
548.135	5.03
548.329	5.05
548.523	4.97
548.717	4.86
548.911	4.75
549.105	4.72
549.299	4.73
549.493	4.73
549.687	4.55
549.881	4.58
550.075	4.45
550.269	4.33
550.463	4.4
550.657	4.31
550.85	4.27
551.044	4.15
551.238	4.14
551.432	4.07
551.626	4.07
551.82	4.01
552.013	3.9
552.207	3.93
552.401	3.89
552.594	3.77
552.788	3.74
552.982	3.64
553.176	3.6
553.369	3.68
553.563	3.6
553.756	3.5
553.95	3.46
554.144	3.44
554.337	3.4
554.531	3.28
554.724	3.27
554.918	3.28
555.111	3.2
555.305	3.17
555.498	3.14
555.692	3.13
555.885	3.07
556.079	3.01
556.272	2.98
556.466	2.96
556.659	2.87
556.852	2.89
557.046	2.84
557.239	2.74
557.432	2.72
557.626	2.71
557.819	2.7
558.012	2.68
558.206	2.63
558.399	2.56
558.592	2.55
558.785	2.48
558.979	2.48
559.172	2.44
559.365	2.45
559.558	2.4
559.751	2.33
559.944	2.38
560.138	2.28
560.331	2.25
560.524	2.26
560.717	2.19
560.91	2.18
561.103	2.19
561.296	2.1
561.489	2.13
561.682	2.13
561.875	2.12
562.068	2.06
562.261	1.97
562.454	2.05
562.647	1.94
562.84	1.96
563.032	1.91
563.225	1.88
563.418	1.85
563.611	1.86
563.804	1.83
563.997	1.74
564.19	1.68
564.382	1.79
564.575	1.74
564.768	1.7
564.961	1.69
565.153	1.64
565.346	1.65
565.539	1.65
565.731	1.63
565.924	1.64
566.117	1.63
566.309	1.56
566.502	1.54
566.695	1.49
566.887	1.53
567.08	1.44
567.272	1.46
567.465	1.43
567.657	1.43
567.85	1.38
568.042	1.38
568.235	1.4
568.427	1.32
568.62	1.3
568.812	1.33
569.005	1.32
569.197	1.29
569.389	1.27
569.582	1.27
569.774	1.24
569.966	1.18
570.159	1.16
570.351	1.21
570.543	1.16
570.736	1.19
570.928	1.12
571.12	1.17
571.312	1.07
571.505	1.05
571.697	1.09
571.889	1.08
572.081	1.07
572.273	1.05
572.465	1.06
572.658	1.01
572.85	0.99
573.042	1.01
573.234	0.96
573.426	1.02
573.618	0.93
573.81	0.96
574.002	0.97
574.194	0.99
574.386	0.88
574.578	0.81
574.77	0.85
574.962	0.87
575.154	0.81
575.346	0.86
575.538	0.81
575.729	0.81
575.921	0.81
576.113	0.8
576.305	0.83
576.497	0.8
576.689	0.78
576.88	0.75
577.072	0.82
577.264	0.75
577.456	0.76
577.647	0.68
577.839	0.78
578.031	0.72
578.223	0.68
578.414	0.66
578.606	0.69
578.798	0.7
578.989	0.67
579.181	0.67
579.372	0.67
579.564	0.66
579.755	0.69
579.947	0.67
580.139	0.67
580.33	0.56
580.522	0.6
580.713	0.56
580.905	0.64
581.096	0.64
581.287	0.59
581.479	0.61
581.67	0.6
581.862	0.57
582.053	0.55
582.244	0.52
582.436	0.57
582.627	0.56
582.818	0.52
583.01	0.51
583.201	0.53
583.392	0.56
583.583	0.52
583.775	0.48
583.966	0.51
584.157	0.52
584.348	0.46
584.54	0.4
584.731	0.5
584.922	0.46
585.113	0.44
585.304	0.52
585.495	0.49
585.686	0.47
585.877	0.49
586.068	0.46
586.259	0.45
586.45	0.46
586.641	0.44
586.832	0.37
587.023	0.42
587.214	0.41
587.405	0.43
587.596	0.37
587.787	0.47
587.978	0.44
588.169	0.36
588.36	0.38
588.551	0.42
588.742	0.37
588.932	0.44
589.123	0.34
589.314	0.42
589.505	0.39
589.696	0.38
589.886	0.37
590.077	0.33
590.268	0.38
590.458	0.33
590.649	0.32
590.84	0.38
591.03	0.32
591.221	0.32
591.412	0.29
591.602	0.37
591.793	0.34
591.984	0.3
592.174	0.32
592.365	0.41
592.555	0.29
592.746	0.32
592.936	0.32
593.127	0.31
593.317	0.32
593.508	0.31
593.698	0.31
593.889	0.28
594.079	0.26
594.269	0.3
594.46	0.26
594.65	0.3
594.84	0.32
595.031	0.26
595.221	0.25
595.411	0.26
595.602	0.28
595.792	0.27
595.982	0.23
596.172	0.33
596.363	0.28
596.553	0.27
596.743	0.26
596.933	0.28
597.123	0.27
597.314	0.22
597.504	0.24
597.694	0.31
597.884	0.27
598.074	0.24
598.264	0.25
598.454	0.24
598.644	0.24
598.834	0.23
599.024	0.16
599.214	0.22
599.404	0.27
599.594	0.23
599.784	0.21
599.974	0.25
600.164	0.25
600.354	0.19
600.544	0.18
600.734	0.23
600.924	0.26
601.114	0.2
601.303	0.21
601.493	0.21
601.683	0.21
601.873	0.23
602.063	0.18
602.252	0.23
602.442	0.15
602.632	0.18
602.821	0.17
603.011	0.22
603.201	0.22
603.39	0.17
603.58	0.16
603.77	0.2
603.959	0.21
604.149	0.19
604.339	0.2
604.528	0.23
604.718	0.21
604.907	0.17
605.097	0.16
605.286	0.16
605.476	0.2
605.665	0.19
605.855	0.17
606.044	0.2
606.234	0.19
606.423	0.16
606.612	0.16
606.802	0.18
606.991	0.21
607.181	0.2
607.37	0.14
607.559	0.15
607.749	0.15
607.938	0.18
608.127	0.17
608.316	0.14
608.506	0.19
608.695	0.17
608.884	0.17
609.073	0.16
609.263	0.16
609.452	0.18
609.641	0.19
609.83	0.13
610.019	0.15
610.208	0.17
610.397	0.14
610.586	0.18
610.775	0.13
610.965	0.14
611.154	0.13
611.343	0.17
611.532	0.18
611.721	0.12
611.91	0.14
612.099	0.17
612.287	0.15
612.476	0.14
612.665	0.17
612.854	0.14
613.043	0.17
613.232	0.13
613.421	0.08
613.61	0.15
613.798	0.14
613.987	0.21
614.176	0.14
614.365	0.16
614.554	0.14
614.742	0.14
614.931	0.09
615.12	0.18
615.309	0.13
615.497	0.16
615.686	0.11
615.875	0.13
616.063	0.15
616.252	0.1
616.44	0.1
616.629	0.14
616.818	0.17
617.006	0.14
617.195	0.12
617.383	0.13
617.572	0.16
617.76	0.13
617.949	0.13
618.137	0.15
618.326	0.17
618.514	0.11
618.703	0.12
618.891	0.2
619.079	0.1
619.268	0.16
619.456	0.1
619.644	0.19
619.833	0.12
620.021	0.1
620.209	0.11
620.398	0.14
620.586	0.14
620.774	0.14
620.962	0.13
621.151	0.19
621.339	0.12
621.527	0.1
621.715	0.09
621.903	0.09
622.092	0.09
622.28	0.15
622.468	0.13
622.656	0.11
622.844	0.14
623.032	0.09
623.22	0.07
623.408	0.18
623.596	0.14
623.784	0.14
623.972	0.1
624.16	0.08
624.348	0.18
624.536	0.1
624.724	0.08
624.912	0.18
625.1	0.15
625.288	0.09
625.476	0.1
625.664	0.14
625.851	0.08
626.039	0.13
626.227	0.13
626.415	0.12
626.603	0.1
626.79	0.12
626.978	0.1
627.166	0.15
627.354	0.12
627.541	0.11
627.729	0.02
627.917	0.13
628.104	0.15
628.292	0.13
628.48	0.09
628.667	0.14
628.855	0.13
629.042	0.13
629.23	0.12
629.418	0.09
629.605	0.11
629.793	0.09
629.98	0.08
630.168	0.09
630.355	0.15
630.543	0.1
630.73	0.05
630.917	0.16
631.105	0.19
631.292	0.08
631.48	0.12
631.667	0.2
631.854	0.13
632.042	0.09
632.229	0.08
632.416	0.1
632.604	0.08
632.791	0.06
632.978	0.12
633.165	0.12
633.353	0.15
633.54	0.17
633.727	0.06
633.914	0.08
634.101	0.03
634.289	0.13
634.476	0.1
634.663	0.09
634.85	0.12
635.037	0.09
635.224	0.05
635.411	0.12
635.598	0.11
635.785	0.09
635.972	0.11
636.159	0.1
636.346	0.08
636.533	0.1
636.72	0.08
636.907	0.08
637.094	0.11
637.281	0.06
637.468	0.09
637.655	0.09
637.842	0.08
638.029	0.08
638.215	0.15
638.402	0.1
638.589	0.08
638.776	0.09
638.963	0.07
639.149	0.11
639.336	0.16
639.523	0.09
639.709	0.11
639.896	0.1
640.083	0.15
640.27	0.11
640.456	0.09
640.643	0.1
640.829	0.04
641.016	0.09
641.203	0.04
641.389	0.13
641.576	0.13
641.762	0.09
641.949	0.07
642.135	0.12
642.322	0.1
642.508	0.05
642.695	0.11
642.881	0.12
643.068	0.07
643.254	0.1
643.441	0.11
643.627	0.07
643.813	0.09
644	0.13
644.186	0.05
644.372	0.02
644.559	0.12
644.745	0.06
644.931	0.06
645.118	0.08
645.304	0.1
645.49	0.09
645.676	0.09
645.862	0.1
646.049	0.15
646.235	0.09
646.421	0.17
646.607	0.14
646.793	0.06
646.979	0.08
647.165	0.12
647.352	0.1
647.538	0.11
647.724	0.09
647.91	0.13
648.096	0.16
648.282	0.14
648.468	0.08
648.654	0.08
648.84	0.12
649.026	0.06
649.212	0.12
649.397	0.05
649.583	0.02
649.769	0.12
649.955	0.09
650.141	0.11
650.327	0.13
650.513	0.09
650.698	0.13
650.884	-0
651.07	0.09
651.256	0.1
651.442	0.07
651.627	0.13
651.813	0.08
651.999	0.09
652.184	0.14
652.37	0.1
652.556	0.08
652.741	0.15
652.927	0.03
653.113	0.1
653.298	0.1
653.484	0.07
653.669	0.07
653.855	0.12
654.04	0.1
654.226	0.11
654.412	0.06
654.597	0.06
654.782	0.1
654.968	0.12
655.153	0.08
655.339	0.07
655.524	0.03
655.71	0.13
655.895	0.07
656.08	0.1
656.266	0.15
656.451	0.12
656.636	0.01
656.822	0.12
657.007	0.08
657.192	0.08
657.378	0.04
657.563	0.1
657.748	0.07
657.933	0.13
658.118	0.07
658.304	0.09
658.489	0.14
658.674	0.1
658.859	0.06
659.044	0.08
659.229	0.13
659.414	0.11
659.599	0.09
659.785	0.04
659.97	0.07
660.155	0.14
660.34	0.11
660.525	0.09
660.71	0.09
660.895	0.12
661.08	0.06
661.264	0.08
661.449	0.14
661.634	0.15
661.819	0.12
662.004	0.15
662.189	0.07
662.374	0.08
662.559	0.04
662.743	0.08
662.928	0.08
663.113	0.1
663.298	0.06
663.483	0.1
663.667	0.12
663.852	0.05
664.037	0.14
664.221	0.08
664.406	0.13
664.591	0.13
664.775	0.07
664.96	0.13
665.145	0.1
665.329	0.11
665.514	0.11
665.698	0.08
665.883	0.05
666.068	0.22
666.252	0.09
666.437	0.11
666.621	0.1
666.806	0.11
666.99	0.08
667.174	0.07
667.359	0.19
667.543	0.09
667.728	0.1
667.912	0
668.096	0.11
668.281	0.1
668.465	0.09
668.649	0.15
668.834	0.07
669.018	0.1
669.202	0.12
669.387	0.07
669.571	0.15
669.755	0.07
669.939	0.08
670.124	0.12
670.308	0.18
670.492	0.16
670.676	0.13
670.86	0.1
671.044	0.09
671.228	0.16
671.413	0.06
671.597	0.07
671.781	0.05
671.965	0.15
672.149	0.12
672.333	0.13
672.517	0.05
672.701	0.08
672.885	0.1
673.069	0.05
673.253	0.19
673.437	0.09
673.621	0.08
673.804	0.1
673.988	0.16
674.172	0.18
674.356	0.07
674.54	0.13
674.724	0.19
674.908	0.11
675.091	0.15
675.275	0.13
675.459	0.17
675.643	0.13
675.826	0.17
676.01	0.13
676.194	0.13
676.377	0.15
676.561	0.13
676.745	0.17
676.928	0.13
677.112	0.23
677.296	0.09
677.479	0.13
677.663	0.12
677.846	0.15
678.03	0.08
678.213	0.11
678.397	0.16
678.58	0.14
678.764	0.12
678.947	0.11
679.131	0.09
679.314	0.19
679.498	0.17
679.681	0.13
679.865	0.15
680.048	0.11
680.231	0.11
680.415	0.15
680.598	0.13
680.781	0.12
680.965	0.14
681.148	0.15
681.331	0.08
681.514	0.13
681.698	0.08
681.881	0.12
682.064	0.16
682.247	0.14
682.43	0.07
682.614	0.17
682.797	0.19
682.98	0.13
683.163	0.07
683.346	0.16
683.529	0.14
683.712	0.11
683.895	0.11
684.078	0.06
684.261	0.12
684.444	0.14
684.627	0.2
684.81	0.07
684.993	0.09
685.176	0.19
685.359	0.07
685.542	0.15
685.725	0.22
685.908	0.13
686.091	0.07
686.274	0.15
686.457	0.16
686.639	0.11
686.822	0.15
687.005	0.12
687.188	0.16
687.371	0.21
687.553	0.13
687.736	0.13
687.919	0.19
688.102	0.2
688.284	0.07
688.467	0.1
688.65	0.08
688.832	0.13
689.015	0.1
689.197	0.06
689.38	0.21
689.563	0.17
689.745	0.09
689.928	0.04
690.11	0.16
690.293	0.16
690.475	0.06
690.658	0.14
690.84	0.1
691.023	0.09
691.205	0.07
691.388	0.15
691.57	0.16
691.752	0.15
691.935	0.04
692.117	0.08
692.3	0.1
692.482	0.17
692.664	0.11
692.847	0.12
693.029	0.19
693.211	0.14
693.393	0.1
693.576	0.12
693.758	0.09
693.94	0.12
694.122	0.1
694.304	0.13
694.487	0.09
694.669	0.2
694.851	0.05
695.033	0.12
695.215	0.05
695.397	0.07
695.579	0.14
695.761	0.07
695.943	0.05
696.125	0.17
696.308	0.09
696.49	0.01
696.671	0.19
696.853	0.13
697.035	0.3
697.217	0.15
697.399	0.15
697.581	0.05
697.763	0.17
697.945	0.1
698.127	0.12
698.309	0.12
698.491	0.13
698.672	0.14
698.854	0.2
699.036	0.14
699.218	0.1
699.399	0.18
699.581	0.08
699.763	0.13
699.945	0.08
700.126	0.12
700.308	0.15
700.49	0.09
700.671	0.04
700.853	0.11
701.035	0.11
701.216	0.13
701.398	0.04
701.579	0.08
701.761	0.14
701.943	0.07
702.124	0.05
702.306	0.12
702.487	0.17
702.669	0.12
702.85	0.07
703.031	0.06
703.213	0.25
703.394	0.22
703.576	0.16
703.757	0.2
703.938	0.17
704.12	0.24
704.301	0.13
704.483	0.06
704.664	0.14
704.845	0.2
705.026	0.14
705.208	0.15
705.389	0.13
705.57	0.12
705.751	0.08
705.933	0.17
706.114	0.22
706.295	0.07
706.476	0.03
706.657	0.2
706.838	0.14
707.02	0.24
707.201	0.08
707.382	0.11
707.563	0.12
707.744	0.06
707.925	0.03
708.106	0.04
708.287	0.14
708.468	0.16
708.649	0.13
708.83	0.17
709.011	0.08
709.192	0.15
709.373	0.05
709.554	0.15
709.734	0.2
709.915	0.15
710.096	0.06
710.277	0.02
710.458	0.16
710.639	0.21
710.819	0.03
711	0.09
711.181	0.24
711.362	0.18
711.542	0.09
711.723	0.09
711.904	0.2
712.085	0.19
712.265	0.12
712.446	-0.05
712.627	0.08
712.807	0.13
712.988	0.14
713.168	0.03
713.349	0.15
713.53	0.01
713.71	0.05
713.891	0.04
714.071	0.11
714.252	0.13
714.432	0.02
714.613	0
714.793	0.14
714.974	0.2
715.154	0.25
715.334	0.17
715.515	0.11
715.695	0.07
715.876	0.17
716.056	0.1
716.236	0.06
716.417	0.04
716.597	0.1
716.777	0.22
716.957	0.06
717.138	0.1
717.318	0.06
717.498	0.03
717.678	0.09
717.859	0.2
718.039	0.03
718.219	0.08
718.399	0.2
718.579	0.12
718.759	0.1
718.939	0.12
719.12	0.07
719.3	0.08
719.48	-0
719.66	-0.03
719.84	0.19
720.02	0.07
720.2	0.07
720.38	0.07
720.56	0.17
720.74	0.04
720.92	0.14
721.1	0.2
721.279	0.13
721.459	0.17
721.639	0.02
721.819	0.09
721.999	0.07
722.179	0.21
722.359	0.01
722.538	0.12
722.718	0.15
722.898	0.13
723.078	0.15
723.257	0.04
723.437	0.18
723.617	0.15
723.797	0.08
723.976	0.14
724.156	0.15
724.336	0.18
724.515	0.28
724.695	0.05
724.874	0.01
725.054	0.15
725.234	-0.01
725.413	0.23
725.593	0.02
725.772	0.11
725.952	0.11
726.131	0.04
726.311	0.11
726.49	0.12
726.67	0.1
726.849	0.02
727.028	0.19
727.208	0.11
727.387	0.08
727.567	0.06
727.746	0.11
727.925	0.01
728.105	0.05
728.284	0.04
728.463	0.03
728.643	0.21
728.822	0.07
729.001	0.12
729.18	0.11
729.359	0.14
729.539	0.18
729.718	0.13
729.897	0.13
730.076	0.07
730.255	0.05
730.434	0.07
730.614	0.15
730.793	0.24
730.972	0.11
731.151	0.12
731.33	0.19
731.509	0.2
731.688	0.08
731.867	0.12
732.046	0.03
732.225	0.3
732.404	0.02
732.583	0.03
732.762	0.09
732.941	0.2
733.12	0.15
733.298	0.16
733.477	0.12
733.656	0.12
733.835	0.16
734.014	0.16
734.193	0.08
734.371	0.24
734.55	0.19
734.729	-0.01
734.908	0.19
735.086	0.15
735.265	0.27
735.444	-0.05
735.623	0.13
735.801	0.04
735.98	0.12
736.159	0.13
736.337	0.13
736.516	0.15
736.694	0.12
736.873	0.03
737.052	0.19
737.23	0.24
737.409	0.08
737.587	0.26
737.766	-0.01
737.944	0.09
738.123	0.18
738.301	0.14
738.479	0.23
738.658	0.06
738.836	-0.2
739.015	0.1
739.193	0.21
739.371	0.05
739.55	0.15
739.728	0
739.906	0.26
740.085	0.3
740.263	0.11
740.441	-0.04
740.62	0.32
740.798	0.15
740.976	-0.03
741.154	0.02
741.332	0.26
741.511	0.06
741.689	0.11
741.867	0.14
742.045	0.16
742.223	0.11
742.401	0.09
742.579	0.05
742.757	0.14
742.935	-0.03
743.114	0.04
743.292	0.1
743.47	0.18
743.648	0.21
743.826	0.03
744.004	0.24
744.181	0.2
744.359	0.04
744.537	0.07
744.715	0.02
744.893	0.08
745.071	0.15
745.249	0.05
745.427	0.26
745.605	0.14
745.782	0.12
745.96	0.21
746.138	0.17
746.316	0.28
746.493	0.15
746.671	0.1
746.849	0.09
747.027	0.27
747.204	0.02
747.382	0.14
747.56	-0
747.737	0.03
747.915	0.06
748.093	0.22
748.27	0.07
748.448	0.11
748.625	-0.02
748.803	0.09
748.98	-0
749.158	0.1
749.335	0.24
749.513	0.1
749.69	-0.02
749.868	0.09
750.045	0.01
750.223	0.07
750.4	-0.13
750.578	0.24
750.755	0.08
750.932	0.01
751.11	0.22
751.287	-0.03
751.464	0.22
751.642	0.02
751.819	0.06
751.996	0.05
752.173	0.12
752.351	-0.09
752.528	0.1
752.705	0.04
752.882	0.02
753.06	0.1
753.237	0.19
753.414	0.34
753.591	0.33
753.768	0.08
753.945	0.02
754.122	-0.05
754.299	0.02
754.476	0.03
754.654	0.14
754.831	0.15
755.008	0.13
755.185	0.08
755.362	0.02
755.539	0.12
755.716	0.13
755.892	0.01
756.069	0.08
756.246	0.08
756.423	0.13
756.6	0.28
756.777	0.07
756.954	0.14
757.131	-0.03
757.307	0.04
757.484	-0.07
757.661	0.18
757.838	0.2
758.015	-0.09
758.191	0.28
758.368	0.27
758.545	0.28
758.721	0.09
758.898	0.03
759.075	0.15
759.251	0.23
759.428	0.21
759.605	-0.04
759.781	0.04
759.958	0.14
760.134	0.15
760.311	0.13
760.488	0.28
760.664	0.14
760.841	0.05
761.017	0.01
761.194	0.16
761.37	0.24
761.547	0.16
761.723	0.11
761.899	0.32
762.076	0.02
762.252	0.03
762.429	-0.01
762.605	0.12
762.781	0.1
762.958	0.19
763.134	0.09
763.31	0.01
763.486	0.27
763.663	-0.15
763.839	0.04
764.015	-0.1
764.191	0.08
764.368	0.07
764.544	0.18
764.72	0.24
764.896	0.19
765.072	0.27
765.248	0.14
765.425	0.11
765.601	0.16
765.777	0.11
765.953	-0.09
766.129	0.1
766.305	-0
766.481	0.18
766.657	0.12
766.833	0.21
767.009	-0.03
767.185	0.12
767.361	0.15
767.537	-0
767.713	0.29
767.889	0.03
768.065	0.1
768.24	0.21
768.416	0.19
768.592	0.11
768.768	0.12
768.944	0.13
769.12	-0.09
769.295	-0.06
769.471	-0.01
769.647	0.09
769.823	0.21
769.998	-0.01
770.174	-0.06
770.35	0.44
770.525	0.39
770.701	0.18
770.877	0.13
771.052	0.06
771.228	0.08
771.403	0.13
771.579	0.1
771.755	0.38
771.93	0.02
772.106	-0.14
772.281	-0.08
772.457	0.09
772.632	0.24
772.808	-0.13
772.983	-0.05
773.159	-0.11
773.334	0.14
773.509	0.1
773.685	-0.12
773.86	0.34
774.036	0.36
774.211	0.16
774.386	0.1
774.562	0.05
774.737	0.21
774.912	-0.06
775.087	0.16
775.263	0.06
775.438	0.02
775.613	-0.02
775.788	0.24
775.964	0.1
776.139	0.47
776.314	-0.01
776.489	0.23
776.664	0.08
776.839	0.05
777.014	0.25
777.19	0.19
777.365	0.4
777.54	0.35
777.715	0.07
777.89	0.08
778.065	-0.1
778.24	0.09
778.415	0.31
778.59	-0.11
778.765	0.03
778.94	-0.02
779.115	0.08
779.289	0.18
779.464	0.14
779.639	0.16
779.814	-0.14
779.989	-0.05
780.164	0.35
780.339	0.25
780.513	-0.05
780.688	0.08
780.863	0.12
781.038	-0
781.212	-0.06
781.387	0.11
781.562	0.27
781.737	0.12
781.911	0.21
782.086	0.01
782.261	0.02
782.435	0.45
782.61	-0.02
782.784	0.07
782.959	0.42
783.134	-0.05
783.308	-0.08
783.483	0.02
783.657	0.45
783.832	0.12
784.006	-0.19
784.181	0.12
784.355	0.41
784.53	-0.21
784.704	-0.04
784.878	0.24
785.053	0.2
785.227	0.41
785.402	0.4
785.576	-0.15
785.75	0.15
785.925	0.06
786.099	0.05
786.273	0.14
786.448	0.31
786.622	0.34
786.796	-0.01
786.97	0.06
787.145	0.6
787.319	-0.24
787.493	-0.02
787.667	-0.17
787.841	0.1
788.015	0.56
788.19	-0.02
788.364	0.02
788.538	0.33
788.712	0.3
788.886	-0.07
789.06	0.36
789.234	0.17
789.408	-0.13
789.582	0.07
789.756	0.04
789.93	-0.12
790.104	0.16
790.278	0.16
790.452	-0.03
790.626	0.11
790.8	0.07
790.973	-0.01
791.147	0.16
791.321	0.56
791.495	0.31
791.669	0.26
791.843	0.05
792.016	0.28
792.19	0.38
792.364	-0.18
792.538	0.52
792.711	0.38
792.885	0.06
793.059	-0.18
793.233	-0.47
793.406	0.39
793.58	-0.03
793.754	0.2
793.927	0.02
794.101	0.21
794.274	-0.15
794.448	0.27
794.622	0.08
794.795	0.47
794.969	0.08
795.142	0.32
795.316	0.08
795.489	-0.08
795.663	0.44
795.836	-0.17
796.009	-0.02
796.183	0.45
796.356	0.32
796.53	0.15
796.703	-0.02
796.876	0.68
797.05	-0.02
797.223	0.15
797.396	0.15
797.57	0.25
797.743	0.55
797.916	0.09
798.09	-0.03
798.263	0.29
798.436	0.1
798.609	-0.04
798.782	-0
798.956	0.34
799.129	0.15
799.302	0.02
799.475	0.04
799.648	-0.02
799.821	0.06
799.994	0.16
800.167	-0.07
800.34	0.05
800.514	0.21
800.687	-0.17
800.86	-0.04
801.033	-0.07
801.206	-0.01
801.379	-0.19
801.551	0.56
801.724	0.51
801.897	0.6
802.07	0.09
802.243	-0.53
802.416	0.11
802.589	0.28
802.762	0.35
802.935	0.2
803.107	0.05
803.28	0.3
803.453	0.32
803.626	-0.37
803.798	0.08
803.971	-0.26
804.144	0.2
804.317	0.11
804.489	0.48
804.662	0.22
804.835	0.46
805.007	0.08
805.18	0.63
805.353	0.34
805.525	-0.16
805.698	-0.08
805.87	0.57
806.043	0.43
806.215	-0.25
806.388	-0.12
806.56	0.2
806.733	0.17
806.905	0.16
807.078	-0.06
807.25	-0.04
807.423	0.36
807.595	-0.17
807.768	0.17
807.94	0.54
808.112	0.33
808.285	0.02
808.457	0.12
808.629	0.29
808.802	0.35
808.974	0.04
809.146	-0.2
809.318	0.1
809.491	0.02
809.663	0.36
809.835	0
810.007	0.38
810.18	0.21
810.352	-0.44
810.524	-0.12
810.696	0.44
810.868	0.62
811.04	0.04
811.212	0.26
811.384	0.73
811.556	0.2
811.728	0.01
811.901	0.99
812.073	-0.11
812.245	0.5
812.417	-0.02
812.589	-0.42
812.76	0.01
812.932	0.3
813.104	0.47
813.276	0.14
813.448	0.32
813.62	-0.03
813.792	0.2
813.964	0.16
814.136	0.24
814.307	0.03
814.479	0.31
814.651	-0.35
814.823	1.05
814.995	0.44
815.166	0.05
815.338	-0.17
815.51	0.09
815.681	1.04
815.853	0.22
816.025	0.07
816.196	0.87
816.368	0.75
816.54	0
816.711	0.08
816.883	0.39
817.054	0.98
817.226	-0.53
817.398	0.32
817.569	0.11
817.741	0.52
817.912	-0.08
818.084	-0.33
818.255	0.57
818.426	0.06
818.598	0.24
818.769	-0.37
818.941	-0.08
819.112	0.7
819.283	0.51
819.455	-0.02
819.626	0.22
819.798	-0.24
819.969	0.23
820.14	0.07
820.311	-0.07
820.483	-0.23
820.654	0.18
820.825	0.22
820.996	-0.2
821.168	-0.57
821.339	0.13
821.51	-0.06
821.681	-0.33
821.852	0.21
822.023	-0.62
822.195	-0.25
822.366	0.64
822.537	-0.03
822.708	0.26
822.879	-0.21
823.05	0.97
823.221	0.08
823.392	0.37
823.563	0.26
823.734	0.32
823.905	0.02
824.076	-0.32
824.247	-0.32
824.418	-0.09
824.589	1.1
824.759	0.06
824.93	0.18
825.101	-0.29
825.272	0.74
825.443	1.21
825.614	0.26
825.784	-0.74
825.955	1.2
826.126	0.92
826.297	0.09
826.467	1.07
826.638	1.01
826.809	-0.4
826.98	0.11
827.15	0.32
827.321	0.89
827.492	0.98
827.662	0.16
827.833	0.7
828.003	1.29
828.174	-0.47
828.345	-0.72
828.515	0.41
828.686	0.52
828.856	-0.05
829.027	0.32
829.197	0.41
829.368	0.13
829.538	-0.71
829.709	-0.02
829.879	0
830.049	0.08
830.22	0.11
830.39	0.12
830.56	0.46
830.731	0.03
830.901	0.04
831.072	-0.12
831.242	0.17
831.412	0.03
831.582	-0.18
831.753	-0.19
831.923	1.17
832.093	-0.14
832.263	-0.09
832.434	-0.26
832.604	-0.1
832.774	0.73
832.944	0.34
833.114	0.56
833.284	0.51
833.454	0.21
833.624	-0.03
833.795	-0.15
833.965	1.56
834.135	1.09
834.305	-0.55
834.475	-0.4
834.645	0.09
834.815	0.02
834.985	0.14
835.155	-0.24
835.325	0.82
835.494	1.15
835.664	0.25
835.834	-0.68
836.004	0.32
836.174	-0.1
836.344	-0
836.514	-0.61
836.684	-0.32
836.853	0.37
837.023	0.75
837.193	-0.26
837.363	1.19
837.532	0.72
837.702	0.53
837.872	-0.3
838.041	0.72
838.211	1.32
838.381	-0.64
838.55	-0.04
838.72	2.77
838.89	1.33
839.059	-0.12
839.229	0
839.398	2.18
839.568	0.78
839.738	0.23
839.907	0.95
840.077	0.83
840.246	-0.54
840.416	-0.98
840.585	-0.67
840.755	1.3
840.924	1.32
841.093	-0.39
841.263	-0.07
841.432	0.44
841.602	-0.73
841.771	-0.67
841.94	0.45
842.11	1.69
842.279	1.27
842.448	-0.87
842.617	-0.65
842.787	0.33
842.956	-0.32
843.125	-0.41
843.294	0.54
843.464	1.36
843.633	0.04
843.802	-0.69
843.971	0.88
844.14	0.43
844.309	1.22
844.479	-0.36
844.648	0.23
844.817	-0.27
844.986	0.46
845.155	-0.58
845.324	0.23
845.493	0.28
845.662	-0.2
845.831	1.35
846	0.79
846.169	0.18
846.338	1.23
846.507	0.1
846.676	0.35
846.844	-0.27
847.013	0.17
847.182	0.19
847.351	-0.33
847.52	-0.05
847.689	-0.12
847.858	0.06
848.026	-0.28
848.195	-0.94
848.364	-0.4
848.533	0.01
848.701	0.01
848.87	0.83
849.039	0.73
849.207	0.69
849.376	1.09
849.545	0.95
849.713	-0.71
849.882	-0.37
850.051	0.33
850.219	1.17
850.388	0.67
850.556	-0.61
850.725	-0.68
850.893	0.8
851.062	-0.34
851.23	0.44
851.399	-0.26
851.567	-0.28
851.736	0.68
851.904	-0.78
852.073	0.28
852.241	0.85
852.41	0.54
852.578	-0.15
852.746	-0.7
852.915	0.51
853.083	-0.1
853.251	-1.9
853.42	0.1
853.588	0.68
853.756	1.43
853.924	0.55
854.093	-0.25
854.261	1.14
854.429	-1.2
854.597	1.32
854.765	-0.31
854.934	0.65
855.102	1.25
855.27	0.3
855.438	1.96
855.606	1.56
855.774	1.13
855.942	-1.23
856.11	-0.94
856.278	0.65
856.446	1.29
856.614	0.56
856.782	-0.26
856.95	1.97
857.118	-0.05
857.286	1.96
857.454	-0.95
857.622	0.62
857.79	0.97
857.958	-0.48
858.126	-0.38
858.294	-2.48
858.462	-0.59
858.629	-1.16
858.797	0.09
858.965	0.22
859.133	0.1
859.301	0.12
859.468	0.51
859.636	-0.78
859.804	2.63
859.971	1.16
860.139	-1.1
860.307	0.65
860.474	-0.14
860.642	-0.77
860.81	0.36
860.977	0.61
861.145	2.23
861.313	0.16
861.48	0.51
861.648	-0.01
861.815	-0.33
861.983	-0.17
862.15	-0.71
862.318	0.93
862.485	0.03
862.653	-0.5
862.82	-1.71
862.988	0.94
863.155	0.53
863.322	-1.3
863.49	-1.32
863.657	-0.18
863.824	2.21
863.992	0.99
864.159	0.78
864.326	1.38
864.494	-1.28
864.661	1.64
864.828	-2.06
864.996	0.65
865.163	1.76
865.33	0.36
865.497	-3.14
865.664	-0.49
865.832	-1.5
865.999	-0.14
866.166	-0.66
866.333	-0.68
866.5	0.65
866.667	0.41
866.834	0.74
867.001	1.92
867.168	-0.75
867.335	-1.03
867.502	-1.59
867.669	-0.53
867.836	2.04
868.003	0.57
868.17	1.12
868.337	1.37
868.504	2.46
868.671	-1.14
868.838	-0.25
869.005	-0.28
869.172	0.96
869.339	0.23
869.505	-0.59
869.672	0.21
869.839	1.47
870.006	1.03
870.173	-0.87
870.339	-1.17
870.506	2.57
870.673	-1.48
870.84	0.56
871.006	1.31
871.173	0.18
871.34	-0.15
871.506	-2.3
871.673	0.51
871.839	-2.02
872.006	0.81
872.173	-0.94
872.339	0.08
872.506	1.52
872.672	0.09
872.839	-2.65
873.005	0.84
873.172	2.58
873.338	1.13
873.505	0.34
873.671	-0.73
873.838	0.11
874.004	-2.08
874.171	-0.26
874.337	2.53
874.503	0.89
874.67	-1.59
874.836	0.53
875.002	1.36
875.169	0.97
875.335	0.66
875.501	-0.5
875.668	3
875.834	0.08
876	-0.51
876.166	0.85
876.332	1.73
876.499	3.71
876.665	0.01
876.831	-0.54
876.997	4.37
877.163	0.76
877.329	-0.34
877.495	0.38
877.662	2.1
877.828	-0.08
877.994	-1.09
878.16	-3.33
878.326	-0.1
878.492	0.68
878.658	-0.43
878.824	0.25
878.99	0.53
879.156	0.61
879.322	2.77
879.487	0.53
879.653	1.15
879.819	1.46
879.985	-0.83
880.151	1.75
880.317	-0.4
880.483	-0.23
880.648	1.99
880.814	-2.27
880.98	0.72
881.146	-3.05
881.312	-1.94
881.477	2.13
881.643	-0.01
881.809	2.46
881.974	2.38
882.14	-1.55
882.306	2.38
882.471	3.4
882.637	-0.16
882.803	1.6
882.968	1.69
883.134	3.77
883.299	-0.44
883.465	-1.05
883.63	2.47
883.796	1.71
883.961	1.72
884.127	0.59
884.292	-4.15
884.458	-3.81
884.623	-3.81
