Data from Apollo_Calib_20240827__AbsoluteIrradiance__708__10-57-02-346.txt Node

Date: Wed Aug 28 10:57:02 BST 2024
User: biology
Spectrometer: FLMT08252
Trigger mode: 0
Integration Time (sec): 5.000000E-1
Scans to average: 5
Electric dark correction enabled: true
Nonlinearity correction enabled: false
Boxcar width: 0
XAxis mode: Wavelengths
Number of Pixels in Spectrum: 3648
>>>>>Begin Spectral Data<<<<<
179.588	-0
179.809	-0
180.03	-0
180.251	-0
180.473	-0
180.694	0
180.915	0
181.136	-0
181.357	0
181.578	-0
181.799	-0
182.02	-0
182.241	-0
182.462	-0
182.683	0
182.904	-0
183.125	-0
183.346	0
183.567	0
183.788	-0
184.009	-0
184.23	0
184.451	0
184.672	-0
184.892	-0
185.113	0
185.334	0
185.555	-0
185.776	-0
185.996	0
186.217	-0
186.438	0
186.659	-0
186.879	0
187.1	-0
187.321	-0
187.541	-0
187.762	-0
187.983	0
188.203	-0
188.424	-0
188.644	-0
188.865	-0
189.086	-0
189.306	0
189.527	0
189.747	0
189.968	-0
190.188	0
190.409	-0
190.629	0
190.849	-0
191.07	-0
191.29	0
191.511	-0
191.731	-0
191.951	-0
192.172	-0
192.392	-0
192.612	-0
192.833	-0
193.053	0
193.273	-0
193.493	-0
193.714	-0
193.934	0
194.154	0
194.374	0
194.594	-0
194.815	0
195.035	-0
195.255	-0
195.475	-0
195.695	0
195.915	0
196.135	0
196.355	0
196.575	0
196.795	-0
197.015	-0
197.235	-0
197.455	-0
197.675	-0
197.895	-0
198.115	-0
198.335	0
198.555	-0
198.775	-0
198.995	0
199.214	0
199.434	-0
199.654	-0
199.874	0
200.094	0.36
200.313	-0.04
200.533	-0.88
200.753	-0.68
200.973	0.46
201.192	0.5
201.412	-1.13
201.632	-0.21
201.851	0.34
202.071	-0.65
202.291	-0.33
202.51	-0.55
202.73	0.32
202.95	-0.7
203.169	-0.87
203.389	0.14
203.608	0.37
203.828	-0.29
204.047	-0.34
204.267	0.32
204.486	0.43
204.706	0.21
204.925	-0.17
205.145	-0.26
205.364	0.22
205.583	0.8
205.803	-0.54
206.022	-0.35
206.242	-0.07
206.461	-0.13
206.68	-0.19
206.9	0
207.119	0.63
207.338	0.04
207.557	-0.49
207.777	-0.05
207.996	-0.08
208.215	0.44
208.434	-0.3
208.654	-0.39
208.873	-0.22
209.092	0.46
209.311	-0.1
209.53	-0.34
209.749	-0.42
209.968	-0.18
210.187	-0.09
210.407	-0.3
210.626	-0.36
210.845	0.07
211.064	-0.07
211.283	-0.41
211.502	0.26
211.721	0.14
211.94	-0.18
212.159	0.22
212.377	0.33
212.596	0.18
212.815	-0.02
213.034	0.02
213.253	0.31
213.472	0.1
213.691	-0.21
213.91	-0.15
214.128	-0.05
214.347	0.42
214.566	-0.5
214.785	-0.38
215.003	0.06
215.222	-0.03
215.441	-0.07
215.66	-0.13
215.878	-0.06
216.097	0.35
216.316	-0.37
216.534	-0.06
216.753	0.05
216.972	0.01
217.19	-0.12
217.409	-0.22
217.627	-0.17
217.846	-0.15
218.064	0.01
218.283	-0.24
218.501	0.26
218.72	0.08
218.938	-0.06
219.157	-0.09
219.375	0.2
219.594	-0.09
219.812	-0.26
220.031	-0.2
220.249	0.37
220.467	0.15
220.686	-0.18
220.904	-0.13
221.122	-0.12
221.341	0.32
221.559	0.01
221.777	-0.34
221.995	-0.08
222.214	0.13
222.432	-0.14
222.65	0.23
222.868	0.06
223.086	0.03
223.305	0.1
223.523	-0.08
223.741	0.25
223.959	-0.15
224.177	-0.21
224.395	-0.09
224.613	-0.05
224.831	0.18
225.049	-0.11
225.267	-0.21
225.485	-0.02
225.703	-0.06
225.921	-0
226.139	-0.08
226.357	0.05
226.575	0.05
226.793	-0.11
227.011	0.36
227.229	0.08
227.447	0.14
227.665	-0.18
227.883	-0.27
228.1	-0.06
228.318	-0.02
228.536	-0.19
228.754	-0.19
228.972	0.04
229.189	0.01
229.407	-0.14
229.625	-0.04
229.843	0.21
230.06	0.05
230.278	-0.07
230.496	-0.06
230.713	-0.04
230.931	-0.02
231.149	-0.16
231.366	-0.09
231.584	0.07
231.801	0.39
232.019	-0.13
232.236	-0.19
232.454	-0.15
232.671	0.08
232.889	0.01
233.106	-0.16
233.324	-0.02
233.541	-0.08
233.759	-0.02
233.976	-0.09
234.194	-0.09
234.411	-0.03
234.628	-0.03
234.846	-0.11
235.063	0
235.28	-0.06
235.498	-0.05
235.715	-0.17
235.932	0.16
236.149	-0.1
236.367	-0.04
236.584	-0.03
236.801	-0.11
237.018	0.01
237.236	-0.02
237.453	-0.2
237.67	0.12
237.887	-0.06
238.104	-0.04
238.321	-0.02
238.538	-0.14
238.755	0.04
238.973	-0.11
239.19	0.03
239.407	-0.01
239.624	0
239.841	-0.18
240.058	-0.09
240.275	0.03
240.492	-0.05
240.709	-0.07
240.925	-0.04
241.142	-0.03
241.359	-0.13
241.576	-0.17
241.793	-0.04
242.01	-0.03
242.227	0.08
242.444	-0.02
242.66	0.12
242.877	0.08
243.094	-0.09
243.311	-0.03
243.527	-0
243.744	0.01
243.961	0.09
244.178	-0.03
244.394	0.06
244.611	0.09
244.828	0.03
245.044	-0.09
245.261	0.01
245.477	0.03
245.694	0.08
245.911	-0.06
246.127	-0.07
246.344	0.15
246.56	0.02
246.777	-0.03
246.993	-0
247.21	0.02
247.426	0.04
247.643	-0.07
247.859	-0.11
248.076	-0.01
248.292	0.17
248.508	-0.16
248.725	0.03
248.941	-0.03
249.157	0.07
249.374	-0.08
249.59	-0.01
249.806	0.02
250.023	0.12
250.239	-0.09
250.455	-0.03
250.671	0.01
250.888	0.1
251.104	0.02
251.32	-0.06
251.536	-0.06
251.752	-0.04
251.969	0.03
252.185	0.02
252.401	0.14
252.617	0.04
252.833	-0.02
253.049	-0.04
253.265	0.01
253.481	0
253.697	-0.08
253.913	-0.06
254.129	0.07
254.345	0.01
254.561	0.01
254.777	-0.05
254.993	-0
255.209	0.02
255.425	-0.01
255.641	-0.06
255.857	0.08
256.073	-0.02
256.288	-0.04
256.504	-0
256.72	0.05
256.936	0.13
257.152	-0.03
257.367	-0.07
257.583	0.01
257.799	0.06
258.015	-0.04
258.23	-0.06
258.446	0.12
258.662	-0.02
258.877	-0.1
259.093	-0.12
259.309	-0.01
259.524	-0.01
259.74	-0.02
259.955	-0.14
260.171	0.02
260.387	-0.03
260.602	0.07
260.818	-0.01
261.033	-0.06
261.249	-0.02
261.464	-0.04
261.68	-0.02
261.895	-0
262.11	0.01
262.326	-0.04
262.541	-0.08
262.757	0.02
262.972	0.02
263.187	-0.01
263.403	-0.03
263.618	0.02
263.833	-0.06
264.049	-0.05
264.264	0.04
264.479	-0.01
264.694	0.13
264.91	-0.09
265.125	0.03
265.34	0.05
265.555	0.17
265.77	0.04
265.986	0.01
266.201	0.03
266.416	0.09
266.631	-0.06
266.846	-0.03
267.061	-0.07
267.276	0.07
267.491	-0.14
267.706	0.03
267.921	0.02
268.136	-0
268.351	-0.02
268.566	-0
268.781	0.09
268.996	-0
269.211	0.05
269.426	-0.1
269.641	-0.03
269.856	0.01
270.071	-0.03
270.285	-0.09
270.5	0.07
270.715	0.06
270.93	0.02
271.145	-0.01
271.359	0.08
271.574	-0.02
271.789	-0.01
272.004	-0.05
272.218	-0.02
272.433	0.05
272.648	-0.06
272.862	0.07
273.077	0
273.292	0.03
273.506	-0.08
273.721	-0.05
273.936	0.02
274.15	0.1
274.365	-0.02
274.579	0.04
274.794	0.08
275.008	0.05
275.223	-0.08
275.437	-0.03
275.652	0.03
275.866	0.05
276.081	0.03
276.295	0.13
276.509	0.02
276.724	-0.02
276.938	-0.01
277.153	0.03
277.367	0.12
277.581	-0.01
277.796	0.01
278.01	-0.06
278.224	0.07
278.438	0.13
278.653	-0.07
278.867	-0.05
279.081	-0.19
279.295	0
279.51	0.06
279.724	-0.1
279.938	-0.03
280.152	0.04
280.366	-0.04
280.58	0.02
280.794	0.12
281.008	-0
281.222	0.05
281.437	0.1
281.651	0.02
281.865	0.1
282.079	-0.04
282.293	-0.09
282.507	-0.04
282.721	0
282.935	0
283.148	-0.03
283.362	-0.08
283.576	-0.04
283.79	-0.01
284.004	-0.05
284.218	0.06
284.432	-0.03
284.646	-0.02
284.859	0.04
285.073	-0.05
285.287	0.05
285.501	-0.01
285.714	0.06
285.928	-0.02
286.142	0.02
286.356	-0.07
286.569	-0.02
286.783	0.08
286.997	0.06
287.21	-0
287.424	0.07
287.637	0.02
287.851	0
288.065	0.03
288.278	0
288.492	-0.02
288.705	0.04
288.919	0.01
289.132	-0.04
289.346	0.11
289.559	-0.07
289.773	-0.11
289.986	0.02
290.2	0
290.413	0.03
290.626	-0.08
290.84	-0.03
291.053	0.03
291.267	0.07
291.48	-0
291.693	-0.02
291.906	-0.04
292.12	-0.02
292.333	-0.01
292.546	-0.02
292.76	0.07
292.973	0.08
293.186	0.04
293.399	-0.03
293.612	0.02
293.826	0.02
294.039	-0.04
294.252	-0.03
294.465	0.01
294.678	0.03
294.891	0.04
295.104	-0.09
295.317	-0.01
295.53	0.02
295.743	-0.01
295.956	-0.02
296.169	0.09
296.382	0.01
296.595	0.01
296.808	-0.05
297.021	0.03
297.234	0.02
297.447	-0.01
297.66	0.04
297.873	0.01
298.086	0.04
298.299	-0.02
298.511	-0.06
298.724	-0.04
298.937	-0.03
299.15	-0.04
299.363	-0.05
299.575	0.02
299.788	0.02
300.001	-0.03
300.213	-0.02
300.426	0
300.639	-0.02
300.852	-0.05
301.064	0.06
301.277	0.04
301.489	0.05
301.702	0.05
301.915	-0.04
302.127	-0.01
302.34	0.03
302.552	0.01
302.765	-0.02
302.977	0.01
303.19	-0.04
303.402	0.01
303.615	0.03
303.827	-0.03
304.04	-0.04
304.252	-0.01
304.464	-0.03
304.677	0.1
304.889	0.04
305.102	-0.03
305.314	-0.01
305.526	0.03
305.739	0.01
305.951	-0.01
306.163	-0.02
306.375	0.07
306.588	-0.04
306.8	-0.05
307.012	-0.05
307.224	0.01
307.436	0.1
307.649	-0.08
307.861	0.01
308.073	0.05
308.285	-0.01
308.497	-0.02
308.709	-0.06
308.921	0.01
309.133	0.03
309.346	-0.01
309.558	0
309.77	0.07
309.982	0.07
310.194	0.05
310.406	-0.01
310.617	0.09
310.829	-0
311.041	0.07
311.253	-0.03
311.465	-0.02
311.677	-0.02
311.889	0.02
312.101	-0.01
312.313	0.04
312.524	0.07
312.736	-0.06
312.948	-0.02
313.16	0.09
313.372	0.03
313.583	0
313.795	-0
314.007	-0.03
314.218	0.01
314.43	-0.02
314.642	-0.02
314.853	-0.07
315.065	0.01
315.277	0.01
315.488	0
315.7	0.07
315.912	0.02
316.123	-0.01
316.335	0.03
316.546	0.09
316.758	0.04
316.969	-0.01
317.181	0
317.392	0.04
317.604	0.04
317.815	0
318.026	-0.02
318.238	-0.02
318.449	0.01
318.661	-0.09
318.872	-0.04
319.083	-0.07
319.295	0.02
319.506	-0.08
319.717	0.02
319.929	0
320.14	-0.01
320.351	0.01
320.562	0
320.774	-0
320.985	0.03
321.196	-0
321.407	-0.06
321.618	-0
321.829	0.03
322.041	-0
322.252	-0.01
322.463	-0
322.674	0.03
322.885	-0.04
323.096	-0.02
323.307	0.03
323.518	0.02
323.729	-0.04
323.94	-0.06
324.151	-0.03
324.362	0.01
324.573	-0
324.784	-0.08
324.995	0.02
325.206	0.03
325.417	0
325.628	-0.01
325.838	0.01
326.049	-0.01
326.26	0.05
326.471	-0.02
326.682	-0
326.892	0
327.103	-0.05
327.314	-0.06
327.525	0.09
327.735	0.01
327.946	-0.02
328.157	-0.03
328.368	0.03
328.578	-0.06
328.789	0.01
328.999	0
329.21	-0.04
329.421	0.02
329.631	-0.02
329.842	-0.02
330.052	-0.02
330.263	0.05
330.473	0.07
330.684	0.02
330.894	-0.04
331.105	0.03
331.315	-0
331.526	-0.06
331.736	0.03
331.947	-0.01
332.157	-0.01
332.367	-0.05
332.578	0.05
332.788	0.06
332.999	0
333.209	0.01
333.419	-0.05
333.629	0.02
333.84	0.03
334.05	-0.03
334.26	0.01
334.47	0
334.681	0.01
334.891	-0.02
335.101	0.05
335.311	0.11
335.521	0.01
335.732	-0.04
335.942	0.08
336.152	0
336.362	0.04
336.572	-0
336.782	0.03
336.992	-0.01
337.202	-0.05
337.412	-0.04
337.622	0.04
337.832	-0.03
338.042	0.06
338.252	-0.06
338.462	-0.05
338.672	0.01
338.882	0
339.092	0.06
339.302	0.09
339.511	-0.01
339.721	-0.03
339.931	-0.09
340.141	0.01
340.351	0.04
340.561	0.05
340.77	0.02
340.98	-0.01
341.19	0.02
341.4	-0.02
341.609	-0.04
341.819	-0.04
342.029	-0.03
342.238	-0.01
342.448	-0.04
342.658	0.04
342.867	0.02
343.077	0.02
343.286	0
343.496	-0.04
343.706	0.04
343.915	-0.05
344.125	0
344.334	0.04
344.544	-0.06
344.753	-0
344.963	0.03
345.172	-0.02
345.381	-0.02
345.591	-0.07
345.8	0
346.01	0.04
346.219	0.05
346.428	-0.17
346.638	-0.04
346.847	-0
347.056	0.01
347.266	-0.02
347.475	-0.02
347.684	0.02
347.893	-0.02
348.103	0.02
348.312	-0.01
348.521	0.01
348.73	-0.04
348.94	0.02
349.149	-0.03
349.358	0
349.567	-0.02
349.776	-0.07
349.985	-0.01
350.194	0.05
350.403	0.05
350.612	-0.05
350.821	-0.03
351.03	0.01
351.239	-0.01
351.448	0.01
351.657	-0.03
351.866	0.05
352.075	-0.04
352.284	-0.03
352.493	-0.06
352.702	0.06
352.911	-0.03
353.12	-0.01
353.329	0.01
353.538	0.01
353.746	0.05
353.955	-0.03
354.164	0.04
354.373	-0.02
354.582	0.06
354.79	0.02
354.999	0.04
355.208	0.01
355.416	0.07
355.625	-0.02
355.834	-0.03
356.042	0.05
356.251	-0.01
356.46	-0
356.668	0
356.877	0.07
357.085	0.06
357.294	-0.08
357.503	0.03
357.711	0
357.92	0.09
358.128	0
358.337	0.01
358.545	-0.04
358.754	-0.01
358.962	0.06
359.17	0.02
359.379	0.01
359.587	0.04
359.796	-0
360.004	0.06
360.212	0.02
360.421	0.04
360.629	0
360.837	-0.03
361.046	0.02
361.254	0.1
361.462	0.02
361.67	-0
361.879	-0.04
362.087	0.09
362.295	-0.02
362.503	-0.04
362.711	-0.03
362.92	-0.05
363.128	-0.05
363.336	-0.04
363.544	-0.06
363.752	-0.03
363.96	-0.04
364.168	-0.03
364.376	0.03
364.584	-0
364.792	0.04
365	0.05
365.208	-0.04
365.416	0.01
365.624	0.01
365.832	-0.02
366.04	0.06
366.248	-0.01
366.456	0.04
366.664	-0.01
366.872	-0.02
367.079	0.01
367.287	0
367.495	-0.04
367.703	0.02
367.911	-0.03
368.118	0
368.326	-0.01
368.534	-0.03
368.742	0.04
368.949	-0.02
369.157	-0.01
369.365	0.02
369.572	-0
369.78	-0.03
369.988	0.03
370.195	0.02
370.403	0.05
370.61	-0.03
370.818	0
371.026	0.03
371.233	-0.05
371.441	0.01
371.648	-0.01
371.856	0
372.063	0.01
372.271	-0
372.478	0
372.685	-0.02
372.893	0.03
373.1	0.04
373.308	-0.01
373.515	0.06
373.722	0
373.93	0.05
374.137	0.05
374.344	0.04
374.552	0.06
374.759	0.04
374.966	0.02
375.173	-0
375.381	0.04
375.588	-0.01
375.795	-0.08
376.002	-0
376.209	-0.03
376.417	-0.01
376.624	-0
376.831	0.01
377.038	-0.03
377.245	-0.09
377.452	-0
377.659	-0
377.866	-0.05
378.073	-0.03
378.28	0.01
378.487	0.08
378.694	-0.01
378.901	-0.01
379.108	0
379.315	0.03
379.522	0.05
379.729	0.01
379.936	-0.04
380.143	-0.01
380.35	0.02
380.557	0.03
380.763	0.01
380.97	0.01
381.177	0.02
381.384	0.02
381.591	-0.03
381.797	-0.02
382.004	0
382.211	0.04
382.418	-0.06
382.624	0.04
382.831	0.05
383.038	-0.07
383.244	-0.02
383.451	-0.04
383.658	-0
383.864	0.02
384.071	-0.02
384.277	0.03
384.484	-0.01
384.69	0.01
384.897	0.04
385.103	-0
385.31	-0.03
385.516	-0.02
385.723	-0.02
385.929	-0
386.136	-0
386.342	-0.01
386.549	-0.01
386.755	0.06
386.961	0.01
387.168	-0.02
387.374	0.01
387.58	0
387.787	-0.06
387.993	0.04
388.199	-0.02
388.406	-0.04
388.612	-0.02
388.818	-0.01
389.024	-0.03
389.231	0.02
389.437	0.06
389.643	0.03
389.849	-0.01
390.055	0
390.261	0.02
390.467	-0.01
390.674	-0.03
390.88	0
391.086	0.05
391.292	-0.05
391.498	0
391.704	-0
391.91	0.02
392.116	-0.02
392.322	-0.07
392.528	-0.02
392.734	0.01
392.94	0.02
393.146	-0.05
393.352	-0.02
393.557	-0.03
393.763	-0
393.969	0.01
394.175	-0.01
394.381	-0
394.587	-0.04
394.792	-0.02
394.998	0.02
395.204	0.02
395.41	-0.02
395.615	0.01
395.821	0.02
396.027	0.03
396.233	-0.01
396.438	0
396.644	0.05
396.85	0
397.055	0.02
397.261	-0.01
397.466	0.11
397.672	0
397.878	0.03
398.083	0.03
398.289	-0
398.494	0.05
398.7	0.02
398.905	-0.07
399.111	0.05
399.316	-0.06
399.522	-0.06
399.727	-0
399.932	-0.01
400.138	0.01
400.343	0.05
400.549	0.02
400.754	0.06
400.959	0.04
401.165	0.02
401.37	0.02
401.575	0.09
401.78	-0.02
401.986	-0.06
402.191	-0.02
402.396	0
402.601	0.09
402.807	0
403.012	-0.02
403.217	0
403.422	-0.03
403.627	0.05
403.832	-0.04
404.037	0.04
404.243	0
404.448	-0.02
404.653	-0.05
404.858	-0.02
405.063	0.1
405.268	-0.03
405.473	-0.05
405.678	-0.01
405.883	0.08
406.088	0.06
406.293	-0.06
406.498	-0.05
406.703	0.06
406.907	-0.01
407.112	-0.05
407.317	0
407.522	0.01
407.727	-0.07
407.932	-0.02
408.136	0.06
408.341	-0.03
408.546	-0.01
408.751	0.01
408.956	0.01
409.16	0.06
409.365	0.04
409.57	-0.06
409.774	-0.03
409.979	0.04
410.184	-0.02
410.388	-0.04
410.593	0.06
410.798	0.03
411.002	0.01
411.207	-0
411.411	0.01
411.616	-0.04
411.82	-0.05
412.025	0.01
412.229	0.01
412.434	0.08
412.638	0.02
412.843	0.03
413.047	0.04
413.252	-0.03
413.456	-0.02
413.66	0.05
413.865	-0.06
414.069	0.07
414.273	0.01
414.478	-0.03
414.682	-0.01
414.886	-0.02
415.091	-0.07
415.295	-0.03
415.499	0.05
415.703	-0.02
415.908	0.04
416.112	-0.04
416.316	0.08
416.52	-0.03
416.724	0.01
416.929	0.02
417.133	0.09
417.337	0.01
417.541	-0.01
417.745	0.01
417.949	0.07
418.153	0.07
418.357	0.01
418.561	0.12
418.765	0.01
418.969	0.1
419.173	0.06
419.377	-0.01
419.581	0.13
419.785	0.01
419.989	0.01
420.193	0.06
420.397	0.08
420.601	0.05
420.804	0.08
421.008	0.11
421.212	0.05
421.416	0.09
421.62	0.04
421.823	0.1
422.027	0.14
422.231	0.12
422.435	0.03
422.638	0.09
422.842	0.08
423.046	-0
423.249	0.12
423.453	0.11
423.657	0.08
423.86	0.1
424.064	0.07
424.268	0.17
424.471	0.05
424.675	0.17
424.878	0.12
425.082	0.15
425.285	0.15
425.489	0.13
425.692	0.11
425.896	0.04
426.099	0.11
426.303	0.06
426.506	0.03
426.71	0.13
426.913	0.18
427.116	0.17
427.32	0.16
427.523	0.16
427.726	0.24
427.93	0.09
428.133	0.12
428.336	0.08
428.54	0.1
428.743	0.2
428.946	0.19
429.149	0.09
429.353	0.19
429.556	0.18
429.759	0.18
429.962	0.14
430.165	0.18
430.368	0.17
430.571	0.12
430.775	0.19
430.978	0.19
431.181	0.19
431.384	0.19
431.587	0.14
431.79	0.16
431.993	0.21
432.196	0.2
432.399	0.22
432.602	0.27
432.805	0.2
433.008	0.14
433.211	0.2
433.414	0.25
433.616	0.26
433.819	0.19
434.022	0.12
434.225	0.28
434.428	0.32
434.631	0.31
434.833	0.23
435.036	0.22
435.239	0.29
435.442	0.25
435.645	0.28
435.847	0.23
436.05	0.31
436.253	0.3
436.455	0.21
436.658	0.24
436.861	0.34
437.063	0.21
437.266	0.3
437.468	0.3
437.671	0.37
437.874	0.3
438.076	0.24
438.279	0.23
438.481	0.32
438.684	0.26
438.886	0.36
439.089	0.26
439.291	0.3
439.494	0.39
439.696	0.24
439.899	0.35
440.101	0.37
440.303	0.27
440.506	0.38
440.708	0.35
440.91	0.4
441.113	0.35
441.315	0.42
441.517	0.36
441.72	0.44
441.922	0.33
442.124	0.35
442.326	0.45
442.529	0.5
442.731	0.42
442.933	0.54
443.135	0.44
443.337	0.39
443.539	0.42
443.742	0.45
443.944	0.5
444.146	0.41
444.348	0.47
444.55	0.4
444.752	0.49
444.954	0.42
445.156	0.49
445.358	0.42
445.56	0.55
445.762	0.48
445.964	0.47
446.166	0.42
446.368	0.5
446.57	0.55
446.772	0.48
446.974	0.49
447.175	0.53
447.377	0.48
447.579	0.44
447.781	0.4
447.983	0.55
448.184	0.47
448.386	0.49
448.588	0.39
448.79	0.42
448.991	0.46
449.193	0.46
449.395	0.44
449.597	0.48
449.798	0.45
450	0.41
450.202	0.43
450.403	0.41
450.605	0.44
450.806	0.42
451.008	0.33
451.21	0.38
451.411	0.37
451.613	0.36
451.814	0.4
452.016	0.43
452.217	0.36
452.419	0.42
452.62	0.34
452.821	0.34
453.023	0.38
453.224	0.38
453.426	0.3
453.627	0.33
453.828	0.37
454.03	0.33
454.231	0.29
454.432	0.21
454.634	0.32
454.835	0.21
455.036	0.22
455.238	0.27
455.439	0.3
455.64	0.21
455.841	0.23
456.042	0.31
456.244	0.27
456.445	0.21
456.646	0.17
456.847	0.18
457.048	0.22
457.249	0.23
457.45	0.44
457.651	0.1
457.852	0.22
458.054	0.21
458.255	0.17
458.456	0.23
458.657	0.19
458.858	0.12
459.058	0.18
459.259	0.22
459.46	0.1
459.661	0.08
459.862	0.24
460.063	0.15
460.264	0.22
460.465	0.12
460.666	0.27
460.866	0.14
461.067	0.14
461.268	0.1
461.469	0.12
461.67	0.15
461.87	0.08
462.071	0.08
462.272	0.09
462.473	0.17
462.673	0.19
462.874	0.09
463.075	0.11
463.275	0.11
463.476	0.12
463.676	0.08
463.877	0.11
464.078	0.12
464.278	0.21
464.479	0.05
464.679	0.09
464.88	0.14
465.08	0.12
465.281	0.05
465.481	0.1
465.682	0.08
465.882	0.13
466.083	0.09
466.283	0.12
466.483	0.1
466.684	0.04
466.884	0.06
467.085	0.1
467.285	0.1
467.485	0.09
467.686	0.05
467.886	0.06
468.086	0.03
468.286	0.07
468.487	0.1
468.687	0.04
468.887	0.08
469.087	0.08
469.287	0.08
469.488	0.02
469.688	0.12
469.888	0.08
470.088	0.09
470.288	0.14
470.488	0.12
470.688	0.02
470.888	0.04
471.088	0.04
471.288	0.06
471.488	0.14
471.688	0.09
471.888	0.02
472.088	0.07
472.288	0.05
472.488	0.03
472.688	0.06
472.888	0.04
473.088	0.06
473.288	0.06
473.488	0.05
473.688	0.13
473.887	0.06
474.087	0.03
474.287	0.11
474.487	0.03
474.687	0.07
474.886	0.04
475.086	0.04
475.286	0.05
475.486	0.06
475.685	0.01
475.885	0.06
476.085	0.03
476.284	0.09
476.484	0.04
476.684	0.08
476.883	0.1
477.083	0.09
477.282	0.01
477.482	0.1
477.681	0.11
477.881	0.06
478.08	0.02
478.28	0.03
478.479	0.08
478.679	0.13
478.878	0.05
479.078	0.01
479.277	0.05
479.477	0.02
479.676	0.08
479.875	0.04
480.075	-0.03
480.274	0.08
480.473	0.06
480.673	0.01
480.872	0.07
481.071	0.04
481.271	0.07
481.47	0.02
481.669	0.05
481.868	0.04
482.067	0.01
482.267	0.01
482.466	-0.01
482.665	0.03
482.864	0.01
483.063	0.01
483.262	0.08
483.461	0.1
483.661	0.06
483.86	0.04
484.059	0.04
484.258	0.02
484.457	0.04
484.656	0.04
484.855	0.08
485.054	-0.01
485.253	0.01
485.452	-0.03
485.651	0.06
485.849	0.05
486.048	0.02
486.247	0.01
486.446	0.05
486.645	0.02
486.844	0.01
487.043	0.05
487.241	0.06
487.44	0.03
487.639	0.03
487.838	0.06
488.037	0.03
488.235	0.07
488.434	0.05
488.633	0.04
488.831	0.06
489.03	0.08
489.229	0.07
489.427	0.05
489.626	0.09
489.825	0.11
490.023	0.07
490.222	0.03
490.42	0.07
490.619	0.11
490.817	0.06
491.016	0.04
491.214	0.08
491.413	0.05
491.611	0.05
491.81	0.07
492.008	0.06
492.207	0.07
492.405	0.07
492.604	0.03
492.802	0.06
493	0.08
493.199	0.05
493.397	0.05
493.595	0.05
493.794	0.07
493.992	0.09
494.19	0.06
494.388	0.05
494.587	0.06
494.785	0.06
494.983	0.05
495.181	0.07
495.379	0.05
495.578	0.05
495.776	0.09
495.974	0.08
496.172	0.07
496.37	0.06
496.568	0.05
496.766	0.04
496.964	0.12
497.162	0.11
497.36	0.06
497.558	0.09
497.756	0.12
497.954	0.06
498.152	0.07
498.35	0.08
498.548	0.07
498.746	0.06
498.944	0.05
499.142	0.09
499.34	0.05
499.538	0.1
499.736	0.06
499.933	0.11
500.131	0.12
500.329	0.1
500.527	0.13
500.725	0.14
500.922	0.13
501.12	0.11
501.318	0.1
501.516	0.07
501.713	0.11
501.911	0.08
502.109	0.06
502.306	0.12
502.504	0.08
502.701	0.09
502.899	0.11
503.097	0.16
503.294	0.12
503.492	0.1
503.689	0.12
503.887	0.11
504.084	0.16
504.282	0.12
504.479	0.1
504.677	0.12
504.874	0.1
505.072	0.11
505.269	0.13
505.466	0.16
505.664	0.14
505.861	0.1
506.059	0.08
506.256	0.14
506.453	0.11
506.651	0.17
506.848	0.15
507.045	0.13
507.242	0.14
507.44	0.11
507.637	0.12
507.834	0.12
508.031	0.16
508.229	0.12
508.426	0.13
508.623	0.17
508.82	0.12
509.017	0.1
509.214	0.15
509.411	0.13
509.608	0.11
509.805	0.13
510.003	0.15
510.2	0.12
510.397	0.16
510.594	0.13
510.791	0.13
510.988	0.16
511.184	0.19
511.381	0.15
511.578	0.12
511.775	0.16
511.972	0.15
512.169	0.14
512.366	0.13
512.563	0.2
512.76	0.14
512.956	0.19
513.153	0.18
513.35	0.16
513.547	0.14
513.744	0.16
513.94	0.13
514.137	0.15
514.334	0.17
514.53	0.16
514.727	0.16
514.924	0.23
515.12	0.15
515.317	0.15
515.514	0.17
515.71	0.14
515.907	0.17
516.103	0.2
516.3	0.16
516.497	0.19
516.693	0.22
516.89	0.18
517.086	0.14
517.283	0.24
517.479	0.2
517.676	0.19
517.872	0.19
518.068	0.17
518.265	0.17
518.461	0.17
518.658	0.16
518.854	0.19
519.05	0.18
519.247	0.17
519.443	0.19
519.639	0.18
519.836	0.19
520.032	0.19
520.228	0.18
520.424	0.23
520.621	0.19
520.817	0.18
521.013	0.21
521.209	0.19
521.405	0.24
521.601	0.2
521.798	0.19
521.994	0.23
522.19	0.18
522.386	0.15
522.582	0.18
522.778	0.19
522.974	0.21
523.17	0.18
523.366	0.18
523.562	0.23
523.758	0.18
523.954	0.18
524.15	0.18
524.346	0.22
524.542	0.2
524.738	0.17
524.934	0.2
525.129	0.2
525.325	0.2
525.521	0.19
525.717	0.22
525.913	0.21
526.109	0.19
526.304	0.21
526.5	0.23
526.696	0.24
526.892	0.2
527.087	0.22
527.283	0.21
527.479	0.21
527.674	0.18
527.87	0.2
528.066	0.19
528.261	0.22
528.457	0.23
528.653	0.19
528.848	0.2
529.044	0.22
529.239	0.18
529.435	0.21
529.63	0.21
529.826	0.28
530.021	0.21
530.217	0.22
530.412	0.2
530.608	0.17
530.803	0.23
530.999	0.2
531.194	0.17
531.389	0.23
531.585	0.17
531.78	0.22
531.975	0.22
532.171	0.25
532.366	0.2
532.561	0.19
532.757	0.19
532.952	0.22
533.147	0.22
533.342	0.22
533.538	0.19
533.733	0.23
533.928	0.21
534.123	0.21
534.318	0.17
534.513	0.21
534.709	0.21
534.904	0.2
535.099	0.2
535.294	0.21
535.489	0.22
535.684	0.22
535.879	0.17
536.074	0.21
536.269	0.19
536.464	0.2
536.659	0.21
536.854	0.2
537.049	0.23
537.244	0.21
537.439	0.2
537.634	0.22
537.828	0.23
538.023	0.21
538.218	0.19
538.413	0.2
538.608	0.2
538.803	0.24
538.997	0.17
539.192	0.24
539.387	0.23
539.582	0.22
539.776	0.22
539.971	0.2
540.166	0.2
540.36	0.19
540.555	0.22
540.75	0.23
540.944	0.22
541.139	0.18
541.334	0.21
541.528	0.22
541.723	0.21
541.917	0.22
542.112	0.18
542.306	0.19
542.501	0.2
542.695	0.22
542.89	0.19
543.084	0.21
543.279	0.22
543.473	0.21
543.668	0.23
543.862	0.21
544.056	0.23
544.251	0.22
544.445	0.24
544.64	0.22
544.834	0.17
545.028	0.21
545.222	0.22
545.417	0.24
545.611	0.22
545.805	0.23
546	0.2
546.194	0.21
546.388	0.21
546.582	0.23
546.776	0.21
546.97	0.23
547.165	0.22
547.359	0.23
547.553	0.21
547.747	0.23
547.941	0.21
548.135	0.22
548.329	0.25
548.523	0.2
548.717	0.21
548.911	0.2
549.105	0.24
549.299	0.22
549.493	0.24
549.687	0.22
549.881	0.22
550.075	0.22
550.269	0.18
550.463	0.26
550.657	0.19
550.85	0.21
551.044	0.19
551.238	0.21
551.432	0.2
551.626	0.21
551.82	0.22
552.013	0.21
552.207	0.24
552.401	0.22
552.594	0.23
552.788	0.22
552.982	0.22
553.176	0.2
553.369	0.25
553.563	0.21
553.756	0.16
553.95	0.19
554.144	0.21
554.337	0.25
554.531	0.23
554.724	0.23
554.918	0.22
555.111	0.24
555.305	0.23
555.498	0.28
555.692	0.25
555.885	0.22
556.079	0.22
556.272	0.2
556.466	0.24
556.659	0.2
556.852	0.21
557.046	0.23
557.239	0.24
557.432	0.18
557.626	0.19
557.819	0.24
558.012	0.23
558.206	0.22
558.399	0.22
558.592	0.19
558.785	0.18
558.979	0.24
559.172	0.21
559.365	0.24
559.558	0.22
559.751	0.22
559.944	0.22
560.138	0.21
560.331	0.2
560.524	0.21
560.717	0.21
560.91	0.21
561.103	0.23
561.296	0.21
561.489	0.21
561.682	0.21
561.875	0.27
562.068	0.23
562.261	0.23
562.454	0.25
562.647	0.21
562.84	0.21
563.032	0.23
563.225	0.23
563.418	0.21
563.611	0.21
563.804	0.2
563.997	0.18
564.19	0.18
564.382	0.17
564.575	0.2
564.768	0.22
564.961	0.21
565.153	0.19
565.346	0.24
565.539	0.26
565.731	0.25
565.924	0.26
566.117	0.23
566.309	0.22
566.502	0.21
566.695	0.22
566.887	0.24
567.08	0.19
567.272	0.2
567.465	0.19
567.657	0.23
567.85	0.23
568.042	0.22
568.235	0.25
568.427	0.22
568.62	0.23
568.812	0.24
569.005	0.21
569.197	0.19
569.389	0.23
569.582	0.21
569.774	0.2
569.966	0.18
570.159	0.21
570.351	0.23
570.543	0.2
570.736	0.2
570.928	0.16
571.12	0.21
571.312	0.19
571.505	0.18
571.697	0.23
571.889	0.21
572.081	0.2
572.273	0.19
572.465	0.25
572.658	0.19
572.85	0.21
573.042	0.19
573.234	0.22
573.426	0.23
573.618	0.19
573.81	0.23
574.002	0.26
574.194	0.27
574.386	0.18
574.578	0.14
574.77	0.19
574.962	0.2
575.154	0.17
575.346	0.22
575.538	0.21
575.729	0.18
575.921	0.21
576.113	0.18
576.305	0.22
576.497	0.21
576.689	0.19
576.88	0.18
577.072	0.21
577.264	0.22
577.456	0.22
577.647	0.16
577.839	0.2
578.031	0.24
578.223	0.17
578.414	0.17
578.606	0.21
578.798	0.21
578.989	0.19
579.181	0.2
579.372	0.23
579.564	0.23
579.755	0.19
579.947	0.18
580.139	0.22
580.33	0.15
580.522	0.2
580.713	0.15
580.905	0.19
581.096	0.23
581.287	0.23
581.479	0.21
581.67	0.22
581.862	0.16
582.053	0.19
582.244	0.15
582.436	0.21
582.627	0.18
582.818	0.19
583.01	0.16
583.201	0.21
583.392	0.23
583.583	0.2
583.775	0.18
583.966	0.21
584.157	0.18
584.348	0.18
584.54	0.18
584.731	0.21
584.922	0.19
585.113	0.17
585.304	0.22
585.495	0.26
585.686	0.23
585.877	0.23
586.068	0.2
586.259	0.19
586.45	0.18
586.641	0.17
586.832	0.15
587.023	0.22
587.214	0.2
587.405	0.19
587.596	0.19
587.787	0.24
587.978	0.2
588.169	0.18
588.36	0.16
588.551	0.2
588.742	0.17
588.932	0.2
589.123	0.19
589.314	0.23
589.505	0.22
589.696	0.19
589.886	0.17
590.077	0.16
590.268	0.2
590.458	0.14
590.649	0.13
590.84	0.21
591.03	0.15
591.221	0.14
591.412	0.14
591.602	0.23
591.793	0.21
591.984	0.18
592.174	0.17
592.365	0.27
592.555	0.17
592.746	0.21
592.936	0.2
593.127	0.16
593.317	0.23
593.508	0.17
593.698	0.18
593.889	0.21
594.079	0.21
594.269	0.16
594.46	0.17
594.65	0.17
594.84	0.14
595.031	0.16
595.221	0.16
595.411	0.17
595.602	0.2
595.792	0.21
595.982	0.16
596.172	0.24
596.363	0.18
596.553	0.18
596.743	0.21
596.933	0.16
597.123	0.2
597.314	0.15
597.504	0.16
597.694	0.22
597.884	0.18
598.074	0.17
598.264	0.15
598.454	0.16
598.644	0.17
598.834	0.15
599.024	0.15
599.214	0.19
599.404	0.2
599.594	0.17
599.784	0.18
599.974	0.2
600.164	0.21
600.354	0.12
600.544	0.17
600.734	0.18
600.924	0.22
601.114	0.16
601.303	0.16
601.493	0.17
601.683	0.19
601.873	0.19
602.063	0.12
602.252	0.19
602.442	0.06
602.632	0.14
602.821	0.16
603.011	0.16
603.201	0.15
603.39	0.13
603.58	0.15
603.77	0.17
603.959	0.19
604.149	0.18
604.339	0.16
604.528	0.19
604.718	0.18
604.907	0.14
605.097	0.14
605.286	0.14
605.476	0.18
605.665	0.17
605.855	0.12
606.044	0.18
606.234	0.18
606.423	0.13
606.612	0.14
606.802	0.18
606.991	0.15
607.181	0.17
607.37	0.12
607.559	0.12
607.749	0.13
607.938	0.18
608.127	0.14
608.316	0.12
608.506	0.19
608.695	0.14
608.884	0.15
609.073	0.13
609.263	0.19
609.452	0.17
609.641	0.16
609.83	0.12
610.019	0.15
610.208	0.13
610.397	0.14
610.586	0.17
610.775	0.12
610.965	0.13
611.154	0.13
611.343	0.12
611.532	0.15
611.721	0.12
611.91	0.12
612.099	0.14
612.287	0.13
612.476	0.09
612.665	0.16
612.854	0.12
613.043	0.19
613.232	0.14
613.421	0.11
613.61	0.12
613.798	0.09
613.987	0.17
614.176	0.13
614.365	0.2
614.554	0.16
614.742	0.17
614.931	0.12
615.12	0.18
615.309	0.12
615.497	0.14
615.686	0.11
615.875	0.15
616.063	0.15
616.252	0.11
616.44	0.12
616.629	0.12
616.818	0.19
617.006	0.13
617.195	0.11
617.383	0.14
617.572	0.13
617.76	0.1
617.949	0.12
618.137	0.14
618.326	0.12
618.514	0.09
618.703	0.08
618.891	0.18
619.079	0.07
619.268	0.14
619.456	0.1
619.644	0.14
619.833	0.09
620.021	0.09
620.209	0.07
620.398	0.14
620.586	0.1
620.774	0.16
620.962	0.15
621.151	0.18
621.339	0.14
621.527	0.06
621.715	0.12
621.903	0.1
622.092	0.06
622.28	0.14
622.468	0.12
622.656	0.09
622.844	0.11
623.032	0.08
623.22	0.07
623.408	0.16
623.596	0.16
623.784	0.12
623.972	0.09
624.16	0.1
624.348	0.12
624.536	0.11
624.724	0.1
624.912	0.14
625.1	0.17
625.288	0.1
625.476	0.09
625.664	0.13
625.851	0.08
626.039	0.12
626.227	0.14
626.415	0.12
626.603	0.04
626.79	0.14
626.978	0.1
627.166	0.11
627.354	0.11
627.541	0.08
627.729	0.06
627.917	0.13
628.104	0.16
628.292	0.09
628.48	0.15
628.667	0.12
628.855	0.13
629.042	0.11
629.23	0.1
629.418	0.1
629.605	0.11
629.793	0.1
629.98	0.1
630.168	0.12
630.355	0.12
630.543	0.1
630.73	0.08
630.917	0.13
631.105	0.17
631.292	0.09
631.48	0.07
631.667	0.14
631.854	0.12
632.042	0.09
632.229	0.04
632.416	0.12
632.604	0.1
632.791	0.05
632.978	0.12
633.165	0.1
633.353	0.15
633.54	0.11
633.727	0.06
633.914	0.07
634.101	0.11
634.289	0.14
634.476	0.07
634.663	0.07
634.85	0.11
635.037	0.04
635.224	0.03
635.411	0.12
635.598	0.12
635.785	0.09
635.972	0.05
636.159	0.08
636.346	0.07
636.533	0.06
636.72	0.09
636.907	0.07
637.094	0.07
637.281	0.08
637.468	0.11
637.655	0.07
637.842	0.06
638.029	0.06
638.215	0.11
638.402	0.09
638.589	0.06
638.776	0.04
638.963	0.06
639.149	0.11
639.336	0.15
639.523	0.07
639.709	0.08
639.896	0.1
640.083	0.12
640.27	0.07
640.456	0.05
640.643	0.09
640.829	0.02
641.016	0.12
641.203	0.06
641.389	0.12
641.576	0.11
641.762	0.07
641.949	0.03
642.135	0.11
642.322	0.11
642.508	0.03
642.695	0.07
642.881	0.06
643.068	0.07
643.254	0.06
643.441	0.11
643.627	0.04
643.813	0.05
644	0.11
644.186	0.04
644.372	0.08
644.559	0.12
644.745	-0
644.931	0.06
645.118	0.05
645.304	0.06
645.49	0.03
645.676	0.04
645.862	0.09
646.049	0.13
646.235	0.06
646.421	0.15
646.607	0.11
646.793	0.05
646.979	0.05
647.165	0.06
647.352	0.04
647.538	0.13
647.724	0.07
647.91	0.1
648.096	0.08
648.282	0.08
648.468	0.06
648.654	0.07
648.84	0.09
649.026	0.06
649.212	0.05
649.397	0.05
649.583	0.02
649.769	0.09
649.955	0.07
650.141	0.08
650.327	0.06
650.513	0.03
650.698	0.07
650.884	0
651.07	0.08
651.256	0.08
651.442	0.06
651.627	0.05
651.813	0.07
651.999	0.04
652.184	0.07
652.37	0.05
652.556	0.02
652.741	0.1
652.927	-0.01
653.113	0.02
653.298	0.03
653.484	0.06
653.669	-0
653.855	0.03
654.04	0.07
654.226	0.03
654.412	0.01
654.597	0.04
654.782	0.06
654.968	0.1
655.153	0.06
655.339	0.06
655.524	0
655.71	0.08
655.895	0.05
656.08	0.06
656.266	0.09
656.451	0.02
656.636	0.01
656.822	0.07
657.007	0.04
657.192	0.03
657.378	-0.01
657.563	0.08
657.748	0.08
657.933	0.04
658.118	-0.02
658.304	0.05
658.489	0.1
658.674	0.07
658.859	-0.02
659.044	0.07
659.229	0.07
659.414	0.04
659.599	0.01
659.785	-0.03
659.97	0.03
660.155	0.09
660.34	0.09
660.525	0.05
660.71	0.04
660.895	0.08
661.08	0
661.264	0.02
661.449	0.11
661.634	0.1
661.819	0.04
662.004	0.05
662.189	-0.03
662.374	0.01
662.559	0.02
662.743	0.01
662.928	0.04
663.113	0.03
663.298	-0.07
663.483	0.02
663.667	0.09
663.852	0.01
664.037	0.08
664.221	0.02
664.406	0.08
664.591	0.07
664.775	0.04
664.96	-0.03
665.145	0.03
665.329	0.06
665.514	0.03
665.698	0.02
665.883	-0.06
666.068	0.09
666.252	0.03
666.437	-0.01
666.621	0.04
666.806	0.06
666.99	0.04
667.174	-0.01
667.359	0.11
667.543	0.02
667.728	0.01
667.912	-0.04
668.096	0.08
668.281	0
668.465	0.05
668.649	0.04
668.834	-0.01
669.018	0.05
669.202	0.01
669.387	-0.03
669.571	0.07
669.755	-0.01
669.939	0.02
670.124	0.02
670.308	0.06
670.492	0.11
670.676	0.04
670.86	0.01
671.044	-0.01
671.228	0.08
671.413	0.03
671.597	-0
671.781	-0.01
671.965	0.02
672.149	0.04
672.333	0.02
672.517	-0.02
672.701	0.03
672.885	0.01
673.069	-0.02
673.253	0.11
673.437	0.02
673.621	0.01
673.804	0.01
673.988	0.04
674.172	0.03
674.356	0.03
674.54	0.05
674.724	0.09
674.908	-0.03
675.091	0.08
675.275	0.03
675.459	0.04
675.643	0.08
675.826	0.05
676.01	0.03
676.194	0.04
676.377	0.05
676.561	0.02
676.745	0.05
676.928	0.03
677.112	0.05
677.296	-0.01
677.479	-0.04
677.663	0.01
677.846	0
678.03	0.04
678.213	0.02
678.397	0.05
678.58	0
678.764	-0.01
678.947	-0.01
679.131	-0.06
679.314	0.04
679.498	0.04
679.681	0.01
679.865	0.05
680.048	-0.02
680.231	0.02
680.415	-0
680.598	-0.05
680.781	0.04
680.965	0
681.148	0.04
681.331	-0.05
681.514	0.08
681.698	0.02
681.881	0.01
682.064	0.05
682.247	0.02
682.43	-0.03
682.614	0.07
682.797	0.09
682.98	0.05
683.163	0
683.346	0.05
683.529	0.04
683.712	0.01
683.895	0.02
684.078	-0.04
684.261	-0.01
684.444	0
684.627	0.04
684.81	0.01
684.993	0.02
685.176	0.03
685.359	-0.08
685.542	0
685.725	0.07
685.908	0.02
686.091	0.03
686.274	0.02
686.457	0.06
686.639	0.01
686.822	0.07
687.005	0.01
687.188	0.07
687.371	0.07
687.553	0.03
687.736	0.06
687.919	0.11
688.102	0.11
688.284	0.01
688.467	0.05
688.65	-0.01
688.832	0.02
689.015	-0.01
689.197	-0.06
689.38	0.08
689.563	0.1
689.745	-0.06
689.928	-0.01
690.11	0.01
690.293	0.04
690.475	-0.03
690.658	0.07
690.84	0.03
691.023	0
691.205	0
691.388	0.03
691.57	0.01
691.752	0.04
691.935	-0.06
692.117	-0.01
692.3	0.06
692.482	0.05
692.664	0.03
692.847	0.02
693.029	0.06
693.211	0.07
693.393	0.02
693.576	-0.01
693.758	0
693.94	-0.01
694.122	-0.03
694.304	-0
694.487	0.03
694.669	0.11
694.851	-0.06
695.033	-0.02
695.215	-0.02
695.397	-0.01
695.579	0.06
695.761	-0.02
695.943	-0.06
696.125	0.08
696.308	0
696.49	-0.15
696.671	0.09
696.853	0.03
697.035	0.1
697.217	0.03
697.399	0.02
697.581	-0.06
697.763	-0.02
697.945	-0.04
698.127	0.01
698.309	0.05
698.491	0
698.672	0.06
698.854	0.06
699.036	0.09
699.218	-0.03
699.399	0.04
699.581	0.04
699.763	0.03
699.945	-0.06
700.126	-0.04
700.308	0.06
700.49	0.02
700.671	-0.1
700.853	-0.02
701.035	0.03
701.216	-0.01
701.398	-0.03
701.579	-0.02
701.761	0.02
701.943	-0.01
702.124	-0.08
702.306	0
702.487	0.16
702.669	0.04
702.85	-0
703.031	-0.02
703.213	0.12
703.394	0.04
703.576	-0.06
703.757	0.07
703.938	-0
704.12	0.13
704.301	0.03
704.483	-0.06
704.664	0.04
704.845	0.12
705.026	0.03
705.208	-0.01
705.389	-0.01
705.57	0.04
705.751	-0.05
705.933	0.01
706.114	0.05
706.295	0.02
706.476	-0.04
706.657	0.14
706.838	0.04
707.02	0.15
707.201	-0.02
707.382	-0.02
707.563	0.1
707.744	-0.01
707.925	-0.07
708.106	-0.06
708.287	0.03
708.468	0.1
708.649	0.01
708.83	0.05
709.011	-0.04
709.192	0.07
709.373	-0.03
709.554	-0.02
709.734	0.02
709.915	0.03
710.096	0.01
710.277	-0.16
710.458	-0.01
710.639	0.04
710.819	-0.08
711	-0.01
711.181	0.02
711.362	0.07
711.542	0.01
711.723	-0.02
711.904	0.14
712.085	0.02
712.265	0.04
712.446	-0.12
712.627	-0.03
712.807	0.06
712.988	0.06
713.168	-0.05
713.349	0.03
713.53	-0.12
713.71	-0.04
713.891	-0.08
714.071	0.04
714.252	-0
714.432	-0.04
714.613	-0.13
714.793	-0.05
714.974	0.06
715.154	0.07
715.334	0.05
715.515	0.1
715.695	-0.04
715.876	0.02
716.056	0.04
716.236	-0.02
716.417	-0.01
716.597	-0.01
716.777	0.12
716.957	0
717.138	0.01
717.318	0.01
717.498	-0.07
717.678	0.05
717.859	0.01
718.039	-0.14
718.219	0.05
718.399	0.07
718.579	-0.03
718.759	-0.12
718.939	-0.02
719.12	0.02
719.3	0.08
719.48	-0.11
719.66	-0.06
719.84	0.1
720.02	-0.01
720.2	-0.11
720.38	-0.05
720.56	0.12
720.74	-0.03
720.92	-0
721.1	0.09
721.279	0.06
721.459	0.04
721.639	-0.15
721.819	0.02
721.999	-0.02
722.179	0
722.359	-0.09
722.538	-0.02
722.718	-0.01
722.898	-0.05
723.078	-0.03
723.257	-0.06
723.437	-0.02
723.617	-0.02
723.797	-0.07
723.976	-0.07
724.156	0.04
724.336	0
724.515	0.09
724.695	-0.12
724.874	-0.05
725.054	0.05
725.234	-0.11
725.413	-0
725.593	-0.08
725.772	-0.01
725.952	-0.06
726.131	-0.02
726.311	0.03
726.49	-0.04
726.67	-0.07
726.849	-0.1
727.028	-0.05
727.208	-0.02
727.387	0.06
727.567	-0.08
727.746	-0.02
727.925	-0.05
728.105	-0.01
728.284	-0.04
728.463	-0.03
728.643	-0.04
728.822	-0.12
729.001	-0.06
729.18	-0.06
729.359	-0.01
729.539	-0.05
729.718	-0.05
729.897	0.08
730.076	-0.05
730.255	-0.06
730.434	0.06
730.614	-0.02
730.793	0.07
730.972	-0.04
731.151	0.01
731.33	0.07
731.509	-0.03
731.688	0.01
731.867	-0.03
732.046	-0.12
732.225	0.13
732.404	-0.14
732.583	-0.12
732.762	0.02
732.941	0.11
733.12	0.02
733.298	-0.06
733.477	0.06
733.656	-0
733.835	-0.06
734.014	0.12
734.193	0.05
734.371	0.07
734.55	-0
734.729	-0.12
734.908	0.07
735.086	0.09
735.265	0.06
735.444	-0.07
735.623	-0.11
735.801	-0.09
735.98	0.03
736.159	-0.08
736.337	0.08
736.516	-0.01
736.694	-0
736.873	0.05
737.052	0.16
737.23	0.06
737.409	-0.06
737.587	0.09
737.766	-0.11
737.944	-0.07
738.123	0.06
738.301	0.1
738.479	-0.02
738.658	0.07
738.836	-0.14
739.015	-0.01
739.193	0.16
739.371	-0.16
739.55	0.01
739.728	-0.14
739.906	0.03
740.085	0.1
740.263	0.1
740.441	-0.24
740.62	0.21
740.798	-0.02
740.976	-0.07
741.154	-0.14
741.332	0.26
741.511	0.06
741.689	-0.02
741.867	0.1
742.045	-0.06
742.223	-0.06
742.401	-0.14
742.579	-0.03
742.757	0.06
742.935	-0.14
743.114	-0.06
743.292	-0.01
743.47	-0.01
743.648	-0.05
743.826	-0.01
744.004	0.02
744.181	0.1
744.359	-0.02
744.537	0.01
744.715	-0.04
744.893	0
745.071	0
745.249	-0.07
745.427	-0.05
745.605	0.08
745.782	0.03
745.96	0.08
746.138	0.04
746.316	0.07
746.493	-0.07
746.671	-0.05
746.849	0.08
747.027	0.16
747.204	-0.18
747.382	-0.01
747.56	-0.08
747.737	-0.17
747.915	-0.03
748.093	0.07
748.27	-0.04
748.448	-0.04
748.625	-0.19
748.803	-0.14
748.98	-0.01
749.158	0.04
749.335	0.04
749.513	-0.06
749.69	-0.1
749.868	0.12
750.045	0.01
750.223	-0.08
750.4	-0.28
750.578	0.13
750.755	0
750.932	-0.18
751.11	0.1
751.287	-0.21
751.464	0.14
751.642	-0.1
751.819	0.02
751.996	0.04
752.173	-0.07
752.351	-0.17
752.528	0.05
752.705	-0.05
752.882	-0.07
753.06	-0.04
753.237	-0.06
753.414	0.15
753.591	0.01
753.768	-0.07
753.945	-0.12
754.122	-0.01
754.299	0.03
754.476	-0.07
754.654	0
754.831	0.05
755.008	0.12
755.185	-0.06
755.362	-0.1
755.539	0.1
755.716	-0.03
755.892	-0.1
756.069	-0.06
756.246	0.04
756.423	0.06
756.6	0.22
756.777	0.05
756.954	0.02
757.131	-0
757.307	-0.18
757.484	-0.05
757.661	0
757.838	0.04
758.015	-0.19
758.191	-0.01
758.368	-0.1
758.545	0.17
758.721	0.08
758.898	-0.08
759.075	-0.02
759.251	0.11
759.428	0.14
759.605	-0.1
759.781	-0.12
759.958	0
760.134	0.07
760.311	-0.01
760.488	0.06
760.664	0.13
760.841	0.04
761.017	-0.05
761.194	0.14
761.37	0.18
761.547	-0.02
761.723	0.02
761.899	0
762.076	-0.09
762.252	-0.14
762.429	-0.1
762.605	0.01
762.781	-0.02
762.958	0.06
763.134	0.01
763.31	-0.1
763.486	0.11
763.663	-0.28
763.839	0.14
764.015	-0.16
764.191	-0.16
764.368	-0.03
764.544	-0.14
764.72	-0.03
764.896	0.06
765.072	0.12
765.248	0.01
765.425	0.04
765.601	-0
765.777	0.03
765.953	-0.16
766.129	-0.06
766.305	-0.1
766.481	0.07
766.657	-0.04
766.833	0.23
767.009	-0.12
767.185	0.01
767.361	-0.08
767.537	-0.08
767.713	0.07
767.889	-0.08
768.065	0.02
768.24	-0.26
768.416	0.12
768.592	-0.04
768.768	-0.1
768.944	0.1
769.12	-0.11
769.295	-0.02
769.471	0.07
769.647	-0.03
769.823	0.07
769.998	-0.07
770.174	-0.14
770.35	0.28
770.525	0.18
770.701	-0.11
770.877	-0.05
771.052	-0.07
771.228	0.28
771.403	0.08
771.579	0.06
771.755	0.12
771.93	-0.11
772.106	-0.23
772.281	-0.3
772.457	-0.03
772.632	0.08
772.808	-0.19
772.983	-0.08
773.159	-0.15
773.334	0.17
773.509	0.08
773.685	-0.1
773.86	0.22
774.036	0.14
774.211	-0.04
774.386	-0.1
774.562	-0.11
774.737	-0.01
774.912	-0.25
775.087	0.1
775.263	0.03
775.438	0.01
775.613	-0.01
775.788	0.02
775.964	0.06
776.139	0.44
776.314	-0.28
776.489	0.03
776.664	0.01
776.839	-0.12
777.014	0.06
777.19	-0.03
777.365	0.33
777.54	0.24
777.715	-0.05
777.89	-0.11
778.065	-0.05
778.24	0.27
778.415	0.07
778.59	-0.13
778.765	-0.02
778.94	0.01
779.115	-0.12
779.289	-0.04
779.464	-0.02
779.639	-0.12
779.814	-0.22
779.989	-0.1
780.164	0.27
780.339	-0.03
780.513	-0.08
780.688	-0.18
780.863	-0.1
781.038	0.14
781.212	-0.05
781.387	0.13
781.562	0.2
781.737	-0.02
781.911	0.04
782.086	-0.14
782.261	-0.04
782.435	0.3
782.61	-0.1
782.784	-0.21
782.959	0.26
783.134	-0.24
783.308	-0.29
783.483	-0.25
783.657	0.37
783.832	0.09
784.006	-0.22
784.181	-0.04
784.355	0.04
784.53	-0.27
784.704	-0.11
784.878	0.17
785.053	0.08
785.227	-0.08
785.402	0.21
785.576	-0.09
785.75	-0.1
785.925	-0.08
786.099	0.2
786.273	0.07
786.448	0.33
786.622	-0.02
786.796	-0.18
786.97	-0.11
787.145	0.48
787.319	-0.21
787.493	-0.13
787.667	-0.27
787.841	0.11
788.015	0.04
788.19	-0.15
788.364	0.01
788.538	0.16
788.712	0.06
788.886	-0.09
789.06	0.06
789.234	-0.14
789.408	-0.33
789.582	0.04
789.756	-0.08
789.93	-0.31
790.104	-0.08
790.278	-0.02
790.452	-0.43
790.626	0.06
790.8	-0.09
790.973	0.15
791.147	0.12
791.321	0.38
791.495	0
791.669	0.09
791.843	0.14
792.016	-0.12
792.19	0.39
792.364	-0.27
792.538	0.31
792.711	0.32
792.885	-0.03
793.059	-0.06
793.233	-0.6
793.406	0.01
793.58	-0.07
793.754	0.2
793.927	0.05
794.101	0.32
794.274	-0
794.448	0.22
794.622	-0.3
794.795	0.18
794.969	-0.11
795.142	0.34
795.316	-0
795.489	-0.37
795.663	0.35
795.836	0.27
796.009	-0.19
796.183	0.34
796.356	0.07
796.53	0.15
796.703	-0.09
796.876	0.56
797.05	-0.14
797.223	0.04
797.396	0.05
797.57	0
797.743	0.34
797.916	0.11
798.09	-0.05
798.263	0.08
798.436	-0.28
798.609	-0.28
798.782	-0
798.956	-0.09
799.129	-0.04
799.302	-0.15
799.475	-0.25
799.648	-0.18
799.821	-0.19
799.994	-0.01
800.167	-0.38
800.34	-0.14
800.514	0.04
800.687	0.15
800.86	-0.15
801.033	-0.01
801.206	0.06
801.379	-0.29
801.551	0.08
801.724	0.01
801.897	0.63
802.07	-0.28
802.243	-0.42
802.416	0.11
802.589	-0.35
802.762	0.09
802.935	-0.12
803.107	0.09
803.28	-0.12
803.453	0.32
803.626	-0.13
803.798	-0.02
803.971	-0.12
804.144	0.06
804.317	0.11
804.489	-0.08
804.662	-0.02
804.835	-0.1
805.007	-0.26
805.18	0.45
805.353	0.18
805.525	-0.13
805.698	-0.33
805.87	0.22
806.043	0.38
806.215	-0.31
806.388	-0.3
806.56	0.1
806.733	0.11
806.905	-0.05
807.078	-0.12
807.25	-0.3
807.423	-0.12
807.595	0.11
807.768	0.14
807.94	0.44
808.112	0.16
808.285	0.24
808.457	-0.19
808.629	-0.19
808.802	0.19
808.974	0.01
809.146	-0.23
809.318	-0.05
809.491	-0.01
809.663	0.24
809.835	-0.02
810.007	-0.08
810.18	0.01
810.352	-0.36
810.524	0.02
810.696	-0.1
810.868	0.12
811.04	0.04
811.212	-0.12
811.384	-0.16
811.556	-0.24
811.728	-0.07
811.901	0.47
812.073	0.06
812.245	0.08
812.417	0.33
812.589	-0.7
812.76	-0.34
812.932	-0.02
813.104	0.31
813.276	0.08
813.448	0.03
813.62	-0.16
813.792	0.36
813.964	0.06
814.136	0.24
814.307	-0.03
814.479	-0.56
814.651	-0.34
814.823	0.37
814.995	-0.16
815.166	-0.16
815.338	-0.09
815.51	-0.54
815.681	0.45
815.853	0.23
816.025	-0.17
816.196	0.49
816.368	0.28
816.54	-0.48
816.711	-0.4
816.883	-0.09
817.054	0.61
817.226	-0.38
817.398	0.37
817.569	-0.44
817.741	-0.05
817.912	-0.17
818.084	-0.26
818.255	0.29
818.426	-0.62
818.598	0.17
818.769	-0.11
818.941	0.11
819.112	0.45
819.283	0.08
819.455	-0.31
819.626	0.16
819.798	0.32
819.969	0.07
820.14	-0.09
820.311	-0.51
820.483	0.09
820.654	0.27
820.825	-0.2
820.996	-0.1
821.168	-0.51
821.339	-0.04
821.51	-0.42
821.681	0.93
821.852	-0.07
822.023	-0.6
822.195	-0.46
822.366	0.43
822.537	0.04
822.708	0.02
822.879	-0.18
823.05	0.42
823.221	-0.57
823.392	-0.15
823.563	0.22
823.734	-0.16
823.905	0.11
824.076	-0.47
824.247	-0.18
824.418	-0.75
824.589	0.95
824.759	-0.18
824.93	-0.23
825.101	-0.82
825.272	0.66
825.443	0.48
825.614	0.13
825.784	-1.09
825.955	1.43
826.126	0.95
826.297	-0.21
826.467	0.71
826.638	0.78
826.809	-0.82
826.98	-0.15
827.15	0.53
827.321	-0.08
827.492	0.27
827.662	-0.42
827.833	0.86
828.003	-0.01
828.174	-0.44
828.345	-0.43
828.515	0.61
828.686	0.36
828.856	-0.42
829.027	-0.32
829.197	-0.18
829.368	0.35
829.538	-0.42
829.709	0.12
829.879	0.07
830.049	-0.44
830.22	-0.14
830.39	-0.15
830.56	0.24
830.731	-0.15
830.901	-0.63
831.072	-0.25
831.242	0.17
831.412	0.18
831.582	-0.28
831.753	-0.38
831.923	0.53
832.093	-0.13
832.263	-0.37
832.434	-0.55
832.604	-0.55
832.774	0.25
832.944	0.34
833.114	0.19
833.284	0.76
833.454	-0.79
833.624	-0.79
833.795	-0.44
833.965	1.18
834.135	0.6
834.305	-0.66
834.475	-0.69
834.645	-0.47
834.815	-0.33
834.985	-0.71
835.155	-0.68
835.325	0.22
835.494	0.25
835.664	-0.19
835.834	-0.88
836.004	-0.09
836.174	0.11
836.344	0.01
836.514	-0.7
836.684	-0.42
836.853	-0.11
837.023	0.17
837.193	-0.58
837.363	0.33
837.532	1.02
837.702	-0.45
837.872	-0.13
838.041	0.84
838.211	1.36
838.381	-0.6
838.55	-0.37
838.72	2.31
838.89	0.98
839.059	-0.49
839.229	-0.8
839.398	0.75
839.568	-0.14
839.738	-0.12
839.907	0.64
840.077	0.11
840.246	-0.89
840.416	-0.82
840.585	-0.85
840.755	1.27
840.924	0.36
841.093	-0.72
841.263	-0.52
841.432	0.02
841.602	-0.17
841.771	-0.27
841.94	0.06
842.11	1.69
842.279	1.47
842.448	-0.18
842.617	-1.16
842.787	0.69
842.956	-0.69
843.125	0.23
843.294	0.34
843.464	1.07
843.633	-0.23
843.802	-0.48
843.971	-0.23
844.14	-0.07
844.309	0.99
844.479	-1.45
844.648	-0.31
844.817	0.16
844.986	0.13
845.155	-0.58
845.324	-0.42
845.493	0.04
845.662	-1.17
845.831	0.27
846	0.23
846.169	-0.52
846.338	1.28
846.507	0.03
846.676	0.04
846.844	-0.63
847.013	0.65
847.182	-0.25
847.351	0.55
847.52	-0.38
847.689	0.08
847.858	-0.72
848.026	-0.3
848.195	0.19
848.364	-0.18
848.533	-1.22
848.701	-0.47
848.87	0.27
849.039	1.36
849.207	1.07
849.376	1.78
849.545	0.81
849.713	-0.29
849.882	-0.44
850.051	-0.49
850.219	1.17
850.388	1.15
850.556	-1.55
850.725	-0.76
850.893	0.46
851.062	-0.09
851.23	0.73
851.399	-0.87
851.567	-0.77
851.736	0.18
851.904	-0.76
852.073	-0.22
852.241	-0.24
852.41	-0.28
852.578	-0.17
852.746	-0.39
852.915	0.16
853.083	-0.91
853.251	-1.34
853.42	-0.65
853.588	-0.32
853.756	1.27
853.924	-0.24
854.093	-0.6
854.261	-0.22
854.429	-1.55
854.597	0.6
854.765	-0.7
854.934	0.09
855.102	2.21
855.27	-0.72
855.438	0.35
855.606	1.1
855.774	1.07
855.942	-1.01
856.11	-1.58
856.278	0.09
856.446	0.62
856.614	-0.51
856.782	-1.09
856.95	0.34
857.118	0.52
857.286	-0.8
857.454	-0.55
857.622	1.25
857.79	-0.41
857.958	-0.98
858.126	-0.7
858.294	-2.5
858.462	-0.13
858.629	-0.54
858.797	-1.84
858.965	0.97
859.133	0.17
859.301	-0.25
859.468	0.31
859.636	-1.35
859.804	1.49
859.971	0.06
860.139	-0.52
860.307	0.21
860.474	-0.12
860.642	-0.39
860.81	-0.57
860.977	-2.49
861.145	1.04
861.313	-2.11
861.48	-0.17
861.648	1.49
861.815	0.35
861.983	-1.12
862.15	-0.22
862.318	0.72
862.485	1.72
862.653	-1.35
862.82	-0.92
862.988	0.69
863.155	0.03
863.322	-1.56
863.49	-0.96
863.657	-1.66
863.824	2.24
863.992	0.01
864.159	-0.91
864.326	1.85
864.494	-0.08
864.661	1.91
864.828	-0.71
864.996	1.3
865.163	3.22
865.33	-0.59
865.497	-2.79
865.664	-0.99
865.832	-4.36
865.999	-0.98
866.166	-0.84
866.333	0.02
866.5	0.11
866.667	-0.67
866.834	-0.48
867.001	0.02
867.168	-1.55
867.335	0.76
867.502	-1.51
867.669	0.46
867.836	1.71
868.003	-0.15
868.17	0.69
868.337	2.05
868.504	1.45
868.671	-2.36
868.838	-1.33
869.005	-0.15
869.172	-0.54
869.339	-0.22
869.505	-0.41
869.672	0.78
869.839	1.75
870.006	-0.39
870.173	-0.8
870.339	0.74
870.506	3.85
870.673	-1.34
870.84	1.48
871.006	0.13
871.173	-0.41
871.34	-0.06
871.506	-2.04
871.673	1.15
871.839	-1.96
872.006	1.13
872.173	-1.3
872.339	-0.35
872.506	0.38
872.672	-0.11
872.839	-1.83
873.005	-0.43
873.172	1.79
873.338	-0.15
873.505	-1
873.671	-2.02
873.838	0.46
874.004	-1
874.171	-0.58
874.337	0.09
874.503	1.07
874.67	-2.08
874.836	-1.38
875.002	2.2
875.169	-0.17
875.335	0.04
875.501	-1.63
875.668	-0.23
875.834	-0.23
876	-1.78
876.166	2.31
876.332	1.35
876.499	2.35
876.665	-1.16
876.831	0.71
876.997	2.31
877.163	0.13
877.329	-2.27
877.495	1.12
877.662	1.69
877.828	-0.2
877.994	-0.68
878.16	-2.07
878.326	-0.18
878.492	1.08
878.658	-1.7
878.824	0.86
878.99	1.92
879.156	-1.58
879.322	1.72
879.487	0.56
879.653	-0.3
879.819	0.65
879.985	-1.09
880.151	2.48
880.317	0.11
880.483	-0.84
880.648	2.15
880.814	-2.5
880.98	1.28
881.146	-1.57
881.312	-2.85
881.477	0
881.643	-1.52
881.809	3.52
881.974	1.92
882.14	-2.37
882.306	-0.05
882.471	2.88
882.637	-1.61
882.803	0.15
882.968	2.86
883.134	4.12
883.299	0.04
883.465	-1.49
883.63	1.16
883.796	1.53
883.961	1.21
884.127	1.06
884.292	-4.73
884.458	-1.35
884.623	-1.34
