Data from Apollo_Calib_20240827__AbsoluteIrradiance__358__05-07-01-547.txt Node

Date: Wed Aug 28 05:07:01 BST 2024
User: biology
Spectrometer: FLMT08252
Trigger mode: 0
Integration Time (sec): 5.000000E-1
Scans to average: 5
Electric dark correction enabled: true
Nonlinearity correction enabled: false
Boxcar width: 0
XAxis mode: Wavelengths
Number of Pixels in Spectrum: 3648
>>>>>Begin Spectral Data<<<<<
179.588	-0
179.809	-0
180.03	-0
180.251	-0
180.473	-0
180.694	0
180.915	0
181.136	-0
181.357	0
181.578	-0
181.799	-0
182.02	-0
182.241	-0
182.462	-0
182.683	0
182.904	-0
183.125	-0
183.346	0
183.567	0
183.788	0
184.009	-0
184.23	0
184.451	0
184.672	-0
184.892	-0
185.113	0
185.334	0
185.555	0
185.776	-0
185.996	0
186.217	0
186.438	0
186.659	0
186.879	0
187.1	-0
187.321	-0
187.541	0
187.762	0
187.983	0
188.203	0
188.424	0
188.644	0
188.865	0
189.086	0
189.306	0
189.527	0
189.747	0
189.968	-0
190.188	0
190.409	0
190.629	0
190.849	0
191.07	0
191.29	0
191.511	0
191.731	0
191.951	-0
192.172	0
192.392	-0
192.612	0
192.833	0
193.053	0
193.273	0
193.493	0
193.714	0
193.934	0
194.154	0
194.374	0
194.594	0
194.815	0
195.035	0
195.255	0
195.475	0
195.695	0
195.915	0
196.135	0
196.355	0
196.575	0
196.795	0
197.015	-0
197.235	0
197.455	0
197.675	0
197.895	0
198.115	-0
198.335	0
198.555	0
198.775	0
198.995	0
199.214	0
199.434	0
199.654	-0
199.874	-0
200.094	1.92
200.313	0.78
200.533	0.1
200.753	-0.32
200.973	1.73
201.192	1.66
201.412	-0.37
201.632	0.29
201.851	1.48
202.071	0.29
202.291	0.46
202.51	-0.12
202.73	1.11
202.95	0.44
203.169	0.16
203.389	0.59
203.608	0.68
203.828	0.31
204.047	0.08
204.267	0.71
204.486	0.79
204.706	0.7
204.925	0.36
205.145	-0.14
205.364	0.6
205.583	1.32
205.803	0.7
206.022	0.25
206.242	0.51
206.461	0.35
206.68	0.17
206.9	0.35
207.119	0.63
207.338	1.08
207.557	0
207.777	0.37
207.996	0.38
208.215	0.95
208.434	0.26
208.654	-0.13
208.873	0.36
209.092	1.06
209.311	0.15
209.53	0.28
209.749	0.29
209.968	0.09
210.187	0.19
210.407	-0.16
210.626	0.19
210.845	0.7
211.064	0.41
211.283	0.16
211.502	0.54
211.721	0.47
211.94	0.15
212.159	0.51
212.377	0.81
212.596	0.7
212.815	0.32
213.034	0.46
213.253	0.61
213.472	0.62
213.691	0.24
213.91	0.09
214.128	-0.11
214.347	0.44
214.566	0.02
214.785	-0.28
215.003	0.59
215.222	0.4
215.441	0.2
215.66	-0.05
215.878	0.26
216.097	0.7
216.316	-0.01
216.534	0.22
216.753	0.47
216.972	0.02
217.19	0.4
217.409	0.24
217.627	-0.15
217.846	0.34
218.064	0.43
218.283	0.04
218.501	0.79
218.72	0.52
218.938	0.14
219.157	0.17
219.375	0.48
219.594	0.34
219.812	0
220.031	0.1
220.249	0.54
220.467	0.42
220.686	0.11
220.904	-0.01
221.122	0.14
221.341	0.5
221.559	0.28
221.777	0.02
221.995	0.03
222.214	0.36
222.432	0.14
222.65	0.31
222.868	0.37
223.086	0.19
223.305	0.43
223.523	-0.03
223.741	0.38
223.959	0.21
224.177	-0.11
224.395	0.02
224.613	0.3
224.831	0.35
225.049	0.09
225.267	0.04
225.485	0.34
225.703	0.12
225.921	0.17
226.139	0.17
226.357	0.33
226.575	0.26
226.793	0.02
227.011	0.83
227.229	0.19
227.447	0.28
227.665	0.11
227.883	-0.08
228.1	0.14
228.318	0.21
228.536	-0.07
228.754	0.01
228.972	0.2
229.189	0.36
229.407	0.13
229.625	-0.03
229.843	0.37
230.06	0.33
230.278	0.05
230.496	0.2
230.713	0.23
230.931	0.27
231.149	0.2
231.366	-0.11
231.584	0.19
231.801	0.46
232.019	0.15
232.236	0.03
232.454	0.08
232.671	0.24
232.889	0.12
233.106	0.04
233.324	0.2
233.541	0.06
233.759	0.18
233.976	0.05
234.194	0.08
234.411	0.15
234.628	0.11
234.846	0.09
235.063	0.15
235.28	0.21
235.498	0.11
235.715	0.05
235.932	0.25
236.149	0.18
236.367	0.03
236.584	0.16
236.801	0.09
237.018	0.27
237.236	0.18
237.453	0.04
237.67	0.27
237.887	0.16
238.104	0.14
238.321	0.11
238.538	0.13
238.755	0.27
238.973	0.03
239.19	0.05
239.407	0.25
239.624	0.25
239.841	-0.03
240.058	0.05
240.275	0.21
240.492	0.13
240.709	0.13
240.925	0.06
241.142	0.14
241.359	0.15
241.576	0.02
241.793	0.11
242.01	0.13
242.227	0.29
242.444	0.19
242.66	0.24
242.877	0.2
243.094	0.09
243.311	0.23
243.527	0.16
243.744	0.24
243.961	0.29
244.178	0.01
244.394	0.07
244.611	0.32
244.828	0.3
245.044	0.03
245.261	0.05
245.477	0.17
245.694	0.16
245.911	0.04
246.127	0.2
246.344	0.3
246.56	0.25
246.777	0.06
246.993	0.11
247.21	0.22
247.426	0.1
247.643	0.05
247.859	0.06
248.076	0.1
248.292	0.33
248.508	0.03
248.725	0.18
248.941	0.19
249.157	0.25
249.374	0.07
249.59	0.08
249.806	0.16
250.023	0.27
250.239	0.06
250.455	0.01
250.671	0.12
250.888	0.25
251.104	0.21
251.32	0.18
251.536	0.14
251.752	0.11
251.969	0.15
252.185	0.05
252.401	0.36
252.617	0.19
252.833	0.04
253.049	0.15
253.265	0.18
253.481	0.22
253.697	0.08
253.913	0.02
254.129	0.18
254.345	0.13
254.561	0.07
254.777	0.12
254.993	0.18
255.209	0.17
255.425	0.07
255.641	0.05
255.857	0.27
256.073	0.14
256.288	0.01
256.504	0.08
256.72	0.15
256.936	0.3
257.152	0.15
257.367	0.03
257.583	0.14
257.799	0.16
258.015	0.02
258.23	0.12
258.446	0.26
258.662	0.13
258.877	0.01
259.093	0.05
259.309	0.1
259.524	0.16
259.74	0.08
259.955	0.03
260.171	0.18
260.387	0.15
260.602	0.2
260.818	0.14
261.033	0.06
261.249	0.22
261.464	0.09
261.68	0.01
261.895	0.21
262.11	0.21
262.326	0.08
262.541	0.03
262.757	0.19
262.972	0.14
263.187	0.13
263.403	0.1
263.618	0.16
263.833	0.12
264.049	0.06
264.264	0.11
264.479	0.16
264.694	0.17
264.91	0.03
265.125	0.08
265.34	0.23
265.555	0.26
265.77	0.17
265.986	0.1
266.201	0.17
266.416	0.26
266.631	0.11
266.846	0.12
267.061	0.14
267.276	0.17
267.491	-0.03
267.706	0.15
267.921	0.17
268.136	0.13
268.351	0.18
268.566	0.04
268.781	0.28
268.996	0.22
269.211	0.12
269.426	-0.01
269.641	0.11
269.856	0.21
270.071	0.07
270.285	0.04
270.5	0.22
270.715	0.16
270.93	0.07
271.145	0.14
271.359	0.16
271.574	0.13
271.789	0.14
272.004	0.09
272.218	0.03
272.433	0.12
272.648	0.03
272.862	0.17
273.077	0.07
273.292	0.15
273.506	0.06
273.721	0.07
273.936	0.15
274.15	0.22
274.365	0.05
274.579	0.14
274.794	0.17
275.008	0.15
275.223	-0
275.437	0.14
275.652	0.18
275.866	0.17
276.081	0.12
276.295	0.17
276.509	0.11
276.724	0.08
276.938	0.09
277.153	0.12
277.367	0.17
277.581	0.07
277.796	0.09
278.01	0.01
278.224	0.2
278.438	0.33
278.653	0.04
278.867	0.03
279.081	0.19
279.295	0.08
279.51	0.14
279.724	0.02
279.938	0.16
280.152	0.16
280.366	0.06
280.58	0.12
280.794	0.19
281.008	0.21
281.222	0.15
281.437	0.3
281.651	0.15
281.865	0.22
282.079	0.11
282.293	-0.02
282.507	0.02
282.721	0.15
282.935	0.08
283.148	0.08
283.362	0.11
283.576	0.02
283.79	0.08
284.004	0.05
284.218	0.2
284.432	0.07
284.646	0.1
284.859	0.09
285.073	0.06
285.287	0.12
285.501	0.12
285.714	0.11
285.928	0.12
286.142	0.11
286.356	0.04
286.569	0.09
286.783	0.2
286.997	0.18
287.21	0.14
287.424	0.08
287.637	0.1
287.851	0.08
288.065	0.16
288.278	0.09
288.492	0.14
288.705	0.09
288.919	0.16
289.132	0.05
289.346	0.2
289.559	0.06
289.773	0.04
289.986	0.07
290.2	0.15
290.413	0.16
290.626	0.07
290.84	0.09
291.053	0.11
291.267	0.21
291.48	0.15
291.693	0.15
291.906	0.1
292.12	0.06
292.333	0.05
292.546	0.09
292.76	0.21
292.973	0.14
293.186	0.17
293.399	0.12
293.612	0.17
293.826	0.13
294.039	0.14
294.252	0.12
294.465	0.16
294.678	0.13
294.891	0.1
295.104	0.08
295.317	0.09
295.53	0.13
295.743	0.11
295.956	0.14
296.169	0.18
296.382	0.16
296.595	0.11
296.808	0.1
297.021	0.15
297.234	0.2
297.447	0.07
297.66	0.17
297.873	0.15
298.086	0.15
298.299	0.08
298.511	0.02
298.724	0.07
298.937	0.11
299.15	0.04
299.363	0.11
299.575	0.15
299.788	0.16
300.001	0.08
300.213	0.13
300.426	0.08
300.639	0.1
300.852	0.07
301.064	0.15
301.277	0.22
301.489	0.16
301.702	0.12
301.915	0.11
302.127	0.13
302.34	0.13
302.552	0.11
302.765	0.11
302.977	0.15
303.19	0.06
303.402	0.14
303.615	0.09
303.827	0.13
304.04	0.09
304.252	0.14
304.464	0.09
304.677	0.23
304.889	0.17
305.102	0.07
305.314	0.12
305.526	0.16
305.739	0.15
305.951	0.04
306.163	0.09
306.375	0.2
306.588	0.07
306.8	0.07
307.012	0.05
307.224	0.13
307.436	0.17
307.649	0.03
307.861	0.14
308.073	0.15
308.285	0.12
308.497	0.09
308.709	0.09
308.921	0.12
309.133	0.17
309.346	0.12
309.558	0.11
309.77	0.14
309.982	0.19
310.194	0.16
310.406	0.09
310.617	0.19
310.829	0.14
311.041	0.15
311.253	0.11
311.465	0.1
311.677	0.13
311.889	0.1
312.101	0.07
312.313	0.16
312.524	0.17
312.736	0.07
312.948	0.08
313.16	0.21
313.372	0.16
313.583	0.12
313.795	0.06
314.007	0.1
314.218	0.15
314.43	0.12
314.642	0.1
314.853	0.06
315.065	0.15
315.277	0.1
315.488	0.12
315.7	0.17
315.912	0.12
316.123	0.1
316.335	0.16
316.546	0.23
316.758	0.11
316.969	0.07
317.181	0.09
317.392	0.13
317.604	0.14
317.815	0.04
318.026	0.1
318.238	0.13
318.449	0.12
318.661	0.07
318.872	0.08
319.083	0.11
319.295	0.14
319.506	0.13
319.717	0.14
319.929	0.16
320.14	0.13
320.351	0.1
320.562	0.07
320.774	0.14
320.985	0.14
321.196	0.07
321.407	0
321.618	0.14
321.829	0.11
322.041	0.16
322.252	0.08
322.463	0.13
322.674	0.14
322.885	0.04
323.096	0.09
323.307	0.1
323.518	0.16
323.729	0.1
323.94	0.1
324.151	0.08
324.362	0.12
324.573	0.13
324.784	0.09
324.995	0.17
325.206	0.14
325.417	0.08
325.628	0.12
325.838	0.09
326.049	0.12
326.26	0.14
326.471	0.09
326.682	0.12
326.892	0.12
327.103	0.02
327.314	0.08
327.525	0.14
327.735	0.13
327.946	0.08
328.157	0.1
328.368	0.14
328.578	0.08
328.789	0.14
328.999	0.12
329.21	0.13
329.421	0.14
329.631	0.06
329.842	0.09
330.052	0.13
330.263	0.17
330.473	0.13
330.684	0.1
330.894	0.1
331.105	0.11
331.315	0.11
331.526	0.05
331.736	0.19
331.947	0.16
332.157	0.1
332.367	0.03
332.578	0.18
332.788	0.2
332.999	0.16
333.209	0.14
333.419	0.06
333.629	0.15
333.84	0.12
334.05	0.12
334.26	0.22
334.47	0.13
334.681	0.17
334.891	0.06
335.101	0.16
335.311	0.19
335.521	0.12
335.732	0.07
335.942	0.18
336.152	0.15
336.362	0.17
336.572	0.15
336.782	0.13
336.992	0.1
337.202	0.09
337.412	0.09
337.622	0.1
337.832	0.1
338.042	0.15
338.252	0.07
338.462	0.06
338.672	0.17
338.882	0.11
339.092	0.08
339.302	0.19
339.511	0.1
339.721	0.05
339.931	0.07
340.141	0.12
340.351	0.18
340.561	0.11
340.77	0.1
340.98	0.09
341.19	0.15
341.4	0.11
341.609	0.08
341.819	0.1
342.029	0.06
342.238	0.12
342.448	0.09
342.658	0.18
342.867	0.11
343.077	0.13
343.286	0.11
343.496	0.14
343.706	0.18
343.915	0.09
344.125	0.09
344.334	0.13
344.544	0.1
344.753	0.09
344.963	0.1
345.172	0.1
345.381	0.07
345.591	0.05
345.8	0.13
346.01	0.15
346.219	0.14
346.428	-0.02
346.638	0.12
346.847	0.11
347.056	0.21
347.266	0.07
347.475	0.09
347.684	0.17
347.893	0.14
348.103	0.13
348.312	0.13
348.521	0.13
348.73	0.14
348.94	0.1
349.149	0.09
349.358	0.1
349.567	0.07
349.776	0.09
349.985	0.08
350.194	0.19
350.403	0.15
350.612	0.07
350.821	0.08
351.03	0.11
351.239	0.06
351.448	0.09
351.657	0.08
351.866	0.2
352.075	0.09
352.284	0.14
352.493	0.05
352.702	0.14
352.911	0.16
353.12	0.14
353.329	0.09
353.538	0.12
353.746	0.09
353.955	0.13
354.164	0.1
354.373	0.1
354.582	0.17
354.79	0.12
354.999	0.14
355.208	0.07
355.416	0.16
355.625	0.06
355.834	0.05
356.042	0.12
356.251	0.08
356.46	0.08
356.668	0.15
356.877	0.17
357.085	0.15
357.294	0.02
357.503	0.13
357.711	0.14
357.92	0.23
358.128	0.15
358.337	0.09
358.545	0.13
358.754	0.1
358.962	0.16
359.17	0.08
359.379	0.13
359.587	0.17
359.796	0.12
360.004	0.2
360.212	0.14
360.421	0.18
360.629	0.09
360.837	0.08
361.046	0.16
361.254	0.2
361.462	0.1
361.67	0.08
361.879	0.14
362.087	0.19
362.295	0.12
362.503	0.11
362.711	0.07
362.92	0.09
363.128	0.09
363.336	0.04
363.544	0.07
363.752	0.09
363.96	0.07
364.168	0.12
364.376	0.12
364.584	0.14
364.792	0.14
365	0.14
365.208	0.13
365.416	0.14
365.624	0.16
365.832	0.05
366.04	0.18
366.248	0.13
366.456	0.1
366.664	0.13
366.872	0.12
367.079	0.14
367.287	0.1
367.495	0.13
367.703	0.1
367.911	0.13
368.118	0.09
368.326	0.13
368.534	0.1
368.742	0.2
368.949	0.03
369.157	0.12
369.365	0.16
369.572	0.12
369.78	0.08
369.988	0.17
370.195	0.11
370.403	0.14
370.61	0.08
370.818	0.14
371.026	0.17
371.233	0.07
371.441	0.16
371.648	0.1
371.856	0.13
372.063	0.13
372.271	0.09
372.478	0.1
372.685	0.11
372.893	0.17
373.1	0.11
373.308	0.08
373.515	0.2
373.722	0.14
373.93	0.08
374.137	0.12
374.344	0.18
374.552	0.18
374.759	0.14
374.966	0.13
375.173	0.1
375.381	0.19
375.588	0.1
375.795	0.06
376.002	0.11
376.209	0.1
376.417	0.12
376.624	0.12
376.831	0.17
377.038	0.11
377.245	0.05
377.452	0.09
377.659	0.11
377.866	0.09
378.073	0.08
378.28	0.09
378.487	0.14
378.694	0.14
378.901	0.13
379.108	0.1
379.315	0.17
379.522	0.22
379.729	0.1
379.936	0.16
380.143	0.11
380.35	0.13
380.557	0.09
380.763	0.11
380.97	0.11
381.177	0.13
381.384	0.18
381.591	0.13
381.797	0.11
382.004	0.17
382.211	0.15
382.418	0.09
382.624	0.16
382.831	0.22
383.038	0.1
383.244	0.12
383.451	0.12
383.658	0.16
383.864	0.15
384.071	0.08
384.277	0.19
384.484	0.13
384.69	0.17
384.897	0.11
385.103	0.14
385.31	0.09
385.516	0.13
385.723	0.1
385.929	0.16
386.136	0.15
386.342	0.14
386.549	0.11
386.755	0.17
386.961	0.16
387.168	0.14
387.374	0.13
387.58	0.13
387.787	0.14
387.993	0.13
388.199	0.14
388.406	0.1
388.612	0.12
388.818	0.11
389.024	0.11
389.231	0.15
389.437	0.22
389.643	0.18
389.849	0.13
390.055	0.16
390.261	0.15
390.467	0.17
390.674	0.13
390.88	0.16
391.086	0.16
391.292	0.07
391.498	0.14
391.704	0.16
391.91	0.14
392.116	0.1
392.322	0.07
392.528	0.18
392.734	0.19
392.94	0.15
393.146	0.16
393.352	0.18
393.557	0.14
393.763	0.12
393.969	0.16
394.175	0.11
394.381	0.16
394.587	0.14
394.792	0.15
394.998	0.16
395.204	0.17
395.41	0.13
395.615	0.17
395.821	0.15
396.027	0.15
396.233	0.12
396.438	0.14
396.644	0.2
396.85	0.21
397.055	0.21
397.261	0.15
397.466	0.22
397.672	0.19
397.878	0.18
398.083	0.17
398.289	0.13
398.494	0.24
398.7	0.21
398.905	0.07
399.111	0.24
399.316	0.08
399.522	0.17
399.727	0.17
399.932	0.17
400.138	0.11
400.343	0.2
400.549	0.22
400.754	0.22
400.959	0.2
401.165	0.21
401.37	0.18
401.575	0.28
401.78	0.18
401.986	0.22
402.191	0.22
402.396	0.19
402.601	0.23
402.807	0.2
403.012	0.2
403.217	0.25
403.422	0.15
403.627	0.21
403.832	0.19
404.037	0.24
404.243	0.22
404.448	0.18
404.653	0.19
404.858	0.28
405.063	0.22
405.268	0.19
405.473	0.16
405.678	0.18
405.883	0.37
406.088	0.29
406.293	0.18
406.498	0.24
406.703	0.28
406.907	0.25
407.112	0.23
407.317	0.28
407.522	0.3
407.727	0.21
407.932	0.29
408.136	0.34
408.341	0.32
408.546	0.28
408.751	0.29
408.956	0.32
409.16	0.34
409.365	0.3
409.57	0.32
409.774	0.32
409.979	0.35
410.184	0.32
410.388	0.32
410.593	0.41
410.798	0.4
411.002	0.36
411.207	0.4
411.411	0.43
411.616	0.38
411.82	0.39
412.025	0.45
412.229	0.42
412.434	0.54
412.638	0.51
412.843	0.45
413.047	0.48
413.252	0.48
413.456	0.55
413.66	0.58
413.865	0.54
414.069	0.59
414.273	0.56
414.478	0.6
414.682	0.61
414.886	0.63
415.091	0.61
415.295	0.64
415.499	0.74
415.703	0.76
415.908	0.82
416.112	0.73
416.316	0.9
416.52	0.8
416.724	0.86
416.929	0.88
417.133	1.08
417.337	1
417.541	1.04
417.745	1.04
417.949	1.17
418.153	1.16
418.357	1.19
418.561	1.35
418.765	1.3
418.969	1.45
419.173	1.45
419.377	1.43
419.581	1.6
419.785	1.58
419.989	1.64
420.193	1.74
420.397	1.79
420.601	1.92
420.804	1.99
421.008	1.97
421.212	2.11
421.416	2.13
421.62	2.1
421.823	2.2
422.027	2.32
422.231	2.38
422.435	2.32
422.638	2.43
422.842	2.52
423.046	2.61
423.249	2.72
423.453	2.79
423.657	2.92
423.86	2.95
424.064	3.11
424.268	3.22
424.471	3.27
424.675	3.44
424.878	3.6
425.082	3.73
425.285	3.91
425.489	3.84
425.692	4.01
425.896	4.14
426.099	4.22
426.303	4.38
426.506	4.54
426.71	4.76
426.913	5.03
427.116	5.2
427.32	5.23
427.523	5.36
427.726	5.61
427.93	5.73
428.133	6.09
428.336	6.21
428.54	6.34
428.743	6.62
428.946	6.88
429.149	6.97
429.353	7.01
429.556	7.18
429.759	7.17
429.962	7.45
430.165	7.56
430.368	7.26
430.571	7.42
430.775	7.57
430.978	7.55
431.181	7.58
431.384	7.72
431.587	7.86
431.79	8.36
431.993	8.29
432.196	8.58
432.399	9.02
432.602	9.05
432.805	9.24
433.008	9.74
433.211	9.72
433.414	10.09
433.616	10.22
433.819	10.25
434.022	10.48
434.225	10.59
434.428	10.68
434.631	11.17
434.833	10.99
435.036	11.37
435.239	11.53
435.442	11.72
435.645	11.95
435.847	12.04
436.05	12.43
436.253	12.76
436.455	12.81
436.658	12.85
436.861	13.17
437.063	13.56
437.266	13.42
437.468	13.91
437.671	14.42
437.874	14.6
438.076	14.46
438.279	15.02
438.481	15.29
438.684	16.25
438.886	15.85
439.089	16.33
439.291	16.47
439.494	17.03
439.696	17.36
439.899	18.18
440.101	18.91
440.303	19.23
440.506	20.32
440.708	20.08
440.91	20.53
441.113	21.02
441.315	21.58
441.517	21.55
441.72	22.23
441.922	22.04
442.124	22.03
442.326	22.78
442.529	23.17
442.731	23.56
442.933	24.04
443.135	23.98
443.337	24.28
443.539	25.04
443.742	24.92
443.944	25.91
444.146	25.71
444.348	25.9
444.55	26.13
444.752	26.59
444.954	26.92
445.156	26.8
445.358	27.55
445.56	28.06
445.762	28.14
445.964	28.82
446.166	28.66
446.368	28.74
446.57	28.96
446.772	28.43
446.974	28.24
447.175	28.76
447.377	28.59
447.579	29.44
447.781	29
447.983	28.81
448.184	27.96
448.386	28.96
448.588	28.23
448.79	28.09
448.991	28.76
449.193	28.74
449.395	27.84
449.597	27.19
449.798	27.05
450	26.39
450.202	26.33
450.403	26.46
450.605	26.16
450.806	25.67
451.008	25.39
451.21	24.9
451.411	24.37
451.613	22.97
451.814	23.44
452.016	23.18
452.217	22.09
452.419	22.11
452.62	21.66
452.821	21.14
453.023	20.84
453.224	20.32
453.426	19.49
453.627	18.3
453.828	18.43
454.03	18.59
454.231	18.44
454.432	18.19
454.634	17.55
454.835	17.12
455.036	17.03
455.238	16.16
455.439	15.76
455.64	15.42
455.841	15.15
456.042	15.15
456.244	14.68
456.445	14.3
456.646	13.85
456.847	13.56
457.048	13.39
457.249	13.32
457.45	12.81
457.651	12.23
457.852	11.75
458.054	11.36
458.255	11.32
458.456	11.32
458.657	11.12
458.858	10.51
459.058	10.29
459.259	10.35
459.46	10.05
459.661	9.87
459.862	9.77
460.063	9.78
460.264	9.49
460.465	9.12
460.666	9.12
460.866	8.75
461.067	8.39
461.268	8.41
461.469	8.27
461.67	8
461.87	7.8
462.071	7.75
462.272	7.63
462.473	7.56
462.673	7.71
462.874	7.62
463.075	7.41
463.275	7.4
463.476	7.44
463.676	7.35
463.877	7.03
464.078	6.88
464.278	6.98
464.479	6.79
464.679	6.62
464.88	6.43
465.08	6.33
465.281	6.1
465.481	5.87
465.682	5.51
465.882	5.46
466.083	5.41
466.283	5.25
466.483	5.1
466.684	4.81
466.884	4.63
467.085	4.65
467.285	4.62
467.485	4.48
467.686	4.41
467.886	4.17
468.086	4.13
468.286	3.99
468.487	4.07
468.687	3.81
468.887	3.71
469.087	3.81
469.287	3.74
469.488	3.42
469.688	3.48
469.888	3.5
470.088	3.42
470.288	3.3
470.488	3.12
470.688	3.02
470.888	2.99
471.088	2.74
471.288	2.85
471.488	2.78
471.688	2.68
471.888	2.56
472.088	2.72
472.288	2.58
472.488	2.49
472.688	2.43
472.888	2.37
473.088	2.37
473.288	2.26
473.488	2.17
473.688	2.33
473.887	2.15
474.087	2.07
474.287	2.08
474.487	1.98
474.687	1.98
474.886	1.92
475.086	1.82
475.286	1.79
475.486	1.79
475.685	1.75
475.885	1.65
476.085	1.71
476.284	1.65
476.484	1.63
476.684	1.56
476.883	1.67
477.083	1.47
477.282	1.48
477.482	1.51
477.681	1.46
477.881	1.35
478.08	1.38
478.28	1.31
478.479	1.31
478.679	1.36
478.878	1.25
479.078	1.2
479.277	1.23
479.477	1.19
479.676	1.17
479.875	1.14
480.075	1.03
480.274	1.08
480.473	1.13
480.673	1.03
480.872	1.05
481.071	1.03
481.271	1.06
481.47	0.91
481.669	0.93
481.868	0.88
482.067	0.9
482.267	0.85
482.466	0.82
482.665	0.79
482.864	0.8
483.063	0.76
483.262	0.81
483.461	0.81
483.661	0.8
483.86	0.74
484.059	0.75
484.258	0.75
484.457	0.71
484.656	0.67
484.855	0.72
485.054	0.63
485.253	0.62
485.452	0.58
485.651	0.65
485.849	0.63
486.048	0.57
486.247	0.56
486.446	0.59
486.645	0.52
486.844	0.53
487.043	0.52
487.241	0.52
487.44	0.46
487.639	0.49
487.838	0.5
488.037	0.48
488.235	0.52
488.434	0.49
488.633	0.4
488.831	0.44
489.03	0.48
489.229	0.41
489.427	0.41
489.626	0.42
489.825	0.42
490.023	0.39
490.222	0.34
490.42	0.4
490.619	0.38
490.817	0.33
491.016	0.35
491.214	0.39
491.413	0.31
491.611	0.3
491.81	0.3
492.008	0.35
492.207	0.33
492.405	0.33
492.604	0.24
492.802	0.3
493	0.31
493.199	0.26
493.397	0.29
493.595	0.29
493.794	0.28
493.992	0.29
494.19	0.26
494.388	0.27
494.587	0.23
494.785	0.26
494.983	0.19
495.181	0.24
495.379	0.2
495.578	0.2
495.776	0.21
495.974	0.23
496.172	0.2
496.37	0.19
496.568	0.2
496.766	0.17
496.964	0.22
497.162	0.23
497.36	0.18
497.558	0.23
497.756	0.21
497.954	0.19
498.152	0.17
498.35	0.19
498.548	0.18
498.746	0.19
498.944	0.13
499.142	0.15
499.34	0.15
499.538	0.16
499.736	0.16
499.933	0.18
500.131	0.2
500.329	0.16
500.527	0.19
500.725	0.18
500.922	0.19
501.12	0.18
501.318	0.19
501.516	0.14
501.713	0.15
501.911	0.16
502.109	0.1
502.306	0.16
502.504	0.14
502.701	0.1
502.899	0.13
503.097	0.19
503.294	0.15
503.492	0.13
503.689	0.16
503.887	0.14
504.084	0.18
504.282	0.13
504.479	0.09
504.677	0.15
504.874	0.09
505.072	0.11
505.269	0.12
505.466	0.14
505.664	0.13
505.861	0.08
506.059	0.12
506.256	0.14
506.453	0.11
506.651	0.16
506.848	0.11
507.045	0.1
507.242	0.12
507.44	0.09
507.637	0.11
507.834	0.1
508.031	0.12
508.229	0.09
508.426	0.09
508.623	0.12
508.82	0.08
509.017	0.07
509.214	0.11
509.411	0.1
509.608	0.06
509.805	0.1
510.003	0.08
510.2	0.08
510.397	0.13
510.594	0.07
510.791	0.08
510.988	0.1
511.184	0.14
511.381	0.07
511.578	0.08
511.775	0.12
511.972	0.09
512.169	0.11
512.366	0.08
512.563	0.12
512.76	0.08
512.956	0.1
513.153	0.08
513.35	0.08
513.547	0.08
513.744	0.06
513.94	0.06
514.137	0.09
514.334	0.11
514.53	0.09
514.727	0.09
514.924	0.13
515.12	0.09
515.317	0.04
515.514	0.06
515.71	0.05
515.907	0.06
516.103	0.09
516.3	0.09
516.497	0.12
516.693	0.11
516.89	0.08
517.086	0.05
517.283	0.09
517.479	0.08
517.676	0.08
517.872	0.08
518.068	0.05
518.265	0.06
518.461	0.05
518.658	0.03
518.854	0.1
519.05	0.06
519.247	0.06
519.443	0.07
519.639	0.08
519.836	0.08
520.032	0.07
520.228	0.05
520.424	0.09
520.621	0.1
520.817	0.04
521.013	0.1
521.209	0.07
521.405	0.1
521.601	0.06
521.798	0.07
521.994	0.12
522.19	0.05
522.386	0.03
522.582	0.05
522.778	0.07
522.974	0.07
523.17	0.05
523.366	0.07
523.562	0.1
523.758	0.08
523.954	0.03
524.15	0.05
524.346	0.08
524.542	0.05
524.738	0.04
524.934	0.05
525.129	0.08
525.325	0.06
525.521	0.07
525.717	0.1
525.913	0.06
526.109	0.08
526.304	0.08
526.5	0.09
526.696	0.1
526.892	0.05
527.087	0.06
527.283	0.06
527.479	0.08
527.674	0.05
527.87	0.05
528.066	0.03
528.261	0.08
528.457	0.06
528.653	0.07
528.848	0.06
529.044	0.07
529.239	0.07
529.435	0.06
529.63	0.06
529.826	0.1
530.021	0.09
530.217	0.07
530.412	0.03
530.608	0.06
530.803	0.06
530.999	0.05
531.194	0.01
531.389	0.06
531.585	-0
531.78	0.04
531.975	0.07
532.171	0.07
532.366	0.06
532.561	0.06
532.757	0.04
532.952	0.06
533.147	0.07
533.342	0.06
533.538	0.05
533.733	0.07
533.928	0.06
534.123	0.04
534.318	0.03
534.513	0.06
534.709	0.06
534.904	0.04
535.099	0.05
535.294	0.05
535.489	0.06
535.684	0.06
535.879	0.03
536.074	0.04
536.269	0.04
536.464	0.08
536.659	0.04
536.854	0.04
537.049	0.07
537.244	0.08
537.439	0.05
537.634	0.07
537.828	0.08
538.023	0.05
538.218	0.01
538.413	0.04
538.608	0
538.803	0.05
538.997	0.04
539.192	0.1
539.387	0.06
539.582	0.05
539.776	0.05
539.971	0.05
540.166	0.05
540.36	0.04
540.555	0.05
540.75	0.02
540.944	0.07
541.139	0.01
541.334	0.05
541.528	0.06
541.723	0.08
541.917	0.02
542.112	0.01
542.306	0.02
542.501	0.05
542.695	0.05
542.89	0.04
543.084	0.05
543.279	0.04
543.473	0.04
543.668	0.05
543.862	0.05
544.056	0.06
544.251	0.03
544.445	0.07
544.64	0.05
544.834	0.03
545.028	0.04
545.222	0.06
545.417	0.07
545.611	0.04
545.805	0.04
546	0.04
546.194	0.04
546.388	0.04
546.582	0.06
546.776	0.05
546.97	0.06
547.165	0.04
547.359	0.05
547.553	0.04
547.747	0.06
547.941	0.05
548.135	0.04
548.329	0.07
548.523	0.06
548.717	0.06
548.911	0.02
549.105	0.06
549.299	0.05
549.493	0.08
549.687	0.05
549.881	0.06
550.075	0.07
550.269	0.01
550.463	0.07
550.657	0.03
550.85	0.03
551.044	0.02
551.238	0.05
551.432	0.03
551.626	0.02
551.82	0.05
552.013	0.03
552.207	0.04
552.401	0.08
552.594	0.06
552.788	0.05
552.982	0.06
553.176	0.03
553.369	0.05
553.563	0.07
553.756	0.01
553.95	0.01
554.144	0.03
554.337	0.07
554.531	0.06
554.724	0.05
554.918	0.03
555.111	0.08
555.305	0.04
555.498	0.1
555.692	0.07
555.885	0.02
556.079	0.06
556.272	0.03
556.466	0.07
556.659	0.07
556.852	0.05
557.046	0.03
557.239	0.07
557.432	0.03
557.626	0.03
557.819	0.04
558.012	0.05
558.206	0.07
558.399	0.04
558.592	0.05
558.785	0.03
558.979	0.08
559.172	0.04
559.365	0.06
559.558	0.04
559.751	0.07
559.944	0.06
560.138	0.05
560.331	0.02
560.524	0.03
560.717	0.04
560.91	0.04
561.103	0.06
561.296	0.04
561.489	0.05
561.682	0.04
561.875	0.06
562.068	0.05
562.261	0.03
562.454	0.09
562.647	0.05
562.84	0.05
563.032	0.03
563.225	0.08
563.418	0.05
563.611	0.04
563.804	0.05
563.997	0.01
564.19	0.03
564.382	0.06
564.575	0.03
564.768	0.03
564.961	0.03
565.153	0.03
565.346	0.05
565.539	0.08
565.731	0.06
565.924	0.08
566.117	0.06
566.309	0.04
566.502	0.04
566.695	0.05
566.887	0.05
567.08	0.01
567.272	0.03
567.465	0.04
567.657	0.04
567.85	0.07
568.042	0.08
568.235	0.09
568.427	0.02
568.62	0.04
568.812	0.05
569.005	0.05
569.197	-0
569.389	0.03
569.582	0.06
569.774	0.05
569.966	0.02
570.159	0.04
570.351	0.07
570.543	0.02
570.736	0.01
570.928	0.02
571.12	0.06
571.312	0.01
571.505	0.02
571.697	0.08
571.889	0.02
572.081	0.02
572.273	0
572.465	0.07
572.658	0.03
572.85	0.07
573.042	0.03
573.234	0.03
573.426	0.09
573.618	0
573.81	0.04
574.002	0.09
574.194	0.09
574.386	0.01
574.578	-0.05
574.77	0.01
574.962	0.02
575.154	0.01
575.346	0.03
575.538	0.04
575.729	0.02
575.921	0.03
576.113	0.02
576.305	0.06
576.497	0.05
576.689	0.05
576.88	0.01
577.072	0.06
577.264	0.03
577.456	0.03
577.647	-0.05
577.839	0.04
578.031	0.07
578.223	0.01
578.414	0.03
578.606	0.08
578.798	0.06
578.989	0
579.181	0.04
579.372	0.04
579.564	0.03
579.755	0.04
579.947	0.03
580.139	0.07
580.33	0.01
580.522	0.03
580.713	-0.03
580.905	0.03
581.096	0.05
581.287	0.02
581.479	0.05
581.67	0.08
581.862	0.03
582.053	0.03
582.244	-0.03
582.436	0.02
582.627	0.05
582.818	0.01
583.01	0
583.201	0.05
583.392	0.03
583.583	0.05
583.775	0.02
583.966	0.02
584.157	0.03
584.348	0.03
584.54	-0.01
584.731	0.04
584.922	0.02
585.113	0
585.304	0.05
585.495	0.09
585.686	0.02
585.877	0.05
586.068	0.05
586.259	0.05
586.45	0.04
586.641	0.02
586.832	-0.04
587.023	0.04
587.214	0.01
587.405	0.04
587.596	0.01
587.787	0.08
587.978	0.06
588.169	-0.02
588.36	0.02
588.551	0.05
588.742	-0.01
588.932	0.06
589.123	0.03
589.314	0.06
589.505	0.05
589.696	0.05
589.886	0.02
590.077	-0.01
590.268	0.04
590.458	0.02
590.649	0
590.84	0.06
591.03	0.02
591.221	0.01
591.412	-0.02
591.602	0.06
591.793	0.08
591.984	-0
592.174	0.04
592.365	0.1
592.555	0.02
592.746	0.04
592.936	0.05
593.127	0.04
593.317	0.07
593.508	0
593.698	0
593.889	0.05
594.079	0.05
594.269	-0.01
594.46	0.04
594.65	0.05
594.84	0.05
595.031	0.01
595.221	0.02
595.411	-0.02
595.602	0.04
595.792	0.04
595.982	0.03
596.172	0.1
596.363	0.05
596.553	0.02
596.743	0.02
596.933	0.05
597.123	0.07
597.314	-0
597.504	0.03
597.694	0.07
597.884	0.04
598.074	0
598.264	0.04
598.454	0.07
598.644	0.02
598.834	0.01
599.024	-0.02
599.214	0.02
599.404	0.05
599.594	0.02
599.784	0.02
599.974	0.06
600.164	0.07
600.354	-0.01
600.544	-0.04
600.734	0.02
600.924	0.08
601.114	0.01
601.303	0.04
601.493	0.04
601.683	0.04
601.873	0.04
602.063	-0.02
602.252	0.07
602.442	-0.02
602.632	0
602.821	0
603.011	0.06
603.201	0.03
603.39	0.03
603.58	0.02
603.77	0.06
603.959	0.06
604.149	0.03
604.339	0.02
604.528	0.04
604.718	0.06
604.907	0.01
605.097	0.02
605.286	0.01
605.476	0.05
605.665	0.05
605.855	0.02
606.044	0.08
606.234	0.05
606.423	0.02
606.612	0
606.802	0.03
606.991	0.06
607.181	0.03
607.37	-0.01
607.559	0.05
607.749	-0.03
607.938	0.01
608.127	0.02
608.316	0.01
608.506	0.06
608.695	0.05
608.884	0.04
609.073	0.03
609.263	0.04
609.452	0.06
609.641	0.06
609.83	-0.01
610.019	0
610.208	0.03
610.397	0.05
610.586	0.05
610.775	0.02
610.965	0.04
611.154	0
611.343	0.05
611.532	0.03
611.721	0.02
611.91	-0.03
612.099	0.06
612.287	0.03
612.476	-0.02
612.665	0.04
612.854	-0.01
613.043	0.09
613.232	0.04
613.421	-0.04
613.61	0.04
613.798	0.01
613.987	0.02
614.176	0.01
614.365	0.03
614.554	0.04
614.742	0.07
614.931	0.02
615.12	0.07
615.309	0.02
615.497	0.05
615.686	-0.01
615.875	0.03
616.063	0.05
616.252	0.01
616.44	0.01
616.629	0.09
616.818	0.07
617.006	-0.01
617.195	0.02
617.383	0.05
617.572	0.02
617.76	0.03
617.949	0.03
618.137	0.05
618.326	0.06
618.514	0.01
618.703	0.02
618.891	0.09
619.079	-0.02
619.268	0.06
619.456	0.01
619.644	0.07
619.833	0.06
620.021	-0.03
620.209	-0.02
620.398	0.03
620.586	0.05
620.774	0.05
620.962	-0.01
621.151	0.08
621.339	0.04
621.527	0
621.715	-0.01
621.903	0
622.092	-0.01
622.28	0.06
622.468	0.03
622.656	0
622.844	0.05
623.032	0.01
623.22	-0.06
623.408	0.07
623.596	0.04
623.784	0
623.972	0.01
624.16	0.01
624.348	0.09
624.536	0.02
624.724	0.02
624.912	0.07
625.1	0.05
625.288	-0.01
625.476	0.03
625.664	0.05
625.851	0.01
626.039	0.05
626.227	0.04
626.415	0.04
626.603	-0.06
626.79	0.04
626.978	-0.01
627.166	0.06
627.354	0.05
627.541	-0.02
627.729	-0.04
627.917	0.07
628.104	0.07
628.292	0.04
628.48	0.03
628.667	0.03
628.855	0.05
629.042	0.03
629.23	0.02
629.418	0.03
629.605	0.04
629.793	-0.01
629.98	0.02
630.168	0.01
630.355	0.04
630.543	0.06
630.73	0.02
630.917	0.04
631.105	0.07
631.292	-0.02
631.48	0.03
631.667	0.11
631.854	0.05
632.042	0.02
632.229	-0.01
632.416	0
632.604	0.02
632.791	-0.04
632.978	0.04
633.165	0.03
633.353	0.1
633.54	0.03
633.727	-0.06
633.914	0.01
634.101	-0.07
634.289	0.04
634.476	-0
634.663	0.01
634.85	0.05
635.037	-0.05
635.224	-0.03
635.411	0.04
635.598	0.04
635.785	0.04
635.972	0
636.159	0.08
636.346	0
636.533	0.01
636.72	0.01
636.907	0.02
637.094	0.05
637.281	0.03
637.468	0.04
637.655	-0.01
637.842	-0
638.029	-0.04
638.215	0.04
638.402	0.05
638.589	0.02
638.776	0
638.963	-0.01
639.149	0.08
639.336	0.11
639.523	0.03
639.709	-0.01
639.896	0.01
640.083	0.08
640.27	0.06
640.456	0.02
640.643	0.02
640.829	-0.05
641.016	0.02
641.203	-0.02
641.389	0.06
641.576	0.06
641.762	0
641.949	-0.01
642.135	0.06
642.322	0.02
642.508	-0.02
642.695	0.03
642.881	0.01
643.068	0.02
643.254	0.04
643.441	0.06
643.627	0.01
643.813	0
644	0.01
644.186	0.01
644.372	0.03
644.559	0.06
644.745	0.03
644.931	-0.02
645.118	0.02
645.304	0.05
645.49	0.03
645.676	0.01
645.862	0.05
646.049	0.07
646.235	0.01
646.421	0.1
646.607	0.09
646.793	-0.01
646.979	-0
647.165	0.02
647.352	0.06
647.538	0.06
647.724	0.04
647.91	0.02
648.096	0.04
648.282	0.07
648.468	0.01
648.654	0.03
648.84	0.02
649.026	0.02
649.212	-0.01
649.397	-0.01
649.583	0
649.769	0.07
649.955	0.02
650.141	0.03
650.327	0.1
650.513	0
650.698	0.06
650.884	-0.06
651.07	0.07
651.256	0.05
651.442	0.03
651.627	-0
651.813	0.04
651.999	0.02
652.184	0.05
652.37	-0.01
652.556	0.01
652.741	0.07
652.927	-0.03
653.113	0.02
653.298	0.05
653.484	0.03
653.669	-0.01
653.855	0
654.04	0.04
654.226	0.04
654.412	0.01
654.597	-0.02
654.782	0.06
654.968	0.06
655.153	0.04
655.339	0
655.524	-0.03
655.71	0.09
655.895	0.01
656.08	-0.01
656.266	0.1
656.451	0.04
656.636	0.01
656.822	-0.01
657.007	0.01
657.192	0.01
657.378	-0.02
657.563	0.04
657.748	0.04
657.933	0.03
658.118	0
658.304	-0.01
658.489	0.04
658.674	0.03
658.859	-0.02
659.044	0.04
659.229	0.03
659.414	0
659.599	0.02
659.785	-0.04
659.97	0.03
660.155	0.08
660.34	0.01
660.525	0.02
660.71	0.01
660.895	0.08
661.08	-0.02
661.264	-0.01
661.449	0.05
661.634	0.06
661.819	0.08
662.004	0.07
662.189	-0.05
662.374	0
662.559	-0.03
662.743	-0.05
662.928	-0.01
663.113	0.02
663.298	-0.06
663.483	0.01
663.667	0.05
663.852	0.01
664.037	0.06
664.221	-0.01
664.406	0.03
664.591	0.04
664.775	0.02
664.96	-0.02
665.145	0.04
665.329	0.03
665.514	0.02
665.698	0.01
665.883	-0.04
666.068	0.07
666.252	0.03
666.437	-0.02
666.621	0.03
666.806	0.06
666.99	0.01
667.174	-0.03
667.359	0.1
667.543	0.01
667.728	-0
667.912	-0.01
668.096	0.04
668.281	-0.01
668.465	0.04
668.649	-0.01
668.834	-0.04
669.018	-0.02
669.202	0.01
669.387	-0.01
669.571	0.07
669.755	-0.01
669.939	0.01
670.124	0.03
670.308	0.07
670.492	0.05
670.676	0.03
670.86	0.04
671.044	-0.01
671.228	0.06
671.413	-0.01
671.597	0.01
671.781	-0.02
671.965	0.07
672.149	0.04
672.333	0.03
672.517	-0.04
672.701	0.03
672.885	-0.03
673.069	-0.04
673.253	0.12
673.437	0.03
673.621	-0.03
673.804	0.02
673.988	0.01
674.172	0.01
674.356	-0.02
674.54	0.03
674.724	0.12
674.908	0.03
675.091	0.07
675.275	0.01
675.459	0.08
675.643	0.18
675.826	0.01
676.01	0.02
676.194	0.02
676.377	0.04
676.561	0.03
676.745	0.11
676.928	0.06
677.112	0.08
677.296	0.04
677.479	-0.01
677.663	0.02
677.846	0.06
678.03	0.04
678.213	0
678.397	0.05
678.58	-0.02
678.764	-0
678.947	-0.02
679.131	0.03
679.314	0.07
679.498	0.02
679.681	0.04
679.865	0.08
680.048	0.01
680.231	0.04
680.415	-0
680.598	0.02
680.781	0.02
680.965	0.03
681.148	0.04
681.331	0.01
681.514	0.03
681.698	0.02
681.881	0.03
682.064	0.06
682.247	0.04
682.43	-0.04
682.614	0.04
682.797	0.07
682.98	0.04
683.163	-0.03
683.346	0.01
683.529	-0.01
683.712	-0
683.895	0.04
684.078	-0.01
684.261	-0.01
684.444	0.08
684.627	0.02
684.81	-0.03
684.993	0
685.176	0.03
685.359	-0.03
685.542	-0
685.725	0.09
685.908	0.06
686.091	-0.02
686.274	0.06
686.457	0.03
686.639	0.03
686.822	0.06
687.005	0.04
687.188	-0.02
687.371	0.07
687.553	0.09
687.736	0.05
687.919	0.11
688.102	0.13
688.284	-0.01
688.467	0.03
688.65	-0
688.832	-0.05
689.015	0.03
689.197	-0.04
689.38	0.08
689.563	0.1
689.745	0
689.928	-0.04
690.11	0.04
690.293	0.01
690.475	-0.05
690.658	0.03
690.84	-0
691.023	0.08
691.205	0.02
691.388	0.04
691.57	0.09
691.752	0.07
691.935	0.01
692.117	-0.02
692.3	0.07
692.482	0.02
692.664	0.04
692.847	0.02
693.029	0.07
693.211	0.08
693.393	0.05
693.576	0.03
693.758	0.05
693.94	0.03
694.122	0.05
694.304	0.03
694.487	-0.01
694.669	0.11
694.851	-0.03
695.033	0.06
695.215	-0.02
695.397	0.03
695.579	0.08
695.761	-0.02
695.943	-0.05
696.125	0.09
696.308	0.09
696.49	-0.11
696.671	0.18
696.853	0.07
697.035	0.13
697.217	0.04
697.399	0.1
697.581	-0.05
697.763	0.01
697.945	-0.01
698.127	-0.01
698.309	0.13
698.491	0.05
698.672	0.04
698.854	0.12
699.036	0.12
699.218	-0
699.399	0.06
699.581	0.09
699.763	0.05
699.945	0.02
700.126	-0.04
700.308	0.04
700.49	0.02
700.671	-0.03
700.853	-0.02
701.035	0
701.216	0.02
701.398	-0.03
701.579	-0.02
701.761	0.05
701.943	-0.01
702.124	-0.03
702.306	-0.04
702.487	0.18
702.669	0.06
702.85	0.02
703.031	-0.04
703.213	0.07
703.394	0.12
703.576	-0.03
703.757	0.16
703.938	0.13
704.12	0.16
704.301	0.08
704.483	-0.01
704.664	0.11
704.845	0.12
705.026	0.13
705.208	-0
705.389	0.07
705.57	0.05
705.751	0.02
705.933	0.03
706.114	0.06
706.295	0.04
706.476	-0.01
706.657	0.09
706.838	0.06
707.02	0.07
707.201	-0.02
707.382	0.01
707.563	0.06
707.744	0.04
707.925	0.03
708.106	0.03
708.287	0.04
708.468	0.12
708.649	0.04
708.83	0.06
709.011	0.03
709.192	0.04
709.373	-0.01
709.554	-0.01
709.734	0.08
709.915	0.12
710.096	0.05
710.277	-0.06
710.458	0.03
710.639	0.09
710.819	-0.08
711	0.02
711.181	0.05
711.362	0.11
711.542	0.09
711.723	0.04
711.904	0.13
712.085	0.06
712.265	0.1
712.446	-0.06
712.627	-0.02
712.807	0.02
712.988	-0.01
713.168	-0.03
713.349	0.05
713.53	-0.05
713.71	-0.07
713.891	0.01
714.071	0.05
714.252	0.02
714.432	-0.04
714.613	-0.03
714.793	0.06
714.974	0.12
715.154	0.12
715.334	0.11
715.515	0.16
715.695	-0.02
715.876	-0.05
716.056	0.06
716.236	0.05
716.417	0.05
716.597	-0.01
716.777	0.2
716.957	0.02
717.138	0.08
717.318	0.03
717.498	-0.05
717.678	0.06
717.859	0.07
718.039	-0.08
718.219	0.02
718.399	0.09
718.579	-0.01
718.759	-0.07
718.939	0.03
719.12	0.09
719.3	0.06
719.48	-0.01
719.66	-0.05
719.84	0.09
720.02	0.02
720.2	-0.03
720.38	0.09
720.56	0.13
720.74	0.01
720.92	0.06
721.1	0.13
721.279	0.11
721.459	0.1
721.639	-0.06
721.819	0.09
721.999	-0.06
722.179	0.1
722.359	-0.04
722.538	0.02
722.718	0.05
722.898	0.04
723.078	0.04
723.257	0.02
723.437	0.05
723.617	0.06
723.797	-0
723.976	0.04
724.156	0.1
724.336	0.08
724.515	0.22
724.695	-0.08
724.874	0.01
725.054	0.11
725.234	-0.04
725.413	0.09
725.593	0.04
725.772	0.01
725.952	0.09
726.131	0.03
726.311	0.05
726.49	0.13
726.67	-0.09
726.849	0.02
727.028	0.09
727.208	-0
727.387	0.06
727.567	-0.05
727.746	0
727.925	0.06
728.105	-0.03
728.284	-0.02
728.463	-0.03
728.643	0.06
728.822	-0.01
729.001	0.05
729.18	-0.06
729.359	0.07
729.539	-0.08
729.718	0.08
729.897	0.16
730.076	-0.04
730.255	-0.03
730.434	0.09
730.614	0.13
730.793	0.04
730.972	0.14
731.151	0.16
731.33	0.17
731.509	0.12
731.688	0.01
731.867	0.02
732.046	-0.12
732.225	0.19
732.404	-0.03
732.583	-0.11
732.762	0.06
732.941	0.13
733.12	0.08
733.298	0.02
733.477	0.13
733.656	0.07
733.835	-0.03
734.014	0.19
734.193	0.08
734.371	0.1
734.55	0.07
734.729	-0.05
734.908	0.07
735.086	0.16
735.265	0.16
735.444	-0.02
735.623	-0.06
735.801	-0.05
735.98	0.06
736.159	0.01
736.337	0.1
736.516	0.09
736.694	0.05
736.873	0.01
737.052	0.18
737.23	0.2
737.409	0.02
737.587	0.25
737.766	-0.16
737.944	0.11
738.123	0.09
738.301	0.08
738.479	0.03
738.658	0.1
738.836	-0.16
739.015	0.08
739.193	0.25
739.371	-0.02
739.55	0.1
739.728	-0.02
739.906	0.15
740.085	0.2
740.263	0.08
740.441	-0.2
740.62	0.21
740.798	0.13
740.976	-0.01
741.154	0.05
741.332	0.24
741.511	0.03
741.689	0.16
741.867	0.03
742.045	0.1
742.223	-0.02
742.401	-0.13
742.579	0.06
742.757	0.1
742.935	-0.06
743.114	-0.03
743.292	0.08
743.47	0.05
743.648	0.16
743.826	-0.06
744.004	0.13
744.181	0.16
744.359	-0.04
744.537	0.04
744.715	0.03
744.893	0.08
745.071	0.13
745.249	0.03
745.427	-0.02
745.605	0.1
745.782	0.09
745.96	0.14
746.138	0.12
746.316	0.13
746.493	-0.03
746.671	0.09
746.849	0.04
747.027	0.15
747.204	-0.04
747.382	0.15
747.56	-0
747.737	0.06
747.915	-0.02
748.093	0.09
748.27	-0.03
748.448	0.03
748.625	-0.03
748.803	-0.06
748.98	0.01
749.158	0.21
749.335	0.13
749.513	0.06
749.69	-0.01
749.868	0.1
750.045	0.07
750.223	0.06
750.4	-0.15
750.578	0.26
750.755	0.09
750.932	-0
751.11	0.18
751.287	-0.01
751.464	0.21
751.642	0
751.819	0.07
751.996	0.02
752.173	-0.01
752.351	0.02
752.528	0.02
752.705	-0.03
752.882	0.1
753.06	0.11
753.237	0.12
753.414	0.2
753.591	0.18
753.768	0.01
753.945	0.02
754.122	0.01
754.299	0.03
754.476	-0.07
754.654	0.1
754.831	0.09
755.008	0.13
755.185	-0.01
755.362	-0.12
755.539	0.12
755.716	-0.07
755.892	0
756.069	-0.03
756.246	0.02
756.423	-0.01
756.6	0.19
756.777	-0.02
756.954	0.13
757.131	0.12
757.307	-0
757.484	-0.03
757.661	0.09
757.838	0.07
758.015	-0.12
758.191	0.06
758.368	0.04
758.545	0.15
758.721	0.13
758.898	-0.08
759.075	0.05
759.251	0.18
759.428	0.21
759.605	-0.12
759.781	0.02
759.958	0.15
760.134	0.05
760.311	0.08
760.488	0.22
760.664	0.21
760.841	0.06
761.017	-0.11
761.194	0.2
761.37	0.11
761.547	0.07
761.723	0.09
761.899	0.2
762.076	-0.02
762.252	-0.12
762.429	0.05
762.605	0.14
762.781	0.06
762.958	0.12
763.134	0.07
763.31	-0.02
763.486	0.13
763.663	-0.13
763.839	0.26
764.015	-0.18
764.191	0
764.368	-0.02
764.544	-0.05
764.72	0.14
764.896	0.2
765.072	0.19
765.248	0.02
765.425	0.07
765.601	0.08
765.777	0.14
765.953	-0.21
766.129	-0.09
766.305	-0.02
766.481	0.11
766.657	0.09
766.833	0.33
767.009	-0.06
767.185	0.06
767.361	0.02
767.537	-0.07
767.713	0.2
767.889	0.07
768.065	0.11
768.24	-0.04
768.416	0.16
768.592	-0.04
768.768	-0.05
768.944	0.22
769.12	0.03
769.295	0.08
769.471	0.11
769.647	-0
769.823	0.13
769.998	-0.1
770.174	0.01
770.35	0.36
770.525	0.41
770.701	0.15
770.877	0.09
771.052	-0.07
771.228	0.15
771.403	0.13
771.579	0.14
771.755	0.36
771.93	0.05
772.106	-0.06
772.281	-0.13
772.457	-0.01
772.632	0.15
772.808	-0.08
772.983	-0.04
773.159	0.01
773.334	0.27
773.509	0.13
773.685	-0.05
773.86	0.27
774.036	0.26
774.211	0.23
774.386	0.1
774.562	0.03
774.737	0.18
774.912	-0.07
775.087	0.08
775.263	0.11
775.438	0.01
775.613	-0.04
775.788	-0.01
775.964	0.16
776.139	0.41
776.314	-0.16
776.489	0.14
776.664	0.11
776.839	-0.08
777.014	0.26
777.19	0.22
777.365	0.33
777.54	0.44
777.715	-0
777.89	0.03
778.065	-0.09
778.24	-0.04
778.415	0.24
778.59	-0.25
778.765	0.09
778.94	0.2
779.115	0.01
779.289	-0
779.464	0.05
779.639	0.06
779.814	-0.04
779.989	-0.17
780.164	0.24
780.339	0.18
780.513	0
780.688	-0.16
780.863	0.24
781.038	0.19
781.212	-0.08
781.387	0.2
781.562	0.29
781.737	0.12
781.911	0.32
782.086	-0.28
782.261	0.07
782.435	0.21
782.61	0.02
782.784	0.11
782.959	0.24
783.134	0.09
783.308	-0.24
783.483	0.13
783.657	0.48
783.832	0.37
784.006	-0.13
784.181	-0.15
784.355	0.14
784.53	-0.07
784.704	-0.08
784.878	0.16
785.053	0.07
785.227	0.15
785.402	0.48
785.576	-0.16
785.75	0.15
785.925	0
786.099	0.02
786.273	0.11
786.448	0.23
786.622	0.33
786.796	0.24
786.97	-0.08
787.145	0.58
787.319	-0.25
787.493	-0.11
787.667	-0.29
787.841	0.06
788.015	0.41
788.19	0.02
788.364	0.1
788.538	0.27
788.712	0.31
788.886	0.06
789.06	0.36
789.234	-0.01
789.408	0.04
789.582	0.17
789.756	0.01
789.93	-0.12
790.104	0.18
790.278	-0.03
790.452	-0.05
790.626	0.13
790.8	-0.1
790.973	0.16
791.147	0.32
791.321	0.41
791.495	0.38
791.669	0.17
791.843	0.23
792.016	0.26
792.19	0.36
792.364	-0.12
792.538	0.67
792.711	0.18
792.885	0.02
793.059	-0.1
793.233	-0.09
793.406	0.3
793.58	0.35
793.754	0.41
793.927	0.1
794.101	0.38
794.274	-0.1
794.448	0.23
794.622	-0.23
794.795	0.5
794.969	0.18
795.142	0.14
795.316	-0.03
795.489	-0.02
795.663	0.66
795.836	0.09
796.009	-0.11
796.183	0.42
796.356	0.22
796.53	0.2
796.703	0.18
796.876	0.69
797.05	-0.24
797.223	0.01
797.396	0.12
797.57	0.02
797.743	0.54
797.916	0.24
798.09	0.07
798.263	0.47
798.436	0.29
798.609	-0.02
798.782	0.14
798.956	0.13
799.129	0.13
799.302	-0.08
799.475	0.1
799.648	0.05
799.821	0.19
799.994	0.17
800.167	-0.15
800.34	0.04
800.514	-0.09
800.687	-0.21
800.86	-0.07
801.033	0.24
801.206	0.38
801.379	-0.23
801.551	0.49
801.724	0.17
801.897	0.54
802.07	0.2
802.243	-0.29
802.416	0.03
802.589	-0.11
802.762	0.28
802.935	0.2
803.107	0.33
803.28	0.59
803.453	0.32
803.626	-0.24
803.798	0.28
803.971	-0.19
804.144	0.28
804.317	0.24
804.489	0.39
804.662	-0.06
804.835	0.09
805.007	0.1
805.18	0.62
805.353	0.31
805.525	-0.66
805.698	-0.3
805.87	0.27
806.043	0.47
806.215	-0.07
806.388	-0.33
806.56	0.15
806.733	0.64
806.905	0.37
807.078	0.03
807.25	-0.16
807.423	0.02
807.595	0.3
807.768	0.19
807.94	0.39
808.112	0.13
808.285	0.22
808.457	-0.21
808.629	0.26
808.802	0.33
808.974	0
809.146	-0.15
809.318	-0.3
809.491	0.53
809.663	0.45
809.835	0.03
810.007	0.31
810.18	0.46
810.352	-0.33
810.524	-0.02
810.696	0.1
810.868	0.72
811.04	0.18
811.212	-0.06
811.384	0.24
811.556	0.35
811.728	0.08
811.901	0.86
812.073	-0.37
812.245	0.95
812.417	0.21
812.589	-0.55
812.76	0.2
812.932	0.43
813.104	0.07
813.276	0.06
813.448	0.51
813.62	0.43
813.792	-0.07
813.964	0.23
814.136	0.23
814.307	-0.53
814.479	-0.44
814.651	-0.21
814.823	0.69
814.995	0.05
815.166	0.5
815.338	-0.09
815.51	-0.61
815.681	1.06
815.853	0.14
816.025	0.07
816.196	0.78
816.368	0.65
816.54	-0.03
816.711	-0.11
816.883	0.43
817.054	0.87
817.226	-0.45
817.398	0.09
817.569	-0.11
817.741	0.11
817.912	0.05
818.084	-0.18
818.255	0.23
818.426	-0.26
818.598	0.14
818.769	0.05
818.941	0.23
819.112	0.63
819.283	0.32
819.455	-0.06
819.626	0.17
819.798	0.51
819.969	0.31
820.14	-0.19
820.311	0.08
820.483	0.37
820.654	-0.33
820.825	0.17
820.996	-0.17
821.168	-0.24
821.339	-0.12
821.51	-0.12
821.681	0.11
821.852	0.59
822.023	-0.05
822.195	-0.51
822.366	0.37
822.537	-0.03
822.708	0.65
822.879	0.03
823.05	0.99
823.221	0.35
823.392	0.67
823.563	-0.02
823.734	0.51
823.905	0.33
824.076	0.07
824.247	-0.17
824.418	-0.27
824.589	1.33
824.759	-0.18
824.93	0.33
825.101	-0.63
825.272	-0.05
825.443	0.81
825.614	0.55
825.784	-0.83
825.955	0.65
826.126	0.65
826.297	0.44
826.467	0.67
826.638	0.93
826.809	-0.55
826.98	-0.14
827.15	0.23
827.321	0.15
827.492	0.63
827.662	0.07
827.833	0.75
828.003	0.18
828.174	-0.27
828.345	-0.58
828.515	1.33
828.686	0.07
828.856	0.03
829.027	0.17
829.197	0.66
829.368	0.42
829.538	-0.3
829.709	-0.62
829.879	0.18
830.049	0.02
830.22	-0.2
830.39	0.44
830.56	0.38
830.731	-0.21
830.901	-0.05
831.072	0
831.242	0.38
831.412	0.21
831.582	0.51
831.753	-0.37
831.923	0.81
832.093	0.34
832.263	0.54
832.434	-0.58
832.604	-0.45
832.774	0.89
832.944	-0.05
833.114	-0.4
833.284	0.68
833.454	-0.11
833.624	-0.05
833.795	0.24
833.965	1.42
834.135	0.94
834.305	-0.97
834.475	-0.35
834.645	0.76
834.815	-0.34
834.985	0.24
835.155	-0.38
835.325	0.59
835.494	-0.21
835.664	0.08
835.834	-0.37
836.004	0.46
836.174	0.81
836.344	-0.2
836.514	-0.9
836.684	0.18
836.853	0.3
837.023	0.37
837.193	-0.65
837.363	0.73
837.532	0.67
837.702	0.08
837.872	-0.75
838.041	0.95
838.211	1.38
838.381	-0.18
838.55	0.17
838.72	1.98
838.89	1.02
839.059	0.85
839.229	0.09
839.398	1.71
839.568	0.3
839.738	0.27
839.907	0.71
840.077	0.07
840.246	-0.31
840.416	-0.46
840.585	0.09
840.755	1.11
840.924	1.23
841.093	0.46
841.263	-0.04
841.432	0.18
841.602	0.24
841.771	-0.75
841.94	0.42
842.11	2.28
842.279	1.65
842.448	-1
842.617	-0.32
842.787	1.31
842.956	-0.37
843.125	-0.39
843.294	0.05
843.464	1.25
843.633	0.29
843.802	-0.56
843.971	0.12
844.14	0.94
844.309	0.55
844.479	-0.24
844.648	-0.88
844.817	-0.11
844.986	0.1
845.155	-0.44
845.324	-0.1
845.493	0.78
845.662	-1.26
845.831	0.5
846	0.84
846.169	0.33
846.338	2.16
846.507	0.79
846.676	0.93
846.844	-0.82
847.013	1.35
847.182	0.5
847.351	0.07
847.52	-0.07
847.689	0.64
847.858	0.55
848.026	-0.41
848.195	0.25
848.364	-0.3
848.533	-0.29
848.701	-0.77
848.87	-0.08
849.039	0.98
849.207	0.54
849.376	1.36
849.545	1.38
849.713	-0.35
849.882	0.21
850.051	-0.09
850.219	0.26
850.388	0.74
850.556	-0.02
850.725	-1.1
850.893	0.5
851.062	0.42
851.23	1.41
851.399	-0.37
851.567	-0.06
851.736	-0.07
851.904	-0.78
852.073	0.48
852.241	0.65
852.41	-0.04
852.578	0.06
852.746	0.43
852.915	1.46
853.083	0.16
853.251	-0.61
853.42	0.36
853.588	-0.62
853.756	1.16
853.924	0.21
854.093	-0.49
854.261	0.39
854.429	-0.72
854.597	0.71
854.765	-0.51
854.934	0.93
855.102	0.9
855.27	-0.19
855.438	0.36
855.606	0.62
855.774	1.44
855.942	-1.36
856.11	-1.77
856.278	0.38
856.446	1.49
856.614	0.66
856.782	-0.22
856.95	1.21
857.118	1.83
857.286	0.96
857.454	-0.44
857.622	1.7
857.79	1.21
857.958	-0.52
858.126	-0.3
858.294	-3.49
858.462	-0.67
858.629	-0.49
858.797	-0.83
858.965	0.09
859.133	0.79
859.301	-0.99
859.468	0.97
859.636	-0.22
859.804	0.89
859.971	2.07
860.139	-0.07
860.307	1.31
860.474	0.27
860.642	-0.94
860.81	-0.56
860.977	0.42
861.145	0.99
861.313	1.77
861.48	-0.03
861.648	-0.2
861.815	-0.55
861.983	-0.66
862.15	-1.04
862.318	1.79
862.485	0.64
862.653	-0.56
862.82	0.49
862.988	2.04
863.155	0.93
863.322	-0.52
863.49	-0.29
863.657	0.81
863.824	2.45
863.992	2.81
864.159	1.25
864.326	2
864.494	-1.26
864.661	2.26
864.828	-0.62
864.996	2.34
865.163	1.08
865.33	0.06
865.497	-1.1
865.664	-0.37
865.832	-0.94
865.999	0.65
866.166	-0.76
866.333	-1.28
866.5	0.2
866.667	0.17
866.834	-0.25
867.001	2.11
867.168	-1.42
867.335	-0.84
867.502	-2.87
867.669	0.51
867.836	3.18
868.003	1.09
868.17	1.22
868.337	-1.25
868.504	2.86
868.671	-1.45
868.838	-0.33
869.005	1.61
869.172	1.45
869.339	1.18
869.505	0.6
869.672	0.35
869.839	1.69
870.006	1.83
870.173	-1.26
870.339	0.64
870.506	3.07
870.673	-0.17
870.84	1.27
871.006	1.57
871.173	-0.54
871.34	-0.55
871.506	-1.09
871.673	1.53
871.839	-1.81
872.006	-0.14
872.173	-0.36
872.339	0.65
872.506	0.45
872.672	0.19
872.839	-0.79
873.005	1.24
873.172	3.86
873.338	2.14
873.505	1.97
873.671	1.77
873.838	1.31
874.004	-2.07
874.171	1.12
874.337	1.17
874.503	2.67
874.67	1.18
874.836	-0.1
875.002	1.15
875.169	1.67
875.335	0.83
875.501	-0.68
875.668	2.65
875.834	-0.69
876	-1.11
876.166	0.63
876.332	1.66
876.499	2.17
876.665	0.41
876.831	2
876.997	4.05
877.163	1.66
877.329	-0.49
877.495	0.45
877.662	1.36
877.828	-0.05
877.994	0.34
878.16	-0.73
878.326	-0.25
878.492	1.25
878.658	0.45
878.824	0.66
878.99	1.87
879.156	0.6
879.322	3.05
879.487	-0.27
879.653	0.4
879.819	1.65
879.985	-0.77
880.151	3.29
880.317	0.23
880.483	1.13
880.648	1.61
880.814	-1.84
880.98	-0.2
881.146	-2.73
881.312	-1.1
881.477	-0.2
881.643	-0.43
881.809	2.62
881.974	1.62
882.14	-2.1
882.306	1.98
882.471	4.11
882.637	-0.44
882.803	0.36
882.968	2.46
883.134	3.07
883.299	-0.78
883.465	-1.71
883.63	2.47
883.796	1.72
883.961	1.91
884.127	1.77
884.292	-3.76
884.458	-0.99
884.623	-0.99
