Data from Apollo_Calib_20240827__AbsoluteIrradiance__366__05-15-01-528.txt Node

Date: Wed Aug 28 05:15:01 BST 2024
User: biology
Spectrometer: FLMT08252
Trigger mode: 0
Integration Time (sec): 5.000000E-1
Scans to average: 5
Electric dark correction enabled: true
Nonlinearity correction enabled: false
Boxcar width: 0
XAxis mode: Wavelengths
Number of Pixels in Spectrum: 3648
>>>>>Begin Spectral Data<<<<<
179.588	-0
179.809	-0
180.03	-0
180.251	-0
180.473	-0
180.694	0
180.915	0
181.136	-0
181.357	0
181.578	-0
181.799	-0
182.02	-0
182.241	-0
182.462	-0
182.683	-0
182.904	-0
183.125	0
183.346	0
183.567	0
183.788	0
184.009	-0
184.23	0
184.451	0
184.672	-0
184.892	-0
185.113	0
185.334	0
185.555	-0
185.776	0
185.996	0
186.217	0
186.438	0
186.659	-0
186.879	0
187.1	-0
187.321	0
187.541	-0
187.762	0
187.983	0
188.203	0
188.424	0
188.644	0
188.865	0
189.086	-0
189.306	0
189.527	0
189.747	0
189.968	0
190.188	0
190.409	0
190.629	0
190.849	0
191.07	-0
191.29	0
191.511	0
191.731	-0
191.951	-0
192.172	0
192.392	0
192.612	0
192.833	0
193.053	0
193.273	0
193.493	0
193.714	0
193.934	0
194.154	0
194.374	0
194.594	0
194.815	0
195.035	0
195.255	0
195.475	-0
195.695	0
195.915	0
196.135	0
196.355	0
196.575	0
196.795	0
197.015	-0
197.235	-0
197.455	-0
197.675	0
197.895	-0
198.115	-0
198.335	0
198.555	0
198.775	0
198.995	0
199.214	0
199.434	0
199.654	-0
199.874	0
200.094	1.52
200.313	0.75
200.533	0.44
200.753	-0.22
200.973	1.2
201.192	0.63
201.412	-0.11
201.632	0.13
201.851	1.41
202.071	0.03
202.291	0.31
202.51	0.27
202.73	1.24
202.95	0.33
203.169	-0.09
203.389	0.59
203.608	0.86
203.828	0.19
204.047	0.22
204.267	0.79
204.486	0.58
204.706	0.54
204.925	0.2
205.145	0.34
205.364	0.79
205.583	0.91
205.803	0.26
206.022	0.09
206.242	0.39
206.461	0.5
206.68	0.25
206.9	0.66
207.119	0.93
207.338	0.67
207.557	0.27
207.777	0.41
207.996	0.13
208.215	0.51
208.434	0.16
208.654	-0.1
208.873	0.5
209.092	0.74
209.311	0.44
209.53	-0.01
209.749	0.38
209.968	0.07
210.187	0.29
210.407	-0.09
210.626	0.06
210.845	0.57
211.064	0.12
211.283	-0.05
211.502	0.59
211.721	0.32
211.94	0.27
212.159	0.49
212.377	0.66
212.596	0.7
212.815	0.42
213.034	0.34
213.253	0.5
213.472	0.52
213.691	0.06
213.91	0.22
214.128	0.05
214.347	0.64
214.566	-0.27
214.785	-0.26
215.003	0.47
215.222	0.47
215.441	0.03
215.66	-0.06
215.878	0.24
216.097	0.42
216.316	-0.02
216.534	0.07
216.753	0.31
216.972	-0.01
217.19	0.3
217.409	0.05
217.627	0.05
217.846	0.08
218.064	0.32
218.283	0.01
218.501	0.73
218.72	0.35
218.938	-0.03
219.157	0.19
219.375	0.51
219.594	0.38
219.812	0.03
220.031	-0.2
220.249	0.55
220.467	0.5
220.686	0.19
220.904	0.04
221.122	0.05
221.341	0.64
221.559	0.29
221.777	0.08
221.995	0.25
222.214	0.57
222.432	0.1
222.65	0.26
222.868	0.25
223.086	0.35
223.305	0.36
223.523	0.06
223.741	0.44
223.959	0.22
224.177	-0.09
224.395	0.17
224.613	0.26
224.831	0.29
225.049	-0.17
225.267	0.14
225.485	0.34
225.703	0.12
225.921	0.13
226.139	-0.02
226.357	0.36
226.575	0.33
226.793	0.11
227.011	0.83
227.229	0.14
227.447	0.2
227.665	0.04
227.883	0.02
228.1	0.26
228.318	0.3
228.536	-0.14
228.754	0.13
228.972	0.17
229.189	0.19
229.407	0.03
229.625	-0.03
229.843	0.33
230.06	0.37
230.278	0.1
230.496	0.17
230.713	0.2
230.931	0.3
231.149	0.11
231.366	-0.1
231.584	0.25
231.801	0.49
232.019	0.06
232.236	-0.02
232.454	0.04
232.671	0.17
232.889	0.14
233.106	-0.01
233.324	0.18
233.541	0.14
233.759	0.2
233.976	0.02
234.194	0.25
234.411	0.14
234.628	-0.01
234.846	0.03
235.063	0.26
235.28	0.19
235.498	0.15
235.715	-0.03
235.932	0.32
236.149	0.15
236.367	0.12
236.584	0.19
236.801	0.08
237.018	0.36
237.236	0.16
237.453	-0.13
237.67	0.24
237.887	0.14
238.104	0.12
238.321	-0
238.538	0.05
238.755	0.33
238.973	-0.11
239.19	0.13
239.407	0.27
239.624	0.22
239.841	0.09
240.058	-0
240.275	0.19
240.492	0.16
240.709	0.09
240.925	0.07
241.142	0.2
241.359	0.07
241.576	0.09
241.793	0.02
242.01	0.16
242.227	0.24
242.444	0.14
242.66	0.23
242.877	0.15
243.094	0.1
243.311	0.14
243.527	0.02
243.744	0.07
243.961	0.25
244.178	0.11
244.394	0.14
244.611	0.2
244.828	0.36
245.044	0.05
245.261	0.1
245.477	0.22
245.694	0.1
245.911	0.09
246.127	0.12
246.344	0.34
246.56	0.17
246.777	0.1
246.993	0.16
247.21	0.14
247.426	0.18
247.643	0.1
247.859	0.06
248.076	0.06
248.292	0.31
248.508	0.12
248.725	0.1
248.941	0.16
249.157	0.32
249.374	0.08
249.59	0.1
249.806	0.08
250.023	0.29
250.239	0.06
250.455	0
250.671	0.15
250.888	0.24
251.104	0.16
251.32	0.07
251.536	0.12
251.752	0.08
251.969	0.05
252.185	0.12
252.401	0.25
252.617	0.17
252.833	0.09
253.049	0.1
253.265	0.13
253.481	0.12
253.697	0.05
253.913	0.09
254.129	0.12
254.345	0.11
254.561	0.06
254.777	0.13
254.993	0.09
255.209	0.12
255.425	0.06
255.641	0.02
255.857	0.28
256.073	0.17
256.288	0.11
256.504	0.06
256.72	0.15
256.936	0.28
257.152	0.03
257.367	0.06
257.583	0.09
257.799	0.22
258.015	0.06
258.23	0.06
258.446	0.25
258.662	0.09
258.877	0.05
259.093	0.06
259.309	0.14
259.524	0.15
259.74	0.06
259.955	0.07
260.171	0.18
260.387	0.12
260.602	0.25
260.818	0.18
261.033	0.01
261.249	0.08
261.464	0.08
261.68	-0.03
261.895	0.13
262.11	0.23
262.326	0.05
262.541	0.01
262.757	0.25
262.972	0.24
263.187	0.09
263.403	0.07
263.618	0.18
263.833	0.11
264.049	0.07
264.264	0.1
264.479	0.19
264.694	0.25
264.91	0.05
265.125	0.16
265.34	0.23
265.555	0.25
265.77	0.14
265.986	0.07
266.201	0.17
266.416	0.2
266.631	0.06
266.846	0.05
267.061	0.21
267.276	0.18
267.491	-0.02
267.706	0.15
267.921	0.16
268.136	0.16
268.351	0.08
268.566	0.03
268.781	0.24
268.996	0.12
269.211	0.13
269.426	0.03
269.641	0.09
269.856	0.24
270.071	0.09
270.285	0.02
270.5	0.15
270.715	0.14
270.93	0.1
271.145	0.15
271.359	0.17
271.574	0.08
271.789	0.1
272.004	0.08
272.218	0.1
272.433	0.15
272.648	0.05
272.862	0.14
273.077	0.14
273.292	0.14
273.506	0.06
273.721	0.1
273.936	0.11
274.15	0.2
274.365	0.07
274.579	0.13
274.794	0.17
275.008	0.14
275.223	0.04
275.437	0.13
275.652	0.15
275.866	0.12
276.081	0.13
276.295	0.13
276.509	0.07
276.724	0.14
276.938	0.11
277.153	0.17
277.367	0.16
277.581	0.06
277.796	0.06
278.01	0.08
278.224	0.15
278.438	0.22
278.653	0.05
278.867	0.04
279.081	-0.09
279.295	0.1
279.51	0.13
279.724	0.01
279.938	0.16
280.152	0.16
280.366	0.09
280.58	0.11
280.794	0.19
281.008	0.16
281.222	0.18
281.437	0.3
281.651	0.17
281.865	0.2
282.079	0.1
282.293	-0
282.507	0.02
282.721	0.15
282.935	0.11
283.148	0.05
283.362	0.09
283.576	0.11
283.79	0.1
284.004	0.05
284.218	0.16
284.432	0.03
284.646	0.1
284.859	0.12
285.073	0.09
285.287	0.11
285.501	0.11
285.714	0.1
285.928	0.15
286.142	0.12
286.356	0.09
286.569	0.07
286.783	0.16
286.997	0.2
287.21	0.09
287.424	0.09
287.637	0.13
287.851	0.09
288.065	0.12
288.278	0.1
288.492	0.13
288.705	0.1
288.919	0.13
289.132	0.05
289.346	0.18
289.559	0.07
289.773	0.02
289.986	0.07
290.2	0.11
290.413	0.22
290.626	0.03
290.84	0.09
291.053	0.11
291.267	0.14
291.48	0.1
291.693	0.15
291.906	0.06
292.12	0.1
292.333	0.05
292.546	0.08
292.76	0.2
292.973	0.11
293.186	0.12
293.399	0.09
293.612	0.15
293.826	0.15
294.039	0.07
294.252	0.06
294.465	0.14
294.678	0.17
294.891	0.13
295.104	0.04
295.317	0.07
295.53	0.08
295.743	0.07
295.956	0.12
296.169	0.2
296.382	0.18
296.595	0.08
296.808	0.06
297.021	0.16
297.234	0.18
297.447	0.09
297.66	0.17
297.873	0.18
298.086	0.12
298.299	0.09
298.511	0.08
298.724	0.06
298.937	0.04
299.15	0.08
299.363	0.11
299.575	0.16
299.788	0.13
300.001	0.07
300.213	0.11
300.426	0.07
300.639	0.07
300.852	0.05
301.064	0.13
301.277	0.14
301.489	0.12
301.702	0.13
301.915	0.05
302.127	0.13
302.34	0.11
302.552	0.13
302.765	0.05
302.977	0.15
303.19	0.09
303.402	0.05
303.615	0.08
303.827	0.12
304.04	0.08
304.252	0.16
304.464	0.07
304.677	0.2
304.889	0.17
305.102	0.06
305.314	0.06
305.526	0.17
305.739	0.11
305.951	0.08
306.163	0.12
306.375	0.15
306.588	0.08
306.8	0.07
307.012	0.03
307.224	0.12
307.436	0.17
307.649	0.03
307.861	0.11
308.073	0.13
308.285	0.07
308.497	0.03
308.709	0.08
308.921	0.11
309.133	0.14
309.346	0.13
309.558	0.08
309.77	0.15
309.982	0.16
310.194	0.11
310.406	0.11
310.617	0.14
310.829	0.12
311.041	0.15
311.253	0.06
311.465	0.09
311.677	0.13
311.889	0.14
312.101	0.08
312.313	0.15
312.524	0.16
312.736	0.07
312.948	0.09
313.16	0.17
313.372	0.16
313.583	0.13
313.795	0.1
314.007	0.09
314.218	0.14
314.43	0.1
314.642	0.06
314.853	0.05
315.065	0.12
315.277	0.13
315.488	0.15
315.7	0.16
315.912	0.17
316.123	0.1
316.335	0.1
316.546	0.21
316.758	0.11
316.969	0.09
317.181	0.15
317.392	0.12
317.604	0.2
317.815	0.05
318.026	0.1
318.238	0.11
318.449	0.16
318.661	0.08
318.872	0.05
319.083	0.08
319.295	0.15
319.506	0.14
319.717	0.12
319.929	0.17
320.14	0.11
320.351	0.15
320.562	0.1
320.774	0.12
320.985	0.09
321.196	0.06
321.407	0.07
321.618	0.13
321.829	0.13
322.041	0.13
322.252	0.11
322.463	0.11
322.674	0.14
322.885	0.1
323.096	0.07
323.307	0.08
323.518	0.15
323.729	0.05
323.94	0.12
324.151	0.1
324.362	0.09
324.573	0.12
324.784	0.09
324.995	0.13
325.206	0.13
325.417	0.1
325.628	0.12
325.838	0.13
326.049	0.12
326.26	0.14
326.471	0.1
326.682	0.16
326.892	0.15
327.103	0.07
327.314	0.04
327.525	0.17
327.735	0.14
327.946	0.11
328.157	0.05
328.368	0.15
328.578	0.11
328.789	0.13
328.999	0.15
329.21	0.13
329.421	0.14
329.631	0.04
329.842	0.05
330.052	0.15
330.263	0.13
330.473	0.13
330.684	0.09
330.894	0.06
331.105	0.15
331.315	0.14
331.526	0.05
331.736	0.23
331.947	0.13
332.157	0.13
332.367	0.06
332.578	0.18
332.788	0.13
332.999	0.15
333.209	0.15
333.419	0.04
333.629	0.12
333.84	0.15
334.05	0.06
334.26	0.19
334.47	0.13
334.681	0.21
334.891	0.05
335.101	0.15
335.311	0.16
335.521	0.12
335.732	0.06
335.942	0.16
336.152	0.13
336.362	0.14
336.572	0.13
336.782	0.15
336.992	0.08
337.202	0.07
337.412	0.09
337.622	0.16
337.832	0.1
338.042	0.12
338.252	0.1
338.462	0.11
338.672	0.11
338.882	0.05
339.092	0.06
339.302	0.22
339.511	0.15
339.721	0.06
339.931	0.1
340.141	0.16
340.351	0.17
340.561	0.15
340.77	0.1
340.98	0.11
341.19	0.13
341.4	0.1
341.609	0.04
341.819	0.12
342.029	0.07
342.238	0.09
342.448	0.09
342.658	0.13
342.867	0.09
343.077	0.12
343.286	0.13
343.496	0.08
343.706	0.2
343.915	0.11
344.125	0.12
344.334	0.15
344.544	0.06
344.753	0.09
344.963	0.1
345.172	0.09
345.381	0.09
345.591	0.1
345.8	0.12
346.01	0.21
346.219	0.14
346.428	-0.03
346.638	0.09
346.847	0.14
347.056	0.18
347.266	0.08
347.475	0.1
347.684	0.09
347.893	0.14
348.103	0.14
348.312	0.12
348.521	0.13
348.73	0.12
348.94	0.1
349.149	0.05
349.358	0.09
349.567	0.08
349.776	0.07
349.985	0.15
350.194	0.17
350.403	0.14
350.612	0.03
350.821	0.07
351.03	0.08
351.239	0.04
351.448	0.1
351.657	0.1
351.866	0.15
352.075	0.12
352.284	0.14
352.493	0.03
352.702	0.16
352.911	0.11
353.12	0.12
353.329	0.1
353.538	0.14
353.746	0.15
353.955	0.06
354.164	0.12
354.373	0.1
354.582	0.1
354.79	0.13
354.999	0.15
355.208	0.13
355.416	0.16
355.625	0.05
355.834	0.09
356.042	0.12
356.251	0.1
356.46	0.11
356.668	0.14
356.877	0.21
357.085	0.17
357.294	0.01
357.503	0.11
357.711	0.08
357.92	0.25
358.128	0.12
358.337	0.12
358.545	0.12
358.754	0.11
358.962	0.13
359.17	0.08
359.379	0.14
359.587	0.11
359.796	0.12
360.004	0.16
360.212	0.12
360.421	0.16
360.629	0.08
360.837	0.11
361.046	0.15
361.254	0.25
361.462	0.11
361.67	0.09
361.879	0.12
362.087	0.21
362.295	0.14
362.503	0.1
362.711	0.06
362.92	0.08
363.128	0.06
363.336	0.11
363.544	0.08
363.752	0.09
363.96	0.1
364.168	0.08
364.376	0.09
364.584	0.14
364.792	0.1
365	0.17
365.208	0.16
365.416	0.15
365.624	0.18
365.832	0.09
366.04	0.15
366.248	0.1
366.456	0.14
366.664	0.1
366.872	0.14
367.079	0.11
367.287	0.12
367.495	0.09
367.703	0.09
367.911	0.1
368.118	0.12
368.326	0.07
368.534	0.09
368.742	0.18
368.949	0.05
369.157	0.11
369.365	0.12
369.572	0.1
369.78	0.07
369.988	0.17
370.195	0.16
370.403	0.15
370.61	0.09
370.818	0.11
371.026	0.18
371.233	0.07
371.441	0.17
371.648	0.09
371.856	0.14
372.063	0.13
372.271	0.13
372.478	0.15
372.685	0.1
372.893	0.14
373.1	0.11
373.308	0.12
373.515	0.22
373.722	0.14
373.93	0.12
374.137	0.14
374.344	0.19
374.552	0.15
374.759	0.21
374.966	0.14
375.173	0.14
375.381	0.14
375.588	0.1
375.795	0.06
376.002	0.12
376.209	0.11
376.417	0.14
376.624	0.15
376.831	0.15
377.038	0.07
377.245	0.03
377.452	0.07
377.659	0.09
377.866	0.08
378.073	0.07
378.28	0.07
378.487	0.19
378.694	0.16
378.901	0.11
379.108	0.12
379.315	0.17
379.522	0.23
379.729	0.11
379.936	0.1
380.143	0.14
380.35	0.17
380.557	0.08
380.763	0.11
380.97	0.1
381.177	0.14
381.384	0.14
381.591	0.09
381.797	0.17
382.004	0.15
382.211	0.17
382.418	0.16
382.624	0.15
382.831	0.21
383.038	0.09
383.244	0.17
383.451	0.12
383.658	0.14
383.864	0.1
384.071	0.09
384.277	0.21
384.484	0.11
384.69	0.17
384.897	0.09
385.103	0.12
385.31	0.11
385.516	0.11
385.723	0.07
385.929	0.13
386.136	0.1
386.342	0.18
386.549	0.14
386.755	0.2
386.961	0.12
387.168	0.13
387.374	0.15
387.58	0.15
387.787	0.13
387.993	0.18
388.199	0.18
388.406	0.14
388.612	0.14
388.818	0.1
389.024	0.11
389.231	0.13
389.437	0.22
389.643	0.14
389.849	0.16
390.055	0.13
390.261	0.14
390.467	0.18
390.674	0.16
390.88	0.17
391.086	0.15
391.292	0.12
391.498	0.17
391.704	0.15
391.91	0.12
392.116	0.1
392.322	0.04
392.528	0.18
392.734	0.13
392.94	0.17
393.146	0.1
393.352	0.2
393.557	0.12
393.763	0.15
393.969	0.17
394.175	0.16
394.381	0.14
394.587	0.13
394.792	0.13
394.998	0.19
395.204	0.22
395.41	0.12
395.615	0.18
395.821	0.19
396.027	0.18
396.233	0.1
396.438	0.16
396.644	0.26
396.85	0.15
397.055	0.17
397.261	0.16
397.466	0.28
397.672	0.16
397.878	0.24
398.083	0.2
398.289	0.1
398.494	0.2
398.7	0.22
398.905	0.14
399.111	0.22
399.316	0.14
399.522	0.15
399.727	0.17
399.932	0.16
400.138	0.15
400.343	0.22
400.549	0.19
400.754	0.17
400.959	0.21
401.165	0.17
401.37	0.2
401.575	0.28
401.78	0.17
401.986	0.16
402.191	0.2
402.396	0.19
402.601	0.19
402.807	0.2
403.012	0.18
403.217	0.23
403.422	0.21
403.627	0.19
403.832	0.17
404.037	0.27
404.243	0.22
404.448	0.18
404.653	0.22
404.858	0.24
405.063	0.25
405.268	0.16
405.473	0.18
405.678	0.19
405.883	0.35
406.088	0.27
406.293	0.2
406.498	0.22
406.703	0.28
406.907	0.25
407.112	0.2
407.317	0.24
407.522	0.32
407.727	0.25
407.932	0.3
408.136	0.38
408.341	0.29
408.546	0.31
408.751	0.32
408.956	0.3
409.16	0.34
409.365	0.34
409.57	0.34
409.774	0.33
409.979	0.4
410.184	0.38
410.388	0.3
410.593	0.46
410.798	0.39
411.002	0.41
411.207	0.45
411.411	0.45
411.616	0.43
411.82	0.41
412.025	0.48
412.229	0.42
412.434	0.55
412.638	0.49
412.843	0.51
413.047	0.6
413.252	0.49
413.456	0.58
413.66	0.64
413.865	0.57
414.069	0.69
414.273	0.61
414.478	0.64
414.682	0.69
414.886	0.67
415.091	0.66
415.295	0.7
415.499	0.82
415.703	0.82
415.908	0.87
416.112	0.81
416.316	0.93
416.52	0.97
416.724	0.95
416.929	0.91
417.133	1.16
417.337	1.12
417.541	1.11
417.745	1.17
417.949	1.24
418.153	1.25
418.357	1.27
418.561	1.48
418.765	1.35
418.969	1.55
419.173	1.63
419.377	1.51
419.581	1.81
419.785	1.77
419.989	1.73
420.193	1.85
420.397	1.94
420.601	2.08
420.804	2.17
421.008	2.15
421.212	2.29
421.416	2.33
421.62	2.33
421.823	2.42
422.027	2.61
422.231	2.51
422.435	2.57
422.638	2.62
422.842	2.72
423.046	2.78
423.249	2.99
423.453	3.02
423.657	3.15
423.86	3.25
424.064	3.4
424.268	3.54
424.471	3.57
424.675	3.85
424.878	3.85
425.082	3.97
425.285	4.31
425.489	4.23
425.692	4.43
425.896	4.51
426.099	4.72
426.303	4.8
426.506	5
426.71	5.32
426.913	5.43
427.116	5.7
427.32	5.64
427.523	5.84
427.726	6.22
427.93	6.26
428.133	6.58
428.336	6.71
428.54	6.92
428.743	7.28
428.946	7.49
429.149	7.66
429.353	7.61
429.556	7.81
429.759	8.04
429.962	7.99
430.165	8.24
430.368	7.9
430.571	8.15
430.775	8.26
430.978	8.27
431.181	8.34
431.384	8.5
431.587	8.64
431.79	9.15
431.993	9.12
432.196	9.34
432.399	9.79
432.602	10
432.805	10.13
433.008	10.9
433.211	10.68
433.414	11.04
433.616	11.16
433.819	11.17
434.022	11.4
434.225	11.73
434.428	11.69
434.631	12.21
434.833	12.19
435.036	12.53
435.239	12.8
435.442	12.89
435.645	13.19
435.847	13.31
436.05	13.63
436.253	14.14
436.455	14.17
436.658	14.16
436.861	14.47
437.063	14.86
437.266	14.89
437.468	15.35
437.671	15.71
437.874	15.89
438.076	15.84
438.279	16.64
438.481	16.7
438.684	17.78
438.886	17.41
439.089	18
439.291	18.1
439.494	18.58
439.696	19.17
439.899	19.97
440.101	20.56
440.303	21.11
440.506	22.12
440.708	21.98
440.91	22.38
441.113	22.95
441.315	23.52
441.517	23.45
441.72	24.32
441.922	24.04
442.124	24.06
442.326	24.93
442.529	25.27
442.731	25.6
442.933	26.25
443.135	26.04
443.337	26.24
443.539	27.35
443.742	26.94
443.944	28.36
444.146	28.11
444.348	28.16
444.55	28.32
444.752	28.71
444.954	29
445.156	28.96
445.358	29.87
445.56	30.34
445.762	30.39
445.964	31.12
446.166	31.05
446.368	31.09
446.57	31.17
446.772	30.69
446.974	30.43
447.175	31.19
447.377	30.81
447.579	31.59
447.781	31.24
447.983	31.06
448.184	30.49
448.386	30.93
448.588	30.54
448.79	30.31
448.991	31.05
449.193	31.26
449.395	30.15
449.597	29.42
449.798	29.31
450	28.61
450.202	28.37
450.403	28.6
450.605	28.28
450.806	27.83
451.008	27.66
451.21	27.14
451.411	26.09
451.613	24.91
451.814	25.48
452.016	25.24
452.217	23.91
452.419	24.02
452.62	23.41
452.821	23
453.023	22.73
453.224	22.06
453.426	21.41
453.627	19.93
453.828	20
454.03	20.04
454.231	20.04
454.432	19.67
454.634	19.1
454.835	18.66
455.036	18.55
455.238	17.72
455.439	17.12
455.64	16.87
455.841	16.45
456.042	16.55
456.244	16.09
456.445	15.63
456.646	15.08
456.847	14.86
457.048	14.71
457.249	14.66
457.45	14
457.651	13.45
457.852	13.06
458.054	12.39
458.255	12.34
458.456	12.43
458.657	12.3
458.858	11.44
459.058	11.33
459.259	11.33
459.46	10.9
459.661	10.84
459.862	10.71
460.063	10.77
460.264	10.32
460.465	10.01
460.666	10.02
460.866	9.5
461.067	9.03
461.268	9.14
461.469	9.01
461.67	8.8
461.87	8.5
462.071	8.55
462.272	8.39
462.473	8.21
462.673	8.4
462.874	8.24
463.075	8.13
463.275	8.05
463.476	8.16
463.676	8
463.877	7.71
464.078	7.56
464.278	7.65
464.479	7.38
464.679	7.17
464.88	7.12
465.08	6.88
465.281	6.74
465.481	6.35
465.682	6.02
465.882	6.12
466.083	5.88
466.283	5.77
466.483	5.55
466.684	5.28
466.884	5.12
467.085	5.15
467.285	5.09
467.485	4.94
467.686	4.79
467.886	4.59
468.086	4.5
468.286	4.44
468.487	4.46
468.687	4.2
468.887	4.07
469.087	4.22
469.287	4.08
469.488	3.79
469.688	3.83
469.888	3.77
470.088	3.73
470.288	3.64
470.488	3.48
470.688	3.35
470.888	3.21
471.088	3.08
471.288	3.1
471.488	3.03
471.688	2.95
471.888	2.88
472.088	2.94
472.288	2.9
472.488	2.71
472.688	2.63
472.888	2.58
473.088	2.64
473.288	2.47
473.488	2.39
473.688	2.52
473.887	2.4
474.087	2.28
474.287	2.31
474.487	2.17
474.687	2.2
474.886	2.11
475.086	2.01
475.286	1.98
475.486	1.99
475.685	1.88
475.885	1.82
476.085	1.83
476.284	1.8
476.484	1.78
476.684	1.74
476.883	1.85
477.083	1.68
477.282	1.61
477.482	1.68
477.681	1.58
477.881	1.49
478.08	1.46
478.28	1.43
478.479	1.45
478.679	1.49
478.878	1.37
479.078	1.31
479.277	1.36
479.477	1.26
479.676	1.26
479.875	1.26
480.075	1.15
480.274	1.17
480.473	1.2
480.673	1.13
480.872	1.22
481.071	1.16
481.271	1.1
481.47	1.08
481.669	1.03
481.868	0.99
482.067	0.94
482.267	0.92
482.466	0.92
482.665	0.92
482.864	0.89
483.063	0.85
483.262	0.92
483.461	0.9
483.661	0.85
483.86	0.8
484.059	0.83
484.258	0.8
484.457	0.76
484.656	0.75
484.855	0.78
485.054	0.65
485.253	0.7
485.452	0.63
485.651	0.68
485.849	0.66
486.048	0.58
486.247	0.62
486.446	0.63
486.645	0.55
486.844	0.57
487.043	0.56
487.241	0.59
487.44	0.52
487.639	0.54
487.838	0.53
488.037	0.52
488.235	0.6
488.434	0.49
488.633	0.45
488.831	0.49
489.03	0.5
489.229	0.44
489.427	0.43
489.626	0.47
489.825	0.48
490.023	0.41
490.222	0.4
490.42	0.43
490.619	0.44
490.817	0.37
491.016	0.36
491.214	0.41
491.413	0.37
491.611	0.32
491.81	0.33
492.008	0.36
492.207	0.36
492.405	0.32
492.604	0.29
492.802	0.3
493	0.33
493.199	0.28
493.397	0.27
493.595	0.3
493.794	0.29
493.992	0.34
494.19	0.27
494.388	0.29
494.587	0.25
494.785	0.26
494.983	0.23
495.181	0.27
495.379	0.27
495.578	0.23
495.776	0.24
495.974	0.24
496.172	0.22
496.37	0.23
496.568	0.21
496.766	0.23
496.964	0.25
497.162	0.22
497.36	0.19
497.558	0.23
497.756	0.24
497.954	0.19
498.152	0.19
498.35	0.22
498.548	0.19
498.746	0.2
498.944	0.16
499.142	0.18
499.34	0.18
499.538	0.18
499.736	0.17
499.933	0.23
500.131	0.2
500.329	0.17
500.527	0.19
500.725	0.21
500.922	0.18
501.12	0.17
501.318	0.17
501.516	0.15
501.713	0.15
501.911	0.15
502.109	0.12
502.306	0.15
502.504	0.14
502.701	0.11
502.899	0.15
503.097	0.21
503.294	0.15
503.492	0.14
503.689	0.14
503.887	0.18
504.084	0.2
504.282	0.14
504.479	0.09
504.677	0.13
504.874	0.14
505.072	0.12
505.269	0.11
505.466	0.15
505.664	0.17
505.861	0.11
506.059	0.09
506.256	0.14
506.453	0.1
506.651	0.17
506.848	0.14
507.045	0.15
507.242	0.12
507.44	0.1
507.637	0.11
507.834	0.11
508.031	0.13
508.229	0.08
508.426	0.1
508.623	0.13
508.82	0.07
509.017	0.1
509.214	0.12
509.411	0.1
509.608	0.09
509.805	0.09
510.003	0.08
510.2	0.07
510.397	0.13
510.594	0.08
510.791	0.05
510.988	0.1
511.184	0.11
511.381	0.09
511.578	0.04
511.775	0.12
511.972	0.07
512.169	0.09
512.366	0.09
512.563	0.11
512.76	0.09
512.956	0.11
513.153	0.07
513.35	0.11
513.547	0.06
513.744	0.06
513.94	0.04
514.137	0.11
514.334	0.1
514.53	0.09
514.727	0.1
514.924	0.14
515.12	0.07
515.317	0.06
515.514	0.09
515.71	0.06
515.907	0.09
516.103	0.07
516.3	0.09
516.497	0.09
516.693	0.1
516.89	0.06
517.086	0.04
517.283	0.12
517.479	0.1
517.676	0.06
517.872	0.06
518.068	0.06
518.265	0.04
518.461	0.04
518.658	0.08
518.854	0.08
519.05	0.08
519.247	0.05
519.443	0.08
519.639	0.08
519.836	0.07
520.032	0.06
520.228	0.07
520.424	0.11
520.621	0.1
520.817	0.07
521.013	0.08
521.209	0.08
521.405	0.12
521.601	0.07
521.798	0.08
521.994	0.1
522.19	0.06
522.386	0.03
522.582	0.05
522.778	0.07
522.974	0.05
523.17	0.06
523.366	0.08
523.562	0.1
523.758	0.05
523.954	0.06
524.15	0.06
524.346	0.09
524.542	0.03
524.738	0.05
524.934	0.08
525.129	0.05
525.325	0.07
525.521	0.06
525.717	0.09
525.913	0.06
526.109	0.06
526.304	0.05
526.5	0.06
526.696	0.11
526.892	0.04
527.087	0.05
527.283	0.05
527.479	0.08
527.674	0.05
527.87	0.07
528.066	0.07
528.261	0.08
528.457	0.06
528.653	0.04
528.848	0.07
529.044	0.06
529.239	0.05
529.435	0.08
529.63	0.08
529.826	0.08
530.021	0.08
530.217	0.07
530.412	0.04
530.608	0.05
530.803	0.06
530.999	0.06
531.194	0.01
531.389	0.06
531.585	-0.01
531.78	0.05
531.975	0.05
532.171	0.05
532.366	0.06
532.561	0.05
532.757	0.04
532.952	0.05
533.147	0.06
533.342	0.05
533.538	0.04
533.733	0.08
533.928	0.06
534.123	0.02
534.318	0.02
534.513	0.06
534.709	0.06
534.904	0.03
535.099	0.06
535.294	0.07
535.489	0.08
535.684	0.05
535.879	0.03
536.074	0.07
536.269	0.04
536.464	0.05
536.659	0.05
536.854	0.04
537.049	0.06
537.244	0.06
537.439	0.03
537.634	0.08
537.828	0.05
538.023	0.05
538.218	-0.01
538.413	0.06
538.608	0.03
538.803	0.07
538.997	0.02
539.192	0.09
539.387	0.05
539.582	0.07
539.776	0.05
539.971	0.04
540.166	0.07
540.36	0
540.555	0.03
540.75	0.04
540.944	0.03
541.139	-0
541.334	0.03
541.528	0.08
541.723	0.07
541.917	0.04
542.112	0.02
542.306	0.03
542.501	0.03
542.695	0.03
542.89	0.03
543.084	0.03
543.279	0.03
543.473	0.04
543.668	0.04
543.862	0.04
544.056	0.08
544.251	0.05
544.445	0.06
544.64	0.03
544.834	0.02
545.028	0.06
545.222	0.06
545.417	0.08
545.611	0.05
545.805	0.04
546	0.03
546.194	0.03
546.388	0.04
546.582	0.06
546.776	0.03
546.97	0.04
547.165	0.06
547.359	0.07
547.553	0.02
547.747	0.06
547.941	0.07
548.135	0.05
548.329	0.08
548.523	0.05
548.717	0.03
548.911	0.03
549.105	0.04
549.299	0.05
549.493	0.07
549.687	0.05
549.881	0.08
550.075	0.05
550.269	0.02
550.463	0.07
550.657	0.02
550.85	0.03
551.044	0.02
551.238	0.05
551.432	0.02
551.626	0
551.82	0.07
552.013	0.03
552.207	0.06
552.401	0.06
552.594	0.06
552.788	0.03
552.982	0.04
553.176	0.02
553.369	0.04
553.563	0.05
553.756	0
553.95	0.05
554.144	0.06
554.337	0.08
554.531	0.06
554.724	0.05
554.918	0.01
555.111	0.07
555.305	0.03
555.498	0.11
555.692	0.06
555.885	0.04
556.079	0.05
556.272	0.03
556.466	0.07
556.659	0.05
556.852	-0
557.046	0.04
557.239	0.05
557.432	0.02
557.626	0
557.819	0.04
558.012	0.04
558.206	0.06
558.399	0.04
558.592	0.04
558.785	0.04
558.979	0.08
559.172	0.04
559.365	0.06
559.558	0.05
559.751	0.04
559.944	0.02
560.138	0.03
560.331	0.02
560.524	0.01
560.717	0.02
560.91	0.01
561.103	0.05
561.296	0.03
561.489	0.04
561.682	0.04
561.875	0.08
562.068	0.03
562.261	0.04
562.454	0.08
562.647	0.05
562.84	0.05
563.032	0.02
563.225	0.05
563.418	0.03
563.611	0.02
563.804	0.04
563.997	0.01
564.19	-0.02
564.382	0.05
564.575	0.03
564.768	0.03
564.961	0.03
565.153	0.04
565.346	0.06
565.539	0.05
565.731	0.05
565.924	0.08
566.117	0.04
566.309	0.04
566.502	0.03
566.695	0.03
566.887	0.03
567.08	0.01
567.272	0.04
567.465	0.03
567.657	0.03
567.85	0.05
568.042	0.07
568.235	0.07
568.427	0.04
568.62	0.03
568.812	0.05
569.005	0.04
569.197	0
569.389	0.03
569.582	0.06
569.774	0.06
569.966	0.01
570.159	0.01
570.351	0.04
570.543	0.02
570.736	0.02
570.928	0.02
571.12	0.02
571.312	0.01
571.505	0.01
571.697	0.07
571.889	0.02
572.081	0.03
572.273	-0
572.465	0.07
572.658	0.04
572.85	0.03
573.042	0.04
573.234	0.02
573.426	0.09
573.618	0.01
573.81	0.04
574.002	0.09
574.194	0.08
574.386	0
574.578	-0.05
574.77	0.01
574.962	0.05
575.154	-0
575.346	0.03
575.538	0.04
575.729	0.02
575.921	0.01
576.113	0
576.305	0.06
576.497	0.04
576.689	0.02
576.88	0.03
577.072	0.08
577.264	0.05
577.456	0.04
577.647	-0.05
577.839	0.03
578.031	0.06
578.223	-0.01
578.414	-0
578.606	0.05
578.798	0.06
578.989	-0.01
579.181	0
579.372	0.04
579.564	0.03
579.755	0.05
579.947	0.04
580.139	0.05
580.33	-0.02
580.522	0.02
580.713	-0.05
580.905	0.01
581.096	0.05
581.287	0.04
581.479	0.04
581.67	0.07
581.862	0.04
582.053	0.01
582.244	-0.02
582.436	0.02
582.627	0.03
582.818	0.02
583.01	-0.01
583.201	0.06
583.392	0.07
583.583	0.04
583.775	0.01
583.966	0
584.157	0.01
584.348	0.02
584.54	-0.01
584.731	0.04
584.922	0.02
585.113	0.03
585.304	0.05
585.495	0.08
585.686	0.04
585.877	0.04
586.068	0.04
586.259	0.03
586.45	0.03
586.641	0
586.832	-0.03
587.023	0.04
587.214	-0
587.405	0.03
587.596	0.01
587.787	0.08
587.978	0.04
588.169	-0.01
588.36	-0
588.551	0.03
588.742	0.02
588.932	0.08
589.123	0.02
589.314	0.03
589.505	0.04
589.696	0.05
589.886	0
590.077	-0.01
590.268	0.07
590.458	-0.03
590.649	-0.02
590.84	0.09
591.03	0
591.221	0.02
591.412	-0.01
591.602	0.06
591.793	0.06
591.984	0
592.174	0.01
592.365	0.07
592.555	0.01
592.746	0.02
592.936	0.07
593.127	0.06
593.317	0.06
593.508	0.02
593.698	-0
593.889	0.03
594.079	0.04
594.269	0.03
594.46	0.03
594.65	0.02
594.84	0.04
595.031	-0.01
595.221	-0
595.411	-0.03
595.602	0.07
595.792	0.04
595.982	0
596.172	0.08
596.363	0.03
596.553	0.03
596.743	0.03
596.933	0.04
597.123	0.05
597.314	0.01
597.504	0.01
597.694	0.06
597.884	0.06
598.074	0.01
598.264	-0.01
598.454	0.04
598.644	0.03
598.834	0.03
599.024	-0.04
599.214	-0.01
599.404	0.06
599.594	0.01
599.784	-0.02
599.974	0.08
600.164	0.03
600.354	0
600.544	-0.01
600.734	0.04
600.924	0.06
601.114	0.01
601.303	0.02
601.493	0.03
601.683	0.01
601.873	0.01
602.063	-0.01
602.252	0.06
602.442	-0.04
602.632	-0
602.821	-0.01
603.011	0.05
603.201	0.02
603.39	0
603.58	-0.02
603.77	0.05
603.959	0.06
604.149	0.02
604.339	0.04
604.528	0.05
604.718	0.06
604.907	0.02
605.097	-0.01
605.286	-0.02
605.476	0.05
605.665	0.05
605.855	0.02
606.044	0.06
606.234	0.04
606.423	0.02
606.612	-0.02
606.802	0.04
606.991	0.03
607.181	0.03
607.37	-0.03
607.559	0.03
607.749	-0.04
607.938	0
608.127	0.02
608.316	-0.01
608.506	0.02
608.695	0.01
608.884	0
609.073	0.02
609.263	0.03
609.452	0.06
609.641	0.04
609.83	0
610.019	0.05
610.208	0.02
610.397	0.01
610.586	0.06
610.775	0
610.965	-0.01
611.154	-0.01
611.343	0.04
611.532	0.02
611.721	-0.02
611.91	-0.01
612.099	0.03
612.287	0
612.476	-0.01
612.665	0.06
612.854	-0.01
613.043	0.06
613.232	0.04
613.421	-0.04
613.61	0.03
613.798	0.02
613.987	0.06
614.176	0.04
614.365	0.08
614.554	0.03
614.742	0.05
614.931	-0
615.12	0.06
615.309	0.01
615.497	0.06
615.686	-0.02
615.875	0
616.063	0.02
616.252	0.01
616.44	0.04
616.629	0.05
616.818	0.04
617.006	0.01
617.195	0.01
617.383	0.06
617.572	0.03
617.76	0.02
617.949	-0.01
618.137	0.03
618.326	0.1
618.514	-0.01
618.703	-0
618.891	0.08
619.079	-0.03
619.268	0.02
619.456	-0
619.644	0.05
619.833	0.01
620.021	0.02
620.209	-0.02
620.398	0.05
620.586	0.04
620.774	0.05
620.962	0.03
621.151	0.05
621.339	0.03
621.527	-0
621.715	-0.02
621.903	-0.03
622.092	0.01
622.28	0.04
622.468	0.02
622.656	0.01
622.844	0.05
623.032	0.02
623.22	-0.05
623.408	0.05
623.596	0.04
623.784	0.05
623.972	-0.01
624.16	0.01
624.348	0.08
624.536	0.03
624.724	-0
624.912	0.1
625.1	0.06
625.288	0.01
625.476	-0
625.664	0.06
625.851	0
626.039	0.03
626.227	0.05
626.415	0.01
626.603	-0.05
626.79	0.03
626.978	-0.01
627.166	0.05
627.354	0.01
627.541	-0.03
627.729	-0.03
627.917	0.06
628.104	0.08
628.292	0.03
628.48	0.01
628.667	0.04
628.855	0.02
629.042	0.02
629.23	-0.02
629.418	0.02
629.605	0
629.793	-0.03
629.98	0
630.168	0.04
630.355	0.04
630.543	0.05
630.73	0.04
630.917	0.06
631.105	0.09
631.292	0.03
631.48	0.04
631.667	0.06
631.854	0.03
632.042	-0.01
632.229	-0.01
632.416	0.01
632.604	0.01
632.791	-0.02
632.978	0.04
633.165	0.01
633.353	0.09
633.54	0.05
633.727	-0.06
633.914	0.01
634.101	-0.04
634.289	0.03
634.476	0
634.663	-0.04
634.85	0.05
635.037	0.01
635.224	-0.05
635.411	0.06
635.598	0.06
635.785	0.02
635.972	-0.01
636.159	0.05
636.346	0
636.533	0.03
636.72	0.02
636.907	0.01
637.094	0.06
637.281	-0.01
637.468	0.04
637.655	0
637.842	0
638.029	-0.02
638.215	0.04
638.402	0.03
638.589	0.03
638.776	-0.01
638.963	0
639.149	0.08
639.336	0.06
639.523	0
639.709	0.02
639.896	0.02
640.083	0.06
640.27	0.04
640.456	-0.01
640.643	0.04
640.829	-0.03
641.016	0.02
641.203	-0.02
641.389	0.07
641.576	0.04
641.762	0.04
641.949	-0.02
642.135	0.03
642.322	0.03
642.508	-0.02
642.695	0.03
642.881	-0
643.068	0
643.254	0.02
643.441	0.07
643.627	0.02
643.813	-0
644	0.07
644.186	-0.01
644.372	0.04
644.559	0.05
644.745	-0.01
644.931	-0
645.118	0.02
645.304	0.04
645.49	-0.02
645.676	0
645.862	0.02
646.049	0.05
646.235	0.02
646.421	0.08
646.607	0.07
646.793	0.03
646.979	-0.02
647.165	0
647.352	0.02
647.538	0.05
647.724	0
647.91	0.01
648.096	0.06
648.282	0.04
648.468	-0.01
648.654	0.04
648.84	0.05
649.026	0.02
649.212	0.01
649.397	-0.03
649.583	-0.03
649.769	0.06
649.955	0.01
650.141	0.02
650.327	0.11
650.513	-0.01
650.698	0.05
650.884	-0.06
651.07	0.02
651.256	0.01
651.442	0.02
651.627	0.01
651.813	0.02
651.999	0.02
652.184	0.02
652.37	0.02
652.556	0.02
652.741	0.07
652.927	-0.06
653.113	-0
653.298	0.04
653.484	0.01
653.669	-0.02
653.855	0.02
654.04	0.06
654.226	0.04
654.412	0.03
654.597	-0.04
654.782	0.04
654.968	0.04
655.153	0.01
655.339	0.01
655.524	-0
655.71	0.05
655.895	0
656.08	0.02
656.266	0.06
656.451	0.03
656.636	-0.01
656.822	0.04
657.007	-0.03
657.192	0.01
657.378	-0.02
657.563	0.02
657.748	0.02
657.933	0.06
658.118	0.01
658.304	-0.01
658.489	0.04
658.674	0.02
658.859	-0.01
659.044	0
659.229	0.03
659.414	-0.05
659.599	0
659.785	-0.02
659.97	-0
660.155	0.08
660.34	0.01
660.525	-0.01
660.71	0.01
660.895	0.03
661.08	0.01
661.264	-0.01
661.449	0.09
661.634	0.06
661.819	0.05
662.004	0.06
662.189	-0.04
662.374	0.03
662.559	-0
662.743	-0.04
662.928	0.04
663.113	0.01
663.298	-0.01
663.483	-0.01
663.667	0.03
663.852	-0.04
664.037	0.05
664.221	-0.04
664.406	0.09
664.591	0.06
664.775	0.02
664.96	-0.02
665.145	0.02
665.329	0.04
665.514	-0.03
665.698	0.01
665.883	-0.06
666.068	0.03
666.252	0.01
666.437	-0.02
666.621	0.03
666.806	0.05
666.99	0.04
667.174	0.01
667.359	0.09
667.543	0
667.728	0.01
667.912	-0.06
668.096	0.04
668.281	-0.04
668.465	-0
668.649	0.02
668.834	-0.06
669.018	-0.03
669.202	0.01
669.387	-0.02
669.571	0.08
669.755	0.01
669.939	0.04
670.124	0
670.308	0.1
670.492	0.06
670.676	0.03
670.86	0.01
671.044	-0.01
671.228	0.02
671.413	-0.02
671.597	0
671.781	-0.02
671.965	0.03
672.149	-0.02
672.333	0.01
672.517	-0.02
672.701	0.06
672.885	-0.02
673.069	-0.04
673.253	0.07
673.437	0.04
673.621	-0.01
673.804	0
673.988	0.03
674.172	-0.01
674.356	-0.02
674.54	0.01
674.724	0.13
674.908	0.03
675.091	0.05
675.275	-0.04
675.459	0.07
675.643	0.06
675.826	0.05
676.01	0.03
676.194	0.01
676.377	0.07
676.561	0.07
676.745	0.03
676.928	0.05
677.112	0.08
677.296	-0.04
677.479	-0
677.663	0.05
677.846	0.02
678.03	0.01
678.213	0.01
678.397	0.06
678.58	0.02
678.764	-0.04
678.947	-0
679.131	0.03
679.314	0.02
679.498	0.02
679.681	0.03
679.865	0.09
680.048	0.02
680.231	0.01
680.415	-0.01
680.598	0.01
680.781	0.02
680.965	-0.04
681.148	0.03
681.331	-0.01
681.514	0.04
681.698	-0.01
681.881	0.01
682.064	-0.01
682.247	0.03
682.43	-0.07
682.614	0.03
682.797	0.05
682.98	0.02
683.163	-0.03
683.346	0.07
683.529	-0.02
683.712	-0.03
683.895	0.03
684.078	-0.05
684.261	0.03
684.444	0.04
684.627	0.03
684.81	-0.01
684.993	-0.01
685.176	0.04
685.359	-0.05
685.542	-0.02
685.725	0.11
685.908	0
686.091	0
686.274	0.03
686.457	0.08
686.639	0
686.822	0.06
687.005	0.05
687.188	0.04
687.371	0.12
687.553	0.05
687.736	0.03
687.919	0.08
688.102	0.08
688.284	0.03
688.467	0.01
688.65	0.01
688.832	-0.01
689.015	-0.01
689.197	-0.08
689.38	0.11
689.563	0.07
689.745	-0.01
689.928	-0.04
690.11	-0.01
690.293	0.02
690.475	-0.03
690.658	0.06
690.84	0
691.023	0.03
691.205	-0.02
691.388	-0.03
691.57	0.04
691.752	0.07
691.935	-0.03
692.117	-0
692.3	0.06
692.482	0.04
692.664	0.01
692.847	0.11
693.029	0.07
693.211	0.03
693.393	-0.02
693.576	-0.02
693.758	-0.04
693.94	-0
694.122	0.02
694.304	0.03
694.487	-0.04
694.669	0.07
694.851	-0.01
695.033	-0.02
695.215	-0.03
695.397	0.02
695.579	0
695.761	0
695.943	-0.08
696.125	0.1
696.308	0.03
696.49	-0.09
696.671	0.14
696.853	0.01
697.035	0.15
697.217	-0.01
697.399	0.05
697.581	-0.02
697.763	0.01
697.945	-0.07
698.127	0.01
698.309	0.07
698.491	-0.02
698.672	0.08
698.854	0.07
699.036	0.1
699.218	0.01
699.399	0.04
699.581	0.07
699.763	0
699.945	0
700.126	-0.05
700.308	0.01
700.49	0
700.671	-0.12
700.853	-0.03
701.035	-0.06
701.216	0.01
701.398	0.01
701.579	0.05
701.761	0.07
701.943	-0.01
702.124	0.03
702.306	-0
702.487	0.09
702.669	0.02
702.85	-0.05
703.031	-0.01
703.213	0.15
703.394	0.1
703.576	-0.02
703.757	0.13
703.938	0.09
704.12	0.16
704.301	0.03
704.483	-0.04
704.664	-0.01
704.845	0.15
705.026	0.03
705.208	0.03
705.389	0.04
705.57	0.04
705.751	-0.03
705.933	0.04
706.114	0.07
706.295	0.05
706.476	-0.03
706.657	0.12
706.838	0.06
707.02	0.05
707.201	-0.01
707.382	-0
707.563	0.08
707.744	-0.06
707.925	-0.04
708.106	-0.05
708.287	0.06
708.468	0.19
708.649	-0.02
708.83	0.07
709.011	-0
709.192	0.03
709.373	0.02
709.554	0.01
709.734	0.08
709.915	0.03
710.096	0.03
710.277	-0.07
710.458	-0.02
710.639	0.1
710.819	-0.11
711	0.01
711.181	0.07
711.362	0.12
711.542	0.08
711.723	0.02
711.904	0.12
712.085	0.05
712.265	0.05
712.446	-0.02
712.627	0.02
712.807	0.01
712.988	-0.02
713.168	-0.05
713.349	0.09
713.53	-0.15
713.71	-0.01
713.891	-0.09
714.071	0.04
714.252	0.02
714.432	-0.02
714.613	-0.07
714.793	0.05
714.974	0.09
715.154	0.13
715.334	0.03
715.515	0.13
715.695	-0.06
715.876	0.04
716.056	-0
716.236	-0.03
716.417	0.06
716.597	-0.02
716.777	0.13
716.957	0.05
717.138	0.03
717.318	0.05
717.498	-0.12
717.678	-0.01
717.859	0.06
718.039	-0.12
718.219	0.04
718.399	0.07
718.579	-0.05
718.759	-0.1
718.939	-0.01
719.12	0.02
719.3	0.05
719.48	-0.14
719.66	-0.14
719.84	0.1
720.02	0.04
720.2	0
720.38	-0.02
720.56	0.16
720.74	0.02
720.92	0.04
721.1	0.13
721.279	0.06
721.459	-0.05
721.639	-0.04
721.819	0.05
721.999	0.04
722.179	0.11
722.359	-0.08
722.538	-0.02
722.718	0.05
722.898	-0.02
723.078	-0.03
723.257	-0.01
723.437	0.05
723.617	0.07
723.797	-0.11
723.976	-0.01
724.156	0.03
724.336	0.08
724.515	0.18
724.695	-0.13
724.874	-0.04
725.054	0.13
725.234	-0.02
725.413	0.06
725.593	0.03
725.772	0.09
725.952	-0.02
726.131	-0
726.311	0.03
726.49	0.05
726.67	-0.07
726.849	-0.05
727.028	0.06
727.208	-0.04
727.387	0.04
727.567	-0.19
727.746	-0.01
727.925	-0.05
728.105	-0.07
728.284	-0
728.463	-0.07
728.643	0.1
728.822	-0.03
729.001	-0.03
729.18	-0.02
729.359	0.12
729.539	-0.04
729.718	0.02
729.897	0.09
730.076	0.04
730.255	-0.11
730.434	0.06
730.614	0.12
730.793	0.16
730.972	-0.06
731.151	-0.03
731.33	0.11
731.509	0.05
731.688	0.04
731.867	-0.01
732.046	0.01
732.225	0.25
732.404	-0.1
732.583	-0.18
732.762	0.09
732.941	0.06
733.12	0.02
733.298	0.05
733.477	0.13
733.656	-0.08
733.835	-0.08
734.014	0.11
734.193	-0.01
734.371	0.05
734.55	0.06
734.729	-0.08
734.908	-0.04
735.086	0.08
735.265	0.14
735.444	-0.15
735.623	-0.08
735.801	0.03
735.98	0.06
736.159	-0.03
736.337	0.04
736.516	0.07
736.694	0
736.873	0.04
737.052	0.15
737.23	0.13
737.409	-0.01
737.587	0.21
737.766	-0.02
737.944	0.08
738.123	0.03
738.301	0.04
738.479	-0.07
738.658	0.1
738.836	-0.11
739.015	0.02
739.193	0.2
739.371	-0.09
739.55	0.03
739.728	-0.02
739.906	0.09
740.085	0.18
740.263	-0.02
740.441	-0.2
740.62	0.15
740.798	0.06
740.976	-0.13
741.154	-0.14
741.332	0.17
741.511	0.05
741.689	0.02
741.867	0.04
742.045	0.11
742.223	0.1
742.401	-0.13
742.579	0.06
742.757	0.07
742.935	-0.08
743.114	-0.01
743.292	-0
743.47	0.02
743.648	0.04
743.826	0.05
744.004	0.01
744.181	0.14
744.359	0.01
744.537	0.02
744.715	0.06
744.893	-0.05
745.071	0.05
745.249	0.01
745.427	0.09
745.605	0.1
745.782	0.08
745.96	0.03
746.138	0.08
746.316	0.18
746.493	-0.03
746.671	0.04
746.849	-0.05
747.027	0.15
747.204	-0.1
747.382	0.05
747.56	-0.11
747.737	0.01
747.915	-0
748.093	0.07
748.27	-0
748.448	-0.1
748.625	-0.15
748.803	-0.01
748.98	0.02
749.158	0.13
749.335	0.18
749.513	0.01
749.69	0.06
749.868	0.07
750.045	0.1
750.223	-0.02
750.4	-0.15
750.578	0.21
750.755	0.1
750.932	-0.16
751.11	0.17
751.287	-0.12
751.464	0.15
751.642	-0.06
751.819	0.09
751.996	0.02
752.173	-0.1
752.351	-0.14
752.528	0.05
752.705	0.05
752.882	-0.05
753.06	0.1
753.237	0.05
753.414	0.23
753.591	0.18
753.768	-0.02
753.945	-0.03
754.122	-0.01
754.299	0.07
754.476	-0.07
754.654	0.02
754.831	0.06
755.008	0.11
755.185	-0.03
755.362	-0.12
755.539	0.04
755.716	-0.06
755.892	-0.12
756.069	0.06
756.246	-0.03
756.423	0.03
756.6	0.1
756.777	-0.1
756.954	0.24
757.131	-0.03
757.307	-0.12
757.484	-0.07
757.661	0.02
757.838	0.03
758.015	-0.14
758.191	0.01
758.368	0.06
758.545	0.24
758.721	0.07
758.898	-0.07
759.075	0.1
759.251	-0.03
759.428	0.09
759.605	-0.04
759.781	0.05
759.958	0.03
760.134	0.11
760.311	-0.03
760.488	0.18
760.664	0.13
760.841	0
761.017	-0.03
761.194	0.06
761.37	0.12
761.547	0.02
761.723	-0.04
761.899	0.07
762.076	-0.05
762.252	0.08
762.429	-0.11
762.605	0.06
762.781	-0.07
762.958	0.12
763.134	0.08
763.31	0.02
763.486	0.15
763.663	-0.15
763.839	0.08
764.015	-0.15
764.191	-0.09
764.368	0.06
764.544	-0.06
764.72	0.11
764.896	0.1
765.072	0
765.248	0.04
765.425	-0.08
765.601	0.03
765.777	0.03
765.953	-0.22
766.129	-0.02
766.305	-0.03
766.481	0.11
766.657	0.06
766.833	0.14
767.009	-0.11
767.185	-0
767.361	0.01
767.537	-0.05
767.713	0.23
767.889	-0.01
768.065	-0.07
768.24	-0.2
768.416	0.21
768.592	0.04
768.768	0.02
768.944	0.1
769.12	-0.13
769.295	-0.1
769.471	-0.14
769.647	0.05
769.823	0.14
769.998	-0.02
770.174	-0.11
770.35	0.36
770.525	0.36
770.701	0.01
770.877	0.01
771.052	-0.04
771.228	0.09
771.403	0.09
771.579	0.07
771.755	0.35
771.93	-0.02
772.106	-0.15
772.281	-0.2
772.457	0.08
772.632	-0.01
772.808	-0.12
772.983	0.04
773.159	-0.1
773.334	0.23
773.509	0.05
773.685	-0.03
773.86	0.38
774.036	0.11
774.211	-0.19
774.386	0.06
774.562	0.05
774.737	-0.02
774.912	-0.07
775.087	0.1
775.263	-0.03
775.438	-0.05
775.613	0.07
775.788	0.02
775.964	0.23
776.139	0.34
776.314	-0.16
776.489	0.08
776.664	0.16
776.839	0.02
777.014	0.19
777.19	0.08
777.365	0.23
777.54	0.3
777.715	0.01
777.89	0.09
778.065	-0.12
778.24	-0.02
778.415	0.2
778.59	-0.11
778.765	-0.08
778.94	0.12
779.115	-0.13
779.289	-0.02
779.464	0.11
779.639	0.05
779.814	-0.11
779.989	-0.27
780.164	0.29
780.339	0.11
780.513	-0.19
780.688	-0.19
780.863	0.04
781.038	0.01
781.212	-0.21
781.387	-0
781.562	0.58
781.737	-0.11
781.911	0.16
782.086	-0.1
782.261	-0.06
782.435	0.34
782.61	-0.2
782.784	0.03
782.959	0.25
783.134	-0.1
783.308	-0.3
783.483	-0.18
783.657	0.44
783.832	0.06
784.006	-0.36
784.181	-0.07
784.355	0.23
784.53	-0.19
784.704	-0.23
784.878	0.28
785.053	0.11
785.227	0.2
785.402	0.39
785.576	-0.17
785.75	-0.05
785.925	-0.04
786.099	0.1
786.273	0.26
786.448	0.22
786.622	0.07
786.796	0.13
786.97	-0.1
787.145	0.4
787.319	-0.21
787.493	-0.22
787.667	-0.3
787.841	-0.22
788.015	0.29
788.19	-0.19
788.364	0.16
788.538	0.26
788.712	0.26
788.886	0.16
789.06	0.25
789.234	0.18
789.408	-0.25
789.582	-0.12
789.756	-0.15
789.93	-0
790.104	-0.05
790.278	-0.02
790.452	-0.21
790.626	0.04
790.8	-0.04
790.973	0.08
791.147	0.3
791.321	0.33
791.495	0.24
791.669	0.27
791.843	0.13
792.016	0.11
792.19	0.58
792.364	-0.32
792.538	0.53
792.711	0.35
792.885	-0.22
793.059	-0.18
793.233	-0.31
793.406	0.18
793.58	-0.01
793.754	0.11
793.927	0.07
794.101	0.31
794.274	-0.08
794.448	0.3
794.622	-0.2
794.795	0.31
794.969	-0.09
795.142	0.35
795.316	-0.13
795.489	-0.17
795.663	0.31
795.836	-0.08
796.009	-0.27
796.183	0.35
796.356	0.07
796.53	-0.13
796.703	0.21
796.876	0.68
797.05	-0.15
797.223	0.1
797.396	-0.02
797.57	0.09
797.743	0.54
797.916	0.08
798.09	-0.04
798.263	0.31
798.436	-0.01
798.609	-0.25
798.782	-0.1
798.956	0.03
799.129	-0.02
799.302	-0.25
799.475	-0.13
799.648	-0.17
799.821	-0.27
799.994	0.13
800.167	-0.49
800.34	0.04
800.514	0.04
800.687	-0.23
800.86	-0.22
801.033	0.08
801.206	0.26
801.379	-0.32
801.551	0.29
801.724	0.37
801.897	0.38
802.07	-0.44
802.243	-0.51
802.416	-0.05
802.589	0.08
802.762	0.04
802.935	0.19
803.107	-0.17
803.28	0.2
803.453	0.49
803.626	-0.38
803.798	-0.04
803.971	-0.07
804.144	0.12
804.317	0.18
804.489	0.2
804.662	0.1
804.835	0.04
805.007	-0.05
805.18	0.28
805.353	0.33
805.525	-0.28
805.698	-0.5
805.87	0.67
806.043	0.23
806.215	-0.39
806.388	-0.27
806.56	0.19
806.733	0.44
806.905	-0
807.078	-0.05
807.25	-0.11
807.423	0.39
807.595	0.32
807.768	-0.18
807.94	0.34
808.112	0.16
808.285	0.31
808.457	-0.34
808.629	0.37
808.802	0.25
808.974	0.19
809.146	-0.18
809.318	-0.25
809.491	-0.07
809.663	0.19
809.835	-0.21
810.007	0.15
810.18	0.23
810.352	-0.2
810.524	-0.01
810.696	0.26
810.868	0.27
811.04	0.29
811.212	0.13
811.384	0.54
811.556	0.22
811.728	-0.35
811.901	0.8
812.073	0.19
812.245	0.35
812.417	-0.02
812.589	-0.72
812.76	0.24
812.932	0.45
813.104	-0.04
813.276	-0.1
813.448	0.52
813.62	0.19
813.792	0.44
813.964	-0.06
814.136	-0.18
814.307	-0.29
814.479	-0.47
814.651	-0.21
814.823	0.64
814.995	-0.06
815.166	-0.35
815.338	-0.34
815.51	-0.34
815.681	1.03
815.853	0.28
816.025	-0.65
816.196	0.48
816.368	0.36
816.54	-0.05
816.711	-0.48
816.883	-0.05
817.054	1.33
817.226	-0.42
817.398	0.14
817.569	-0.32
817.741	-0.28
817.912	0.01
818.084	0.27
818.255	0.4
818.426	-0.18
818.598	-0.5
818.769	-0.63
818.941	0.35
819.112	0.26
819.283	0.61
819.455	-0.49
819.626	0.22
819.798	0.19
819.969	-0.01
820.14	0.42
820.311	-0.01
820.483	0.45
820.654	0.47
820.825	0.22
820.996	0.23
821.168	-0.46
821.339	-0.24
821.51	-0.08
821.681	-0.55
821.852	0.24
822.023	-0.69
822.195	-0.44
822.366	0.69
822.537	-0.03
822.708	0.29
822.879	-0.22
823.05	0.45
823.221	-0.04
823.392	-0.08
823.563	0.2
823.734	0.27
823.905	-0.26
824.076	0.02
824.247	-0.59
824.418	-0.55
824.589	0.23
824.759	-0.17
824.93	-0.2
825.101	-0.84
825.272	0.48
825.443	0.84
825.614	-0.05
825.784	-0.99
825.955	1.13
826.126	0.88
826.297	0.53
826.467	0.58
826.638	0.49
826.809	-0.81
826.98	-0.41
827.15	0.21
827.321	0.5
827.492	0.97
827.662	-0.07
827.833	1.15
828.003	0.46
828.174	-0.56
828.345	-0.44
828.515	0.77
828.686	0.44
828.856	-0.06
829.027	0.08
829.197	0.44
829.368	0.11
829.538	-0.55
829.709	-0.52
829.879	0.53
830.049	-0.01
830.22	-0.09
830.39	0
830.56	0.57
830.731	-0.27
830.901	-0.06
831.072	-0
831.242	0.64
831.412	-0.15
831.582	0.55
831.753	-1.2
831.923	-0.01
832.093	-0.21
832.263	-0.09
832.434	-0.63
832.604	-0.16
832.774	0.24
832.944	-0.17
833.114	-0.28
833.284	0.21
833.454	-0.69
833.624	-0.9
833.795	-0.03
833.965	1.11
834.135	0.76
834.305	-1.13
834.475	-0.89
834.645	0.05
834.815	-0.23
834.985	-0.75
835.155	0.1
835.325	0.65
835.494	0.42
835.664	-0.01
835.834	-0.83
836.004	0.28
836.174	0.03
836.344	0.14
836.514	-0.88
836.684	-0.4
836.853	0.44
837.023	0.28
837.193	-0.11
837.363	0.9
837.532	0.78
837.702	-0.23
837.872	-0.71
838.041	0.38
838.211	1.47
838.381	-1.42
838.55	0.17
838.72	1.82
838.89	0.73
839.059	-0.12
839.229	-0.33
839.398	0.86
839.568	0.43
839.738	-0.55
839.907	1.04
840.077	-0.36
840.246	-0.29
840.416	-0.66
840.585	-0.22
840.755	0.98
840.924	0.28
841.093	-0.29
841.263	-0.49
841.432	0.11
841.602	0.41
841.771	-0.68
841.94	-0.48
842.11	1.79
842.279	1.26
842.448	-0.54
842.617	-0.56
842.787	1.01
842.956	-0.83
843.125	0.31
843.294	0.41
843.464	1.7
843.633	0.01
843.802	-0.5
843.971	-0.62
844.14	0.08
844.309	0.05
844.479	-0.65
844.648	-1.11
844.817	-0.68
844.986	0.14
845.155	0.21
845.324	-0.45
845.493	-0.01
845.662	-0.31
845.831	0.27
846	-0.01
846.169	0.29
846.338	1.18
846.507	0.17
846.676	0.2
846.844	0.14
847.013	0.32
847.182	-0
847.351	-0.84
847.52	-0.32
847.689	1.17
847.858	-0.34
848.026	-0.4
848.195	0.3
848.364	-1.25
848.533	-1.25
848.701	-0.87
848.87	0.37
849.039	1.18
849.207	0.4
849.376	0.91
849.545	2.3
849.713	-0.71
849.882	-0.43
850.051	-0.61
850.219	-0.4
850.388	1.24
850.556	-0.77
850.725	-0.69
850.893	0.94
851.062	-0.02
851.23	0.41
851.399	-1.45
851.567	-0.32
851.736	-0.32
851.904	-1.12
852.073	-0.34
852.241	-0.23
852.41	-0.32
852.578	-0.44
852.746	-0.32
852.915	1.25
853.083	0.09
853.251	-1.5
853.42	0.07
853.588	0.23
853.756	0.25
853.924	0.65
854.093	-0.09
854.261	-0.08
854.429	-1.55
854.597	0.24
854.765	-1.29
854.934	1.06
855.102	0.89
855.27	-0.04
855.438	0.13
855.606	1.74
855.774	2.28
855.942	-1.18
856.11	-1.62
856.278	-0.84
856.446	0.2
856.614	0.3
856.782	-0.92
856.95	1.05
857.118	1.33
857.286	-0.51
857.454	-1.65
857.622	0.86
857.79	1.13
857.958	-0.36
858.126	-0.58
858.294	-3.04
858.462	-0.22
858.629	-0.45
858.797	-1.57
858.965	0.45
859.133	0.56
859.301	-0.6
859.468	0.32
859.636	-0.03
859.804	1.99
859.971	0.24
860.139	-1.34
860.307	0.97
860.474	-0.47
860.642	-1.34
860.81	-1.15
860.977	-1.43
861.145	1.1
861.313	-0.59
861.48	-0.4
861.648	0.97
861.815	0.18
861.983	-1.62
862.15	-0.66
862.318	0.91
862.485	1.81
862.653	-0.94
862.82	-0.85
862.988	1.06
863.155	1.11
863.322	-1.69
863.49	-0.66
863.657	-0.71
863.824	1.63
863.992	-0.45
864.159	-1.4
864.326	2.04
864.494	-0.64
864.661	2.7
864.828	-0.55
864.996	1.91
865.163	1.55
865.33	-0.66
865.497	-2.57
865.664	-2.33
865.832	-2.35
865.999	-0.37
866.166	-1.31
866.333	-0.98
866.5	-1.15
866.667	0.28
866.834	0.13
867.001	2.74
867.168	-2.19
867.335	-0.9
867.502	-2.33
867.669	-1.62
867.836	4
868.003	0.26
868.17	0.16
868.337	-1.14
868.504	1.5
868.671	-2.37
868.838	-0.72
869.005	-0.38
869.172	0.45
869.339	-0.71
869.505	-0.34
869.672	1.02
869.839	1.02
870.006	0.72
870.173	-2.81
870.339	1.79
870.506	2.09
870.673	-1.67
870.84	2.12
871.006	0.37
871.173	0.41
871.34	0.3
871.506	-0.99
871.673	1.03
871.839	-1.66
872.006	-0.29
872.173	-0.35
872.339	0.13
872.506	3.14
872.672	0.41
872.839	-0.97
873.005	0.61
873.172	2.09
873.338	1.54
873.505	-1.8
873.671	-0.21
873.838	1.69
874.004	-2.08
874.171	-3.42
874.337	1.02
874.503	-0.66
874.67	-1.59
874.836	0.65
875.002	1.74
875.169	1.56
875.335	0.39
875.501	-0.2
875.668	0.4
875.834	0.95
876	-0.33
876.166	0.78
876.332	2.02
876.499	2.25
876.665	-0.01
876.831	-0.04
876.997	2.92
877.163	1.99
877.329	-1.67
877.495	0.98
877.662	1.16
877.828	0.49
877.994	-1.13
878.16	-3.35
878.326	-1.39
878.492	-0.8
878.658	0.55
878.824	0.79
878.99	2.93
879.156	-0.47
879.322	2.53
879.487	-0.49
879.653	1.67
879.819	0.81
879.985	-0.23
880.151	1.37
880.317	1.13
880.483	1.19
880.648	1.64
880.814	-1.54
880.98	2.47
881.146	-2.8
881.312	-1.36
881.477	-0.44
881.643	0.03
881.809	2.93
881.974	-0.06
882.14	-2.24
882.306	-0.2
882.471	4.31
882.637	-1.4
882.803	1.19
882.968	3.51
883.134	5.55
883.299	-1.24
883.465	1.5
883.63	1.62
883.796	-0.62
883.961	0.29
884.127	0.87
884.292	-4.44
884.458	-1.74
884.623	-1.74
