Data from Apollo_Calib_20240827__AbsoluteIrradiance__281__03-50-00-924.txt Node

Date: Wed Aug 28 03:50:00 BST 2024
User: biology
Spectrometer: FLMT08252
Trigger mode: 0
Integration Time (sec): 5.000000E-1
Scans to average: 5
Electric dark correction enabled: true
Nonlinearity correction enabled: false
Boxcar width: 0
XAxis mode: Wavelengths
Number of Pixels in Spectrum: 3648
>>>>>Begin Spectral Data<<<<<
179.588	-0
179.809	-0
180.03	-0
180.251	-0
180.473	-0
180.694	0
180.915	0
181.136	-0
181.357	0
181.578	-0
181.799	0
182.02	-0
182.241	-0
182.462	-0
182.683	0
182.904	-0
183.125	0
183.346	0
183.567	0
183.788	0
184.009	-0
184.23	0
184.451	0
184.672	-0
184.892	-0
185.113	0
185.334	0
185.555	0
185.776	-0
185.996	0
186.217	0
186.438	0
186.659	-0
186.879	0
187.1	-0
187.321	-0
187.541	-0
187.762	0
187.983	0
188.203	0
188.424	-0
188.644	0
188.865	0
189.086	-0
189.306	-0
189.527	-0
189.747	0
189.968	-0
190.188	0
190.409	0
190.629	0
190.849	0
191.07	-0
191.29	0
191.511	0
191.731	-0
191.951	0
192.172	-0
192.392	0
192.612	-0
192.833	0
193.053	0
193.273	0
193.493	-0
193.714	0
193.934	0
194.154	0
194.374	0
194.594	0
194.815	0
195.035	0
195.255	0
195.475	-0
195.695	0
195.915	0
196.135	-0
196.355	0
196.575	0
196.795	0
197.015	-0
197.235	0
197.455	0
197.675	0
197.895	-0
198.115	-0
198.335	0
198.555	-0
198.775	0
198.995	0
199.214	0
199.434	0
199.654	-0
199.874	-0
200.094	1.15
200.313	-0.41
200.533	-0.05
200.753	0.24
200.973	1.02
201.192	0.79
201.412	-0.94
201.632	-0.24
201.851	0.86
202.071	0.2
202.291	0.06
202.51	-0.18
202.73	0.94
202.95	0.19
203.169	-0.14
203.389	0.43
203.608	0.75
203.828	-0.1
204.047	-0.02
204.267	0.65
204.486	0.4
204.706	0.46
204.925	0.06
205.145	-0.31
205.364	0.78
205.583	0.8
205.803	0.14
206.022	-0.42
206.242	0.34
206.461	-0.02
206.68	0
206.9	0.41
207.119	0.85
207.338	0.83
207.557	-0.19
207.777	0.03
207.996	0.29
208.215	0.46
208.434	-0.12
208.654	-0.15
208.873	0.14
209.092	0.88
209.311	-0.07
209.53	0.19
209.749	0.34
209.968	-0.3
210.187	0.12
210.407	-0.32
210.626	0.2
210.845	0.35
211.064	0.08
211.283	-0.19
211.502	0.62
211.721	0.15
211.94	0.12
212.159	0.31
212.377	0.44
212.596	0.61
212.815	0.22
213.034	0.33
213.253	0.68
213.472	0.31
213.691	-0.07
213.91	0.16
214.128	0.05
214.347	0.72
214.566	-0.24
214.785	-0.42
215.003	0.31
215.222	0.43
215.441	0.09
215.66	-0.13
215.878	0.19
216.097	0.42
216.316	-0.22
216.534	-0.05
216.753	0.26
216.972	0.14
217.19	0.24
217.409	-0.05
217.627	-0.01
217.846	0.23
218.064	0.22
218.283	-0.05
218.501	0.59
218.72	0.28
218.938	-0.07
219.157	-0.05
219.375	0.36
219.594	0.42
219.812	0.02
220.031	-0.04
220.249	0.46
220.467	0.54
220.686	0.05
220.904	-0.01
221.122	-0.14
221.341	0.45
221.559	0.23
221.777	-0.06
221.995	0.26
222.214	0.24
222.432	0.06
222.65	0.18
222.868	0.26
223.086	0.27
223.305	0.31
223.523	0.06
223.741	0.39
223.959	0.07
224.177	-0.13
224.395	0.05
224.613	0.28
224.831	0.24
225.049	-0.07
225.267	0.02
225.485	0.06
225.703	-0.02
225.921	0.06
226.139	0.02
226.357	0.21
226.575	0.1
226.793	-0.02
227.011	0.58
227.229	0.17
227.447	0.35
227.665	0.03
227.883	-0.06
228.1	0.24
228.318	0.19
228.536	-0.16
228.754	-0.1
228.972	0.23
229.189	0.16
229.407	-0.11
229.625	0.12
229.843	0.25
230.06	0.21
230.278	0.08
230.496	0.11
230.713	0.12
230.931	0.38
231.149	0.12
231.366	-0.15
231.584	0.14
231.801	0.45
232.019	0.06
232.236	-0.07
232.454	0.05
232.671	0.15
232.889	0.08
233.106	-0.07
233.324	0.1
233.541	0.02
233.759	0.15
233.976	-0.04
234.194	0.03
234.411	0.13
234.628	0.02
234.846	0.04
235.063	0.16
235.28	0.16
235.498	0.03
235.715	-0.09
235.932	0.31
236.149	0.06
236.367	0.04
236.584	0.1
236.801	-0
237.018	0.14
237.236	0.07
237.453	-0.09
237.67	0.19
237.887	0.12
238.104	-0.05
238.321	-0.03
238.538	-0.03
238.755	0.16
238.973	-0.05
239.19	0.11
239.407	0.21
239.624	0.15
239.841	-0.06
240.058	-0.05
240.275	0.25
240.492	0.16
240.709	0.14
240.925	0.05
241.142	0.06
241.359	-0.08
241.576	0.03
241.793	-0.06
242.01	0.06
242.227	0.19
242.444	0.14
242.66	0.13
242.877	0.08
243.094	0.05
243.311	0.13
243.527	0.03
243.744	0.2
243.961	0.12
244.178	0.08
244.394	0.04
244.611	0.24
244.828	0.3
245.044	-0.04
245.261	0.02
245.477	0.04
245.694	0.22
245.911	0.05
246.127	0.09
246.344	0.17
246.56	0.16
246.777	0.05
246.993	0.05
247.21	0.13
247.426	0.21
247.643	0.03
247.859	-0.11
248.076	-0.04
248.292	0.31
248.508	0.03
248.725	0.15
248.941	0.12
249.157	0.14
249.374	-0.03
249.59	0.06
249.806	0.04
250.023	0.09
250.239	0.05
250.455	0.01
250.671	0.09
250.888	0.11
251.104	0.16
251.32	-0
251.536	0.07
251.752	-0
251.969	0.15
252.185	0.08
252.401	0.27
252.617	0.09
252.833	0.04
253.049	0.07
253.265	0.07
253.481	0.08
253.697	0.06
253.913	0.02
254.129	0.18
254.345	0.13
254.561	0.04
254.777	0.08
254.993	0.2
255.209	0.08
255.425	0.03
255.641	0.02
255.857	0.17
256.073	0.1
256.288	-0.02
256.504	0.01
256.72	0.07
256.936	0.26
257.152	0.03
257.367	0.03
257.583	0.05
257.799	0.08
258.015	-0
258.23	-0
258.446	0.19
258.662	0.09
258.877	-0.04
259.093	0.01
259.309	0.12
259.524	0.11
259.74	0.07
259.955	-0.05
260.171	0.11
260.387	0.07
260.602	0.21
260.818	0.05
261.033	0.01
261.249	0.03
261.464	0.01
261.68	-0
261.895	0.12
262.11	0.13
262.326	0.02
262.541	-0.07
262.757	0.18
262.972	0.13
263.187	0.1
263.403	0.07
263.618	0.06
263.833	0.02
264.049	-0.02
264.264	0.07
264.479	0.13
264.694	0.17
264.91	-0.04
265.125	0.06
265.34	0.13
265.555	0.18
265.77	0.09
265.986	0.04
266.201	0.15
266.416	0.19
266.631	0.07
266.846	0.07
267.061	0.11
267.276	0.13
267.491	-0.1
267.706	0.05
267.921	0.12
268.136	0.1
268.351	0.11
268.566	-0.03
268.781	0.22
268.996	0.17
269.211	-0.01
269.426	-0.03
269.641	0.1
269.856	0.21
270.071	-0.01
270.285	0.01
270.5	0.17
270.715	0.09
270.93	0.02
271.145	0.08
271.359	0.1
271.574	0.03
271.789	0.03
272.004	0
272.218	0.11
272.433	0.1
272.648	-0.02
272.862	0.06
273.077	0.1
273.292	0.12
273.506	0.05
273.721	-0.04
273.936	0.08
274.15	0.15
274.365	0.03
274.579	0.17
274.794	0.09
275.008	0.15
275.223	-0.03
275.437	0.09
275.652	0.09
275.866	0.12
276.081	0.06
276.295	0.1
276.509	0.06
276.724	0.07
276.938	0.11
277.153	0.1
277.367	0.13
277.581	0.02
277.796	0.06
278.01	0.05
278.224	0.15
278.438	0.21
278.653	0
278.867	-0.02
279.081	-0.01
279.295	-0.03
279.51	0.04
279.724	0.01
279.938	0.1
280.152	0.1
280.366	-0.01
280.58	0.03
280.794	0.18
281.008	0.13
281.222	0.08
281.437	0.16
281.651	0.08
281.865	0.22
282.079	-0.01
282.293	-0.09
282.507	0.02
282.721	0.1
282.935	0.06
283.148	-0.03
283.362	0.05
283.576	0.01
283.79	0.06
284.004	0.02
284.218	0.07
284.432	0.01
284.646	0.07
284.859	0.04
285.073	0.03
285.287	0.07
285.501	0.05
285.714	0.02
285.928	0.08
286.142	0.04
286.356	-0.01
286.569	0.02
286.783	0.19
286.997	0.14
287.21	0.08
287.424	0.05
287.637	0.04
287.851	0.07
288.065	0.1
288.278	0.04
288.492	0.06
288.705	0.02
288.919	0.11
289.132	-0.01
289.346	0.08
289.559	-0.05
289.773	-0.01
289.986	0.06
290.2	0.09
290.413	0.15
290.626	0.01
290.84	0.06
291.053	0.05
291.267	0.16
291.48	0.05
291.693	0.03
291.906	-0.02
292.12	0.05
292.333	0.03
292.546	0.06
292.76	0.12
292.973	0.07
293.186	0.07
293.399	0.04
293.612	0.08
293.826	0.06
294.039	0
294.252	0.05
294.465	0.1
294.678	0.11
294.891	0.09
295.104	0.02
295.317	0.01
295.53	0.05
295.743	0.06
295.956	0.06
296.169	0.16
296.382	0.09
296.595	0.07
296.808	-0.04
297.021	0.11
297.234	0.11
297.447	0.04
297.66	0.11
297.873	0.13
298.086	0.04
298.299	0.02
298.511	-0.01
298.724	0.01
298.937	-0.01
299.15	-0.01
299.363	0.07
299.575	0.05
299.788	0.1
300.001	0.03
300.213	0.01
300.426	0.03
300.639	0.04
300.852	0.03
301.064	0.07
301.277	0.12
301.489	0.11
301.702	0.08
301.915	0.02
302.127	0.04
302.34	0.08
302.552	0.08
302.765	0.02
302.977	0.13
303.19	0.04
303.402	0.08
303.615	0.04
303.827	0.04
304.04	0.04
304.252	0.07
304.464	0.04
304.677	0.17
304.889	0.12
305.102	0.01
305.314	-0.04
305.526	0.09
305.739	0.07
305.951	0.01
306.163	0.05
306.375	0.13
306.588	0.04
306.8	0.01
307.012	0.03
307.224	0.06
307.436	0.11
307.649	0.01
307.861	0.05
308.073	0.06
308.285	0.03
308.497	0.01
308.709	0.03
308.921	0.06
309.133	0.11
309.346	0.03
309.558	0.06
309.77	0.13
309.982	0.12
310.194	0.09
310.406	0.01
310.617	0.13
310.829	0.07
311.041	0.08
311.253	0.02
311.465	0.02
311.677	0.06
311.889	0.07
312.101	-0.01
312.313	0.09
312.524	0.13
312.736	0.03
312.948	0.03
313.16	0.13
313.372	0.08
313.583	0.03
313.795	0.05
314.007	0.03
314.218	0.12
314.43	0.02
314.642	0.02
314.853	0.02
315.065	0.08
315.277	0.04
315.488	0.06
315.7	0.08
315.912	0.07
316.123	0.02
316.335	0.04
316.546	0.17
316.758	0.11
316.969	0.03
317.181	0.07
317.392	0.07
317.604	0.12
317.815	0.04
318.026	-0.01
318.238	0.03
318.449	0.12
318.661	-0.01
318.872	0.03
319.083	-0
319.295	0.09
319.506	0
319.717	0.05
319.929	0.15
320.14	0.05
320.351	0.07
320.562	-0
320.774	0.12
320.985	0.06
321.196	0.02
321.407	-0.02
321.618	0.05
321.829	0.06
322.041	0.1
322.252	0.03
322.463	0.09
322.674	0.09
322.885	-0.01
323.096	0.04
323.307	0.05
323.518	0.07
323.729	0.05
323.94	0.03
324.151	0.07
324.362	0.1
324.573	0.04
324.784	0.02
324.995	0.11
325.206	0.05
325.417	0.07
325.628	0.04
325.838	0.05
326.049	0.06
326.26	0.11
326.471	0.06
326.682	0.09
326.892	0.08
327.103	0.03
327.314	-0.03
327.525	0.14
327.735	0.08
327.946	-0.01
328.157	0
328.368	0.08
328.578	0.05
328.789	0.1
328.999	0.04
329.21	0.06
329.421	0.08
329.631	0.03
329.842	0.01
330.052	0.05
330.263	0.05
330.473	0.1
330.684	-0
330.894	0.07
331.105	0.08
331.315	0.1
331.526	0
331.736	0.13
331.947	0.05
332.157	0.1
332.367	-0
332.578	0.1
332.788	0.13
332.999	0.09
333.209	0.08
333.419	0.02
333.629	0.11
333.84	0.09
334.05	0.04
334.26	0.1
334.47	0.1
334.681	0.11
334.891	0.05
335.101	0.1
335.311	0.14
335.521	0.06
335.732	0.02
335.942	0.15
336.152	0.1
336.362	0.09
336.572	0.05
336.782	0.11
336.992	0.02
337.202	0.04
337.412	0.01
337.622	0.11
337.832	0.11
338.042	0.05
338.252	0.03
338.462	0.05
338.672	0.08
338.882	0.06
339.092	0.01
339.302	0.13
339.511	0.08
339.721	0.08
339.931	0.03
340.141	0.06
340.351	0.14
340.561	0.09
340.77	0.07
340.98	0.07
341.19	0.09
341.4	0.05
341.609	0.01
341.819	0.03
342.029	0.01
342.238	0.05
342.448	0.01
342.658	0.12
342.867	0.05
343.077	0.07
343.286	0.09
343.496	0.06
343.706	0.12
343.915	-0.01
344.125	0.05
344.334	0.09
344.544	-0.03
344.753	0.04
344.963	0.03
345.172	0.04
345.381	0.04
345.591	0.02
345.8	0.05
346.01	0.08
346.219	0.15
346.428	-0.06
346.638	0.06
346.847	0.05
347.056	0.15
347.266	0.05
347.475	0.07
347.684	0.11
347.893	0.05
348.103	0.12
348.312	0.05
348.521	0.06
348.73	0.06
348.94	0.1
349.149	0.03
349.358	0.04
349.567	0.03
349.776	-0
349.985	0.06
350.194	0.08
350.403	0.1
350.612	-0.02
350.821	0.04
351.03	0.05
351.239	0.04
351.448	0.05
351.657	0
351.866	0.11
352.075	0.05
352.284	0.12
352.493	0.04
352.702	0.1
352.911	0.09
353.12	0.08
353.329	0.05
353.538	0.05
353.746	0.02
353.955	0.05
354.164	0.08
354.373	0.02
354.582	0.15
354.79	0.1
354.999	0.1
355.208	0.07
355.416	0.11
355.625	0.02
355.834	0.01
356.042	0.06
356.251	0.02
356.46	0.05
356.668	0.09
356.877	0.17
357.085	0.11
357.294	-0.04
357.503	0.07
357.711	0.04
357.92	0.21
358.128	0.08
358.337	0.02
358.545	0.1
358.754	0.02
358.962	0.07
359.17	0.05
359.379	0.1
359.587	0.05
359.796	0.09
360.004	0.09
360.212	0.07
360.421	0.09
360.629	0.06
360.837	0.05
361.046	0.11
361.254	0.18
361.462	0.08
361.67	0.04
361.879	0.08
362.087	0.12
362.295	0.11
362.503	0.07
362.711	0.03
362.92	0.03
363.128	0.04
363.336	0.04
363.544	0
363.752	0.09
363.96	0.04
364.168	0.03
364.376	0.04
364.584	0.09
364.792	0.09
365	0.09
365.208	0.08
365.416	0.07
365.624	0.15
365.832	0.05
366.04	0.15
366.248	0.09
366.456	0.08
366.664	0.09
366.872	0.07
367.079	0.07
367.287	0.07
367.495	0.07
367.703	0.07
367.911	0.07
368.118	0.07
368.326	0.08
368.534	0.05
368.742	0.15
368.949	0.03
369.157	0.03
369.365	0.1
369.572	0.05
369.78	0.04
369.988	0.12
370.195	0.13
370.403	0.12
370.61	0.01
370.818	0.06
371.026	0.12
371.233	0.03
371.441	0.02
371.648	0.07
371.856	0.11
372.063	0.09
372.271	0.03
372.478	0.06
372.685	0.05
372.893	0.1
373.1	0.01
373.308	0.06
373.515	0.19
373.722	0.13
373.93	0.11
374.137	0.11
374.344	0.16
374.552	0.14
374.759	0.09
374.966	0.08
375.173	0.06
375.381	0.18
375.588	0.09
375.795	-0.01
376.002	0.05
376.209	0.09
376.417	0.05
376.624	0.07
376.831	0.08
377.038	0.1
377.245	0
377.452	0.04
377.659	0.09
377.866	0.06
378.073	0.03
378.28	0.1
378.487	0.13
378.694	0.11
378.901	0.1
379.108	0.09
379.315	0.13
379.522	0.13
379.729	0.12
379.936	0.11
380.143	0.1
380.35	0.12
380.557	0.08
380.763	0.1
380.97	0.04
381.177	0.1
381.384	0.09
381.591	0.08
381.797	0.11
382.004	0.12
382.211	0.12
382.418	0.08
382.624	0.13
382.831	0.14
383.038	0.06
383.244	0.13
383.451	0.09
383.658	0.14
383.864	0.11
384.071	0.08
384.277	0.16
384.484	0.05
384.69	0.15
384.897	0.09
385.103	0.08
385.31	0.08
385.516	0.04
385.723	0.09
385.929	0.08
386.136	0.06
386.342	0.16
386.549	0.07
386.755	0.12
386.961	0.14
387.168	0.11
387.374	0.12
387.58	0.14
387.787	0.12
387.993	0.15
388.199	0.08
388.406	0.07
388.612	0.12
388.818	0.08
389.024	0.1
389.231	0.14
389.437	0.21
389.643	0.2
389.849	0.1
390.055	0.16
390.261	0.16
390.467	0.12
390.674	0.12
390.88	0.18
391.086	0.2
391.292	0.09
391.498	0.19
391.704	0.16
391.91	0.16
392.116	0.14
392.322	0.08
392.528	0.2
392.734	0.14
392.94	0.22
393.146	0.22
393.352	0.19
393.557	0.23
393.763	0.19
393.969	0.2
394.175	0.22
394.381	0.24
394.587	0.14
394.792	0.2
394.998	0.29
395.204	0.28
395.41	0.26
395.615	0.22
395.821	0.26
396.027	0.33
396.233	0.28
396.438	0.29
396.644	0.39
396.85	0.36
397.055	0.34
397.261	0.4
397.466	0.44
397.672	0.36
397.878	0.35
398.083	0.38
398.289	0.37
398.494	0.49
398.7	0.4
398.905	0.35
399.111	0.56
399.316	0.4
399.522	0.46
399.727	0.51
399.932	0.48
400.138	0.51
400.343	0.65
400.549	0.53
400.754	0.61
400.959	0.61
401.165	0.68
401.37	0.71
401.575	0.82
401.78	0.76
401.986	0.79
402.191	0.84
402.396	0.85
402.601	0.91
402.807	0.94
403.012	0.99
403.217	1.04
403.422	1.09
403.627	1.16
403.832	1.18
404.037	1.27
404.243	1.26
404.448	1.29
404.653	1.43
404.858	1.46
405.063	1.49
405.268	1.58
405.473	1.6
405.678	1.62
405.883	1.92
406.088	1.9
406.293	1.84
406.498	1.96
406.703	2.02
406.907	2.13
407.112	2.19
407.317	2.43
407.522	2.61
407.727	2.62
407.932	2.71
408.136	3
408.341	3
408.546	3.12
408.751	3.19
408.956	3.4
409.16	3.56
409.365	3.68
409.57	3.77
409.774	3.89
409.979	4.08
410.184	4.16
410.388	4.3
410.593	4.55
410.798	4.72
411.002	5.01
411.207	5.14
411.411	5.34
411.616	5.52
411.82	5.72
412.025	5.97
412.229	6.2
412.434	6.41
412.638	6.49
412.843	6.83
413.047	6.99
413.252	7.23
413.456	7.69
413.66	7.8
413.865	7.92
414.069	8.16
414.273	8.52
414.478	8.71
414.682	8.94
414.886	9.19
415.091	9.43
415.295	9.7
415.499	10.17
415.703	10.23
415.908	10.76
416.112	10.91
416.316	11.42
416.52	11.77
416.724	11.88
416.929	12.37
417.133	12.88
417.337	12.75
417.541	13.24
417.745	13.69
417.949	13.82
418.153	14.45
418.357	14.62
418.561	15.42
418.765	15.32
418.969	15.65
419.173	16.43
419.377	16.56
419.581	17.23
419.785	17.42
419.989	17.5
420.193	18.29
420.397	18.49
420.601	18.56
420.804	18.92
421.008	19.03
421.212	19.36
421.416	19.05
421.62	19.25
421.823	19.24
422.027	19.24
422.231	18.92
422.435	18.94
422.638	18.75
422.842	18.81
423.046	19.13
423.249	19.31
423.453	19.04
423.657	19.13
423.86	19.32
424.064	19.32
424.268	19.11
424.471	18.9
424.675	19.1
424.878	18.85
425.082	19.01
425.285	19.35
425.489	18.53
425.692	18.48
425.896	18.01
426.099	17.97
426.303	17.9
426.506	17.92
426.71	17.84
426.913	17.59
427.116	17.48
427.32	16.78
427.523	16.63
427.726	16.6
427.93	16.43
428.133	16.37
428.336	16.19
428.54	15.81
428.743	15.8
428.946	15.49
429.149	14.98
429.353	14.53
429.556	14.02
429.759	13.54
429.962	13.33
430.165	12.94
430.368	11.95
430.571	11.64
430.775	11.26
430.978	10.79
431.181	10.52
431.384	10.18
431.587	9.91
431.79	9.92
431.993	9.49
432.196	9.44
432.399	9.36
432.602	9.17
432.805	8.99
433.008	9.16
433.211	8.82
433.414	8.71
433.616	8.4
433.819	8.06
434.022	7.94
434.225	7.69
434.428	7.59
434.631	7.62
434.833	7.13
435.036	7.04
435.239	6.98
435.442	6.72
435.645	6.58
435.847	6.53
436.05	6.47
436.253	6.33
436.455	6.19
436.658	5.85
436.861	5.95
437.063	5.74
437.266	5.5
437.468	5.4
437.671	5.51
437.874	5.3
438.076	4.95
438.279	4.99
438.481	4.83
438.684	4.97
438.886	4.61
439.089	4.53
439.291	4.43
439.494	4.4
439.696	4.25
439.899	4.3
440.101	4.29
440.303	4.13
440.506	4.25
440.708	4.04
440.91	3.9
441.113	3.8
441.315	3.74
441.517	3.51
441.72	3.57
441.922	3.37
442.124	3.19
442.326	3.24
442.529	3.17
442.731	3
442.933	3.08
443.135	2.85
443.337	2.71
443.539	2.76
443.742	2.6
443.944	2.63
444.146	2.52
444.348	2.45
444.55	2.3
444.752	2.27
444.954	2.17
445.156	2.15
445.358	2.18
445.56	2.15
445.762	1.98
445.964	2.07
446.166	1.87
446.368	1.85
446.57	1.85
446.772	1.76
446.974	1.64
447.175	1.73
447.377	1.58
447.579	1.68
447.781	1.57
447.983	1.61
448.184	1.49
448.386	1.47
448.588	1.35
448.79	1.41
448.991	1.34
449.193	1.37
449.395	1.32
449.597	1.3
449.798	1.24
450	1.24
450.202	1.15
450.403	1.17
450.605	1.16
450.806	1.1
451.008	0.99
451.21	1.06
451.411	1.05
451.613	0.96
451.814	0.98
452.016	1.1
452.217	0.95
452.419	0.98
452.62	0.94
452.821	0.92
453.023	0.95
453.224	0.85
453.426	0.82
453.627	0.83
453.828	0.87
454.03	0.79
454.231	0.87
454.432	0.71
454.634	0.9
454.835	0.7
455.036	0.68
455.238	0.77
455.439	0.79
455.64	0.66
455.841	0.66
456.042	0.77
456.244	0.67
456.445	0.61
456.646	0.56
456.847	0.64
457.048	0.64
457.249	0.71
457.45	0.83
457.651	0.49
457.852	0.64
458.054	0.53
458.255	0.49
458.456	0.59
458.657	0.57
458.858	0.49
459.058	0.44
459.259	0.54
459.46	0.47
459.661	0.46
459.862	0.63
460.063	0.47
460.264	0.52
460.465	0.37
460.666	0.52
460.866	0.41
461.067	0.42
461.268	0.42
461.469	0.39
461.67	0.4
461.87	0.35
462.071	0.39
462.272	0.35
462.473	0.38
462.673	0.42
462.874	0.31
463.075	0.33
463.275	0.32
463.476	0.43
463.676	0.45
463.877	0.33
464.078	0.33
464.278	0.39
464.479	0.33
464.679	0.28
464.88	0.31
465.08	0.42
465.281	0.26
465.481	0.33
465.682	0.26
465.882	0.29
466.083	0.29
466.283	0.27
466.483	0.27
466.684	0.23
466.884	0.23
467.085	0.29
467.285	0.35
467.485	0.22
467.686	0.23
467.886	0.19
468.086	0.22
468.286	0.24
468.487	0.28
468.687	0.21
468.887	0.22
469.087	0.27
469.287	0.21
469.488	0.16
469.688	0.27
469.888	0.31
470.088	0.28
470.288	0.25
470.488	0.29
470.688	0.17
470.888	0.2
471.088	0.15
471.288	0.29
471.488	0.22
471.688	0.2
471.888	0.17
472.088	0.26
472.288	0.25
472.488	0.18
472.688	0.18
472.888	0.21
473.088	0.17
473.288	0.19
473.488	0.16
473.688	0.26
473.887	0.19
474.087	0.15
474.287	0.18
474.487	0.1
474.687	0.17
474.886	0.17
475.086	0.16
475.286	0.18
475.486	0.19
475.685	0.18
475.885	0.16
476.085	0.14
476.284	0.19
476.484	0.13
476.684	0.18
476.883	0.18
477.083	0.17
477.282	0.12
477.482	0.19
477.681	0.16
477.881	0.15
478.08	0.09
478.28	0.12
478.479	0.14
478.679	0.21
478.878	0.09
479.078	0.09
479.277	0.14
479.477	0.13
479.676	0.13
479.875	0.14
480.075	0.05
480.274	0.15
480.473	0.15
480.673	0.06
480.872	0.15
481.071	0.12
481.271	0.14
481.47	0.11
481.669	0.09
481.868	0.12
482.067	0.08
482.267	0.05
482.466	0.07
482.665	0.1
482.864	0.06
483.063	0.07
483.262	0.14
483.461	0.15
483.661	0.13
483.86	0.11
484.059	0.1
484.258	0.09
484.457	0.09
484.656	0.08
484.855	0.15
485.054	0.04
485.253	0.03
485.452	0.05
485.651	0.09
485.849	0.08
486.048	0.04
486.247	0.05
486.446	0.11
486.645	0.05
486.844	0.07
487.043	0.07
487.241	0.11
487.44	0.07
487.639	0.06
487.838	0.1
488.037	0.1
488.235	0.13
488.434	0.07
488.633	0.05
488.831	0.09
489.03	0.09
489.229	0.06
489.427	0.07
489.626	0.12
489.825	0.14
490.023	0.1
490.222	0.06
490.42	0.09
490.619	0.11
490.817	0.09
491.016	0.05
491.214	0.1
491.413	0.07
491.611	0.09
491.81	0.06
492.008	0.09
492.207	0.08
492.405	0.08
492.604	0.03
492.802	0.05
493	0.08
493.199	0.06
493.397	0.05
493.595	0.05
493.794	0.05
493.992	0.12
494.19	0.08
494.388	0.07
494.587	0.05
494.785	0.06
494.983	0.02
495.181	0.02
495.379	0.08
495.578	0.05
495.776	0.08
495.974	0.07
496.172	0.04
496.37	0.04
496.568	0.02
496.766	0.03
496.964	0.09
497.162	0.07
497.36	0.04
497.558	0.1
497.756	0.08
497.954	0.07
498.152	0.05
498.35	0.05
498.548	0.04
498.746	0.05
498.944	0.05
499.142	0.05
499.34	0.02
499.538	0.05
499.736	0
499.933	0.09
500.131	0.09
500.329	0.05
500.527	0.08
500.725	0.09
500.922	0.07
501.12	0.04
501.318	0.04
501.516	0.05
501.713	0.07
501.911	0.06
502.109	0.03
502.306	0.07
502.504	0.03
502.701	0.04
502.899	0.02
503.097	0.08
503.294	0.06
503.492	0.05
503.689	0.04
503.887	0.08
504.084	0.1
504.282	0.04
504.479	0.02
504.677	0.05
504.874	0.03
505.072	0.05
505.269	0.05
505.466	0.08
505.664	0.05
505.861	0.03
506.059	0.03
506.256	0.07
506.453	0.03
506.651	0.1
506.848	0.08
507.045	0.05
507.242	0.05
507.44	0.04
507.637	0.04
507.834	0.04
508.031	0.07
508.229	0.01
508.426	0.04
508.623	0.05
508.82	0.02
509.017	0.02
509.214	0.04
509.411	0.06
509.608	0.02
509.805	0.05
510.003	0.04
510.2	0.02
510.397	0.07
510.594	0.01
510.791	0.02
510.988	0.04
511.184	0.06
511.381	0.05
511.578	0.02
511.775	0.07
511.972	0.02
512.169	0.05
512.366	0.03
512.563	0.06
512.76	0.02
512.956	0.07
513.153	0.04
513.35	0.04
513.547	0.01
513.744	0.01
513.94	0.01
514.137	0.04
514.334	0.05
514.53	0.04
514.727	0.05
514.924	0.1
515.12	0.02
515.317	-0
515.514	0.01
515.71	0.01
515.907	0.02
516.103	0.05
516.3	0.05
516.497	0.06
516.693	0.07
516.89	0.03
517.086	0.01
517.283	0.08
517.479	0.04
517.676	0.02
517.872	0.03
518.068	0.03
518.265	0.03
518.461	0.01
518.658	0
518.854	0.04
519.05	0.02
519.247	0
519.443	0.07
519.639	0.04
519.836	0.06
520.032	0.04
520.228	0.03
520.424	0.09
520.621	0.04
520.817	0.05
521.013	0.06
521.209	0.04
521.405	0.09
521.601	0.05
521.798	0.03
521.994	0.06
522.19	0.02
522.386	0.02
522.582	0.05
522.778	0.05
522.974	0.04
523.17	0.02
523.366	0.05
523.562	0.06
523.758	0.05
523.954	0.01
524.15	0.04
524.346	0.05
524.542	0.02
524.738	0.01
524.934	0.03
525.129	0.04
525.325	0.05
525.521	0.02
525.717	0.05
525.913	0.04
526.109	0.03
526.304	0.02
526.5	0.05
526.696	0.06
526.892	0.03
527.087	0.03
527.283	0.02
527.479	0.06
527.674	0
527.87	0.02
528.066	0.03
528.261	0.06
528.457	0.03
528.653	0.02
528.848	0.01
529.044	0.01
529.239	0.02
529.435	0.07
529.63	0.05
529.826	0.09
530.021	0.04
530.217	0.06
530.412	0.02
530.608	0.02
530.803	0.01
530.999	0.02
531.194	-0
531.389	0.02
531.585	-0.01
531.78	0.02
531.975	0.01
532.171	0.05
532.366	0.03
532.561	0.04
532.757	0.03
532.952	0
533.147	0.05
533.342	0.03
533.538	0.02
533.733	0.04
533.928	0.02
534.123	0.04
534.318	-0
534.513	0.04
534.709	0.04
534.904	0.02
535.099	0.01
535.294	0.05
535.489	0.02
535.684	0.04
535.879	0.01
536.074	0.02
536.269	0.01
536.464	0.04
536.659	0.03
536.854	0.03
537.049	0.05
537.244	0.03
537.439	0.03
537.634	0.09
537.828	0.03
538.023	0.02
538.218	-0.01
538.413	0.02
538.608	0
538.803	0.04
538.997	-0.02
539.192	0.06
539.387	0.04
539.582	0.03
539.776	0.04
539.971	-0
540.166	0.05
540.36	-0
540.555	0.03
540.75	0.03
540.944	0.04
541.139	-0.02
541.334	0.01
541.528	0.04
541.723	0.05
541.917	0.01
542.112	-0
542.306	0
542.501	0.03
542.695	0.04
542.89	0.03
543.084	0.02
543.279	0.02
543.473	0.02
543.668	0.03
543.862	0.03
544.056	0.06
544.251	0.01
544.445	0.04
544.64	0.02
544.834	0.01
545.028	0.02
545.222	0.03
545.417	0.05
545.611	0.03
545.805	0.02
546	0.01
546.194	0.01
546.388	-0
546.582	0.06
546.776	0.05
546.97	0.03
547.165	0.03
547.359	0.05
547.553	0.01
547.747	0.04
547.941	0.01
548.135	0.03
548.329	0.07
548.523	0.02
548.717	-0
548.911	0.01
549.105	0.03
549.299	0.03
549.493	0.02
549.687	0.01
549.881	0.05
550.075	0.03
550.269	-0.01
550.463	0.04
550.657	-0
550.85	0.02
551.044	0.01
551.238	0.02
551.432	0.02
551.626	0.02
551.82	0.04
552.013	0
552.207	0.03
552.401	0.06
552.594	0.02
552.788	0.03
552.982	0.01
553.176	0.04
553.369	0.04
553.563	0.03
553.756	-0.02
553.95	0
554.144	0.02
554.337	0.05
554.531	0.05
554.724	0.03
554.918	0.03
555.111	0.03
555.305	0.04
555.498	0.07
555.692	0.05
555.885	0.01
556.079	0.05
556.272	0.01
556.466	0.06
556.659	0.03
556.852	0.01
557.046	0.01
557.239	0.06
557.432	-0.02
557.626	0.01
557.819	0.01
558.012	0.06
558.206	0.03
558.399	-0
558.592	0.02
558.785	0.01
558.979	0.04
559.172	0.03
559.365	0.04
559.558	0.04
559.751	0.04
559.944	0.05
560.138	-0.01
560.331	0.01
560.524	-0.01
560.717	0.03
560.91	0.01
561.103	0.02
561.296	0.04
561.489	0.04
561.682	0
561.875	0.07
562.068	0.04
562.261	0.03
562.454	0.06
562.647	0.04
562.84	0.04
563.032	0.02
563.225	0.03
563.418	0
563.611	0.02
563.804	-0
563.997	-0.01
564.19	0
564.382	0.02
564.575	0.01
564.768	0.03
564.961	0
565.153	0.01
565.346	0.03
565.539	0.03
565.731	0.03
565.924	0.03
566.117	0.03
566.309	0.02
566.502	-0
566.695	0.02
566.887	0.03
567.08	-0.02
567.272	0.02
567.465	0
567.657	0.03
567.85	0.06
568.042	0.04
568.235	0.07
568.427	0.03
568.62	0.02
568.812	0.03
569.005	0.02
569.197	-0.01
569.389	0.03
569.582	0.03
569.774	0.05
569.966	-0.02
570.159	-0.03
570.351	0.02
570.543	-0.01
570.736	0.02
570.928	-0.01
571.12	0
571.312	-0.01
571.505	-0.02
571.697	0.06
571.889	-0
572.081	0.02
572.273	-0.01
572.465	0.05
572.658	0.01
572.85	0.03
573.042	0.01
573.234	0.02
573.426	0.06
573.618	-0.01
573.81	0.02
574.002	0.07
574.194	0.06
574.386	-0.04
574.578	-0.06
574.77	-0.01
574.962	0.02
575.154	-0
575.346	0.02
575.538	0.03
575.729	-0.01
575.921	0.01
576.113	0.01
576.305	0.05
576.497	0.01
576.689	-0
576.88	0
577.072	0.05
577.264	0.04
577.456	0
577.647	-0.05
577.839	0.02
578.031	0.08
578.223	-0.02
578.414	-0.01
578.606	0.05
578.798	0.04
578.989	-0.01
579.181	-0
579.372	0.01
579.564	-0.02
579.755	0.01
579.947	0.02
580.139	0.05
580.33	-0.04
580.522	-0.02
580.713	-0.05
580.905	0.02
581.096	0.02
581.287	0
581.479	0.02
581.67	0.04
581.862	0.02
582.053	-0.01
582.244	-0.02
582.436	0.01
582.627	0.02
582.818	-0
583.01	-0.02
583.201	0.02
583.392	0.03
583.583	0.02
583.775	0.01
583.966	0.01
584.157	0.01
584.348	-0.01
584.54	-0.01
584.731	0.03
584.922	0
585.113	-0.02
585.304	-0.01
585.495	0.03
585.686	0.02
585.877	0.03
586.068	0.03
586.259	0.05
586.45	0.02
586.641	-0.01
586.832	-0.03
587.023	0.02
587.214	0
587.405	0.01
587.596	-0.01
587.787	0.08
587.978	0.02
588.169	-0.01
588.36	0.02
588.551	0.02
588.742	0.02
588.932	0.02
589.123	0.01
589.314	0.03
589.505	0.03
589.696	0.03
589.886	-0.01
590.077	-0.01
590.268	0.04
590.458	-0.04
590.649	-0.02
590.84	0.05
591.03	-0.02
591.221	-0.04
591.412	-0.03
591.602	0.05
591.793	0.03
591.984	-0.03
592.174	0.01
592.365	0.09
592.555	-0.01
592.746	0.03
592.936	0.01
593.127	0.03
593.317	0.07
593.508	-0
593.698	0.01
593.889	0.04
594.079	0.02
594.269	-0.01
594.46	0.01
594.65	0.01
594.84	0.02
595.031	-0
595.221	0
595.411	-0.02
595.602	0.03
595.792	0
595.982	-0.02
596.172	0.06
596.363	0.03
596.553	0.03
596.743	-0.01
596.933	-0.01
597.123	0.05
597.314	-0.01
597.504	-0.03
597.694	0.05
597.884	0.04
598.074	0.01
598.264	-0.03
598.454	0.01
598.644	0.03
598.834	0.02
599.024	-0.02
599.214	0.01
599.404	0.05
599.594	0.02
599.784	-0.01
599.974	0.05
600.164	0.02
600.354	-0.02
600.544	-0.03
600.734	0
600.924	0.06
601.114	-0.01
601.303	-0
601.493	0.03
601.683	0.01
601.873	0.03
602.063	-0.04
602.252	0.06
602.442	-0.06
602.632	0.01
602.821	-0.04
603.011	0.03
603.201	0.01
603.39	-0.04
603.58	-0.03
603.77	0.03
603.959	0.02
604.149	-0.02
604.339	0.02
604.528	0.03
604.718	0.04
604.907	0
605.097	-0.02
605.286	-0.03
605.476	0.02
605.665	0.02
605.855	-0.01
606.044	0.05
606.234	0.04
606.423	0
606.612	-0.01
606.802	0.01
606.991	0.07
607.181	0.01
607.37	-0.05
607.559	0.02
607.749	-0.03
607.938	0.01
608.127	-0.01
608.316	-0.01
608.506	0.02
608.695	0
608.884	-0.03
609.073	0.01
609.263	0.04
609.452	0.04
609.641	-0
609.83	-0.03
610.019	0.01
610.208	-0.02
610.397	0.01
610.586	0.04
610.775	-0
610.965	-0.02
611.154	0
611.343	0.05
611.532	0.02
611.721	-0.03
611.91	-0.02
612.099	0.03
612.287	0
612.476	-0.01
612.665	0.01
612.854	0.01
613.043	0.04
613.232	0.01
613.421	-0.02
613.61	0.03
613.798	-0.02
613.987	0.04
614.176	-0.01
614.365	0.03
614.554	0.02
614.742	0.04
614.931	-0.01
615.12	0.06
615.309	-0.01
615.497	0.04
615.686	-0.01
615.875	-0
616.063	0.03
616.252	-0.01
616.44	0
616.629	0
616.818	0.08
617.006	-0.01
617.195	-0.03
617.383	0.02
617.572	0.03
617.76	-0.01
617.949	0.01
618.137	0.04
618.326	0.05
618.514	-0.01
618.703	-0.03
618.891	0.05
619.079	-0.05
619.268	0.03
619.456	-0
619.644	0.04
619.833	-0
620.021	-0
620.209	-0.05
620.398	0.02
620.586	0.02
620.774	0.02
620.962	0.02
621.151	0.07
621.339	0
621.527	-0.03
621.715	-0.03
621.903	-0.02
622.092	-0.02
622.28	0.02
622.468	-0.01
622.656	-0.01
622.844	0.03
623.032	0
623.22	-0.02
623.408	0.06
623.596	0.01
623.784	0.03
623.972	-0.03
624.16	-0
624.348	0.07
624.536	-0.03
624.724	-0
624.912	0.04
625.1	0.07
625.288	-0.02
625.476	-0.01
625.664	0.02
625.851	0.01
626.039	0.01
626.227	-0
626.415	0.01
626.603	-0.05
626.79	0.01
626.978	-0.02
627.166	0.05
627.354	0.01
627.541	-0.01
627.729	-0.05
627.917	0.03
628.104	0.02
628.292	0.02
628.48	0.01
628.667	0.03
628.855	0.05
629.042	0.04
629.23	-0.01
629.418	0.02
629.605	-0.02
629.793	-0.05
629.98	-0
630.168	0.02
630.355	0.04
630.543	0.02
630.73	-0
630.917	0.02
631.105	0.09
631.292	0
631.48	-0.01
631.667	0.11
631.854	0.02
632.042	-0.02
632.229	-0.05
632.416	0.03
632.604	0.03
632.791	-0.03
632.978	0.01
633.165	0.06
633.353	0.06
633.54	0.07
633.727	-0.05
633.914	-0
634.101	-0.07
634.289	0.04
634.476	-0.02
634.663	-0.02
634.85	0.03
635.037	-0.03
635.224	-0.04
635.411	0.05
635.598	0.07
635.785	0.01
635.972	0.01
636.159	0.08
636.346	-0.06
636.533	0
636.72	-0.01
636.907	-0.02
637.094	0.05
637.281	-0.02
637.468	0.01
637.655	-0
637.842	0.02
638.029	-0.01
638.215	0.07
638.402	0.02
638.589	0
638.776	-0.05
638.963	-0.01
639.149	0.07
639.336	0.09
639.523	-0
639.709	0.01
639.896	0.03
640.083	0.08
640.27	0.05
640.456	0.01
640.643	0.01
640.829	-0.04
641.016	-0
641.203	-0.05
641.389	0.03
641.576	0.01
641.762	0
641.949	-0.02
642.135	0
642.322	0.01
642.508	-0.05
642.695	0.04
642.881	-0
643.068	0.01
643.254	0.03
643.441	0.01
643.627	0.01
643.813	-0.03
644	0.06
644.186	-0.06
644.372	-0.01
644.559	0.03
644.745	0.01
644.931	-0.01
645.118	0.02
645.304	0
645.49	-0.01
645.676	-0.01
645.862	0.03
646.049	0.09
646.235	0.01
646.421	0.06
646.607	0.06
646.793	0.01
646.979	-0.02
647.165	0.01
647.352	-0.01
647.538	0.05
647.724	0.03
647.91	0.04
648.096	0.04
648.282	0.08
648.468	0.02
648.654	0.02
648.84	0
649.026	0.02
649.212	0
649.397	-0.02
649.583	-0.03
649.769	0.04
649.955	-0.02
650.141	0.06
650.327	0.08
650.513	-0.01
650.698	0
650.884	-0.07
651.07	-0.01
651.256	0.03
651.442	0.03
651.627	0
651.813	-0
651.999	0.02
652.184	0.04
652.37	-0.03
652.556	-0.01
652.741	0.07
652.927	-0.08
653.113	0.01
653.298	0.02
653.484	-0.01
653.669	-0.02
653.855	0.01
654.04	0.02
654.226	0
654.412	-0
654.597	-0
654.782	0.05
654.968	0.08
655.153	0.02
655.339	-0.02
655.524	-0.03
655.71	0.03
655.895	-0
656.08	0.01
656.266	0.05
656.451	0.01
656.636	-0.04
656.822	0.03
657.007	-0.02
657.192	-0.01
657.378	-0.08
657.563	0.05
657.748	0.02
657.933	0.06
658.118	-0.02
658.304	-0.03
658.489	0.04
658.674	0.05
658.859	-0.02
659.044	-0
659.229	0.03
659.414	0
659.599	0.01
659.785	-0.04
659.97	0.01
660.155	0.01
660.34	-0.03
660.525	-0.02
660.71	0
660.895	0.05
661.08	-0
661.264	-0.03
661.449	0.05
661.634	0.04
661.819	0.02
662.004	0.02
662.189	-0.07
662.374	-0.01
662.559	-0.06
662.743	-0.04
662.928	0.01
663.113	-0.04
663.298	-0.08
663.483	-0.02
663.667	0.02
663.852	-0.05
664.037	0.04
664.221	-0.04
664.406	0.01
664.591	0.05
664.775	-0
664.96	0.01
665.145	-0.01
665.329	0.05
665.514	-0.02
665.698	-0.02
665.883	-0.07
666.068	0.09
666.252	0.01
666.437	-0.04
666.621	-0.03
666.806	0.02
666.99	0.01
667.174	-0.03
667.359	0.07
667.543	-0.02
667.728	-0.03
667.912	-0.09
668.096	0.05
668.281	-0.02
668.465	-0.02
668.649	0.05
668.834	-0.06
669.018	0.03
669.202	-0.02
669.387	-0.04
669.571	0.07
669.755	-0.04
669.939	0.01
670.124	0.01
670.308	0.07
670.492	0.03
670.676	0.01
670.86	-0.02
671.044	-0.04
671.228	0.03
671.413	-0.01
671.597	-0.04
671.781	-0.03
671.965	0.04
672.149	-0.02
672.333	-0
672.517	-0.06
672.701	0.04
672.885	-0.06
673.069	-0.05
673.253	0.03
673.437	-0.04
673.621	-0.04
673.804	-0.01
673.988	0.01
674.172	0.04
674.356	-0.05
674.54	-0.01
674.724	0.12
674.908	0
675.091	0.01
675.275	-0.02
675.459	0
675.643	0.01
675.826	-0.01
676.01	0.01
676.194	0.06
676.377	0.07
676.561	0.06
676.745	0.01
676.928	0.05
677.112	0.08
677.296	-0.03
677.479	0.01
677.663	-0.03
677.846	0.02
678.03	0
678.213	0.01
678.397	0.04
678.58	-0.02
678.764	-0.03
678.947	-0.08
679.131	-0.02
679.314	0.02
679.498	0.01
679.681	0.04
679.865	0.09
680.048	0
680.231	0.02
680.415	-0.06
680.598	-0.03
680.781	-0.01
680.965	-0.03
681.148	0
681.331	-0.01
681.514	0.07
681.698	-0.05
681.881	0.01
682.064	-0.01
682.247	-0.01
682.43	-0.07
682.614	0.06
682.797	0.06
682.98	0.09
683.163	-0.06
683.346	0.06
683.529	-0.02
683.712	-0.07
683.895	0.04
684.078	-0.05
684.261	-0.03
684.444	0.04
684.627	0.04
684.81	-0.04
684.993	0.04
685.176	0
685.359	-0.1
685.542	-0.01
685.725	0.09
685.908	0
686.091	-0.04
686.274	0.04
686.457	0.06
686.639	0
686.822	0.02
687.005	0.05
687.188	0.03
687.371	0.09
687.553	0.02
687.736	0.02
687.919	0.1
688.102	0.03
688.284	-0
688.467	0.01
688.65	0.01
688.832	-0.02
689.015	-0.01
689.197	-0.05
689.38	0.1
689.563	0.09
689.745	-0.06
689.928	-0.07
690.11	-0
690.293	0.05
690.475	-0.03
690.658	0.01
690.84	-0.01
691.023	-0.03
691.205	-0.04
691.388	0.02
691.57	0.05
691.752	0.08
691.935	-0.05
692.117	-0.02
692.3	0.05
692.482	0.01
692.664	0.03
692.847	0.03
693.029	0.15
693.211	0.05
693.393	-0.04
693.576	-0.05
693.758	-0.02
693.94	-0
694.122	0
694.304	-0.02
694.487	-0.02
694.669	0.12
694.851	-0.05
695.033	0
695.215	0.01
695.397	-0.03
695.579	0.05
695.761	-0.05
695.943	-0.01
696.125	0.06
696.308	0.04
696.49	-0.09
696.671	0.14
696.853	0.03
697.035	0.14
697.217	-0.02
697.399	-0
697.581	-0.04
697.763	0.04
697.945	-0.04
698.127	-0
698.309	0.09
698.491	0.02
698.672	0.04
698.854	0.12
699.036	0.08
699.218	-0.03
699.399	0.03
699.581	0.03
699.763	0.09
699.945	-0.06
700.126	0
700.308	0.08
700.49	0.02
700.671	-0.08
700.853	-0.05
701.035	-0.04
701.216	0.01
701.398	-0.03
701.579	-0.03
701.761	0.09
701.943	-0.02
702.124	-0.01
702.306	-0.04
702.487	0.13
702.669	-0
702.85	-0.07
703.031	-0.05
703.213	0.14
703.394	0.06
703.576	-0.01
703.757	0.06
703.938	0.07
704.12	0.23
704.301	-0.01
704.483	-0.07
704.664	0.07
704.845	0.13
705.026	0.04
705.208	0.01
705.389	0.03
705.57	0.07
705.751	-0.03
705.933	0.05
706.114	0.13
706.295	0.03
706.476	-0.01
706.657	0.06
706.838	0.05
707.02	0.12
707.201	-0.07
707.382	0.01
707.563	0.1
707.744	-0.03
707.925	-0.02
708.106	-0.03
708.287	0.02
708.468	0.09
708.649	0.06
708.83	0.05
709.011	-0.06
709.192	0.08
709.373	-0.04
709.554	0.01
709.734	0.07
709.915	0.03
710.096	-0.01
710.277	-0.1
710.458	0.03
710.639	0.09
710.819	-0.05
711	-0.06
711.181	0.09
711.362	0.08
711.542	0.05
711.723	-0
711.904	0.04
712.085	0.06
712.265	0.02
712.446	-0.08
712.627	-0.06
712.807	0.01
712.988	0.07
713.168	-0.06
713.349	0.04
713.53	-0.08
713.71	-0.04
713.891	-0.03
714.071	0.1
714.252	0.02
714.432	-0.1
714.613	-0.1
714.793	-0.02
714.974	0.08
715.154	0.09
715.334	0.05
715.515	0.11
715.695	-0.09
715.876	0
716.056	-0.08
716.236	0.06
716.417	-0.05
716.597	-0.03
716.777	0.17
716.957	0.02
717.138	0.01
717.318	0.01
717.498	-0.08
717.678	-0.03
717.859	0.02
718.039	-0.05
718.219	-0.02
718.399	0.09
718.579	-0.07
718.759	0.01
718.939	0.02
719.12	-0.06
719.3	0.02
719.48	-0.14
719.66	-0.13
719.84	0.1
720.02	-0.01
720.2	-0.01
720.38	0.04
720.56	0.11
720.74	0.01
720.92	-0.01
721.1	0.03
721.279	0.06
721.459	-0.09
721.639	-0.1
721.819	0.02
721.999	-0.03
722.179	-0.04
722.359	-0.03
722.538	-0.04
722.718	0.07
722.898	-0.02
723.078	-0.05
723.257	-0.06
723.437	0.04
723.617	0.03
723.797	-0.05
723.976	0.11
724.156	-0.03
724.336	0.12
724.515	0.1
724.695	-0.08
724.874	-0.02
725.054	0.05
725.234	-0.11
725.413	0.03
725.593	0.02
725.772	0.01
725.952	-0.05
726.131	-0.02
726.311	-0.06
726.49	-0.04
726.67	-0.06
726.849	0.03
727.028	0.05
727.208	-0.02
727.387	0.1
727.567	-0.13
727.746	-0.04
727.925	0.02
728.105	-0.11
728.284	-0.03
728.463	-0.11
728.643	0.07
728.822	-0
729.001	-0.1
729.18	0.03
729.359	0.11
729.539	0
729.718	-0
729.897	0.1
730.076	-0
730.255	-0.12
730.434	-0.02
730.614	0.09
730.793	0.03
730.972	-0.03
731.151	-0.02
731.33	0.19
731.509	0.06
731.688	0.07
731.867	0.06
732.046	-0.11
732.225	0.24
732.404	-0.03
732.583	-0.08
732.762	0.03
732.941	0.03
733.12	0
733.298	-0
733.477	0.14
733.656	0.01
733.835	-0.1
734.014	0.15
734.193	0
734.371	0.09
734.55	0.04
734.729	-0.04
734.908	0
735.086	0.01
735.265	0.05
735.444	-0.1
735.623	-0.07
735.801	-0.06
735.98	-0.06
736.159	0.01
736.337	-0.01
736.516	-0.02
736.694	-0.03
736.873	-0.08
737.052	0.22
737.23	0.18
737.409	0.01
737.587	0.21
737.766	-0.16
737.944	-0.01
738.123	0.06
738.301	0.05
738.479	-0.1
738.658	0.11
738.836	-0.11
739.015	0.04
739.193	0.1
739.371	-0.05
739.55	0.01
739.728	-0.19
739.906	0.16
740.085	0.23
740.263	-0.04
740.441	-0.21
740.62	0.14
740.798	0.08
740.976	-0.04
741.154	-0.13
741.332	0.17
741.511	-0.02
741.689	0.02
741.867	0.05
742.045	0.02
742.223	-0.02
742.401	-0.11
742.579	-0.09
742.757	0.04
742.935	-0.13
743.114	-0.16
743.292	0.02
743.47	0.03
743.648	0.05
743.826	-0.13
744.004	0.1
744.181	0.13
744.359	0
744.537	0.06
744.715	-0.01
744.893	-0.01
745.071	0.04
745.249	0.02
745.427	-0.01
745.605	0.09
745.782	-0.01
745.96	0.02
746.138	0.03
746.316	0.17
746.493	-0.05
746.671	0
746.849	0.04
747.027	0.1
747.204	-0.09
747.382	0.08
747.56	-0.1
747.737	-0.05
747.915	-0.08
748.093	-0.05
748.27	0
748.448	0.03
748.625	-0.06
748.803	-0.1
748.98	-0.13
749.158	-0.04
749.335	0.09
749.513	-0.05
749.69	0.04
749.868	0.12
750.045	-0
750.223	-0.12
750.4	-0.18
750.578	0.25
750.755	-0.05
750.932	-0.09
751.11	0.05
751.287	-0.06
751.464	0.2
751.642	-0.13
751.819	0.03
751.996	-0.01
752.173	-0.05
752.351	-0.17
752.528	0.07
752.705	0.08
752.882	-0.1
753.06	0.03
753.237	0.11
753.414	0.32
753.591	0.18
753.768	0.09
753.945	-0.04
754.122	-0.1
754.299	0.1
754.476	-0.15
754.654	-0.01
754.831	-0.06
755.008	0.05
755.185	-0.04
755.362	-0.11
755.539	0.04
755.716	-0.02
755.892	0.11
756.069	-0.07
756.246	-0.07
756.423	-0.05
756.6	0.1
756.777	-0.06
756.954	0.2
757.131	0.05
757.307	-0.19
757.484	-0.06
757.661	-0.05
757.838	0.06
758.015	-0.11
758.191	0.09
758.368	0
758.545	0.15
758.721	0.03
758.898	-0.04
759.075	0.06
759.251	0.14
759.428	-0.04
759.605	-0.22
759.781	-0.05
759.958	0.03
760.134	0.05
760.311	-0.13
760.488	0.2
760.664	0.12
760.841	-0.05
761.017	-0.06
761.194	0.06
761.37	0.09
761.547	0.04
761.723	-0.02
761.899	0.21
762.076	-0.01
762.252	-0.11
762.429	-0.18
762.605	0.05
762.781	-0.04
762.958	0.13
763.134	-0.13
763.31	-0.08
763.486	0.16
763.663	-0.15
763.839	0.13
764.015	-0.19
764.191	-0.08
764.368	0.06
764.544	0.03
764.72	0.03
764.896	0.06
765.072	0.11
765.248	-0.05
765.425	-0.07
765.601	0.06
765.777	-0.04
765.953	-0.26
766.129	0.06
766.305	-0.07
766.481	0.1
766.657	-0.04
766.833	0.25
767.009	-0.17
767.185	0.05
767.361	-0.08
767.537	-0.12
767.713	0.12
767.889	-0.04
768.065	0.02
768.24	0.13
768.416	0.15
768.592	-0.01
768.768	0.09
768.944	0.11
769.12	-0.04
769.295	-0.04
769.471	-0.04
769.647	0.02
769.823	0.18
769.998	-0.07
770.174	-0.13
770.35	0.26
770.525	0.2
770.701	0.03
770.877	-0.09
771.052	-0.04
771.228	0.11
771.403	0.01
771.579	0.06
771.755	0.29
771.93	0.07
772.106	-0.19
772.281	-0.17
772.457	0.05
772.632	0.11
772.808	-0.03
772.983	-0.02
773.159	-0.16
773.334	0.11
773.509	0.04
773.685	-0.11
773.86	0.44
774.036	0.15
774.211	0.02
774.386	0.01
774.562	-0.03
774.737	0.28
774.912	0.05
775.087	0.15
775.263	-0.03
775.438	-0.03
775.613	-0.16
775.788	0
775.964	0.27
776.139	0.36
776.314	-0.09
776.489	-0.05
776.664	0.16
776.839	0.04
777.014	0.11
777.19	0.15
777.365	0.31
777.54	0.36
777.715	-0.05
777.89	0
778.065	-0.15
778.24	0.17
778.415	0.13
778.59	-0.14
778.765	-0.1
778.94	-0
779.115	-0.09
779.289	0.06
779.464	-0.06
779.639	-0.03
779.814	-0.2
779.989	-0.23
780.164	0.14
780.339	0.04
780.513	-0.08
780.688	-0.13
780.863	0.02
781.038	0.17
781.212	-0.15
781.387	0.11
781.562	0.3
781.737	-0.04
781.911	0.13
782.086	0.01
782.261	-0.09
782.435	0.3
782.61	-0.11
782.784	-0.08
782.959	0.52
783.134	-0.14
783.308	-0.26
783.483	0.11
783.657	0.26
783.832	0.24
784.006	-0.34
784.181	-0.03
784.355	0.26
784.53	-0.2
784.704	-0.11
784.878	0.35
785.053	0.16
785.227	0.43
785.402	0.42
785.576	-0.32
785.75	-0.02
785.925	-0.21
786.099	-0.06
786.273	0.02
786.448	0.31
786.622	0.04
786.796	-0.01
786.97	-0.21
787.145	0.46
787.319	-0.22
787.493	0.11
787.667	-0.52
787.841	0.19
788.015	0.27
788.19	-0.26
788.364	0.16
788.538	0.29
788.712	0.05
788.886	-0.12
789.06	0.03
789.234	0.18
789.408	-0.13
789.582	0.08
789.756	0.11
789.93	-0.26
790.104	-0.01
790.278	-0.05
790.452	-0.16
790.626	0.22
790.8	-0.06
790.973	0.1
791.147	0.12
791.321	0.31
791.495	0.13
791.669	-0.03
791.843	0.22
792.016	0.02
792.19	0.48
792.364	-0.03
792.538	0.53
792.711	0.26
792.885	-0.11
793.059	-0.29
793.233	-0.46
793.406	0.22
793.58	0.04
793.754	0.2
793.927	-0.1
794.101	0.21
794.274	0.02
794.448	0.2
794.622	-0.37
794.795	0.37
794.969	-0.17
795.142	0.49
795.316	0.01
795.489	-0.28
795.663	0.33
795.836	0.05
796.009	-0.2
796.183	0.35
796.356	0.13
796.53	0.09
796.703	-0.12
796.876	0.5
797.05	-0.07
797.223	0.11
797.396	-0.01
797.57	0.2
797.743	0.47
797.916	-0.01
798.09	-0.04
798.263	0.36
798.436	0.06
798.609	-0.17
798.782	-0.04
798.956	-0.04
799.129	0.18
799.302	-0.1
799.475	0.03
799.648	-0.11
799.821	-0.29
799.994	0.15
800.167	-0.15
800.34	0.04
800.514	0.17
800.687	-0.17
800.86	-0.14
801.033	0.03
801.206	0.1
801.379	-0.19
801.551	0.26
801.724	0.15
801.897	0.41
802.07	-0.11
802.243	-0.5
802.416	-0.05
802.589	-0.22
802.762	-0.18
802.935	0.33
803.107	0.06
803.28	0.08
803.453	0.18
803.626	-0.32
803.798	0.04
803.971	-0.36
804.144	0.21
804.317	0.3
804.489	0.2
804.662	0.03
804.835	0.13
805.007	0.07
805.18	0.61
805.353	0.21
805.525	-0.03
805.698	-0.47
805.87	0.44
806.043	0.38
806.215	-0.2
806.388	-0.27
806.56	0.2
806.733	0.43
806.905	0.35
807.078	-0.18
807.25	-0.13
807.423	0.25
807.595	0.08
807.768	0.27
807.94	0.28
808.112	0.1
808.285	0.05
808.457	-0.09
808.629	0
808.802	0.35
808.974	0.14
809.146	-0.1
809.318	-0.12
809.491	-0.15
809.663	0.28
809.835	0.01
810.007	0.39
810.18	0.02
810.352	-0.38
810.524	0.05
810.696	0.04
810.868	0.74
811.04	-0.11
811.212	-0.36
811.384	0.38
811.556	0.23
811.728	-0.12
811.901	0.76
812.073	-0.16
812.245	0.28
812.417	-0.12
812.589	-0.46
812.76	0.33
812.932	0.32
813.104	0.19
813.276	-0.11
813.448	0.43
813.62	0.17
813.792	-0.09
813.964	-0.17
814.136	0.51
814.307	-0.2
814.479	-0.19
814.651	-0.25
814.823	0.66
814.995	-0.02
815.166	0.16
815.338	-0.18
815.51	-0.18
815.681	1.08
815.853	-0.16
816.025	0.1
816.196	0.68
816.368	0.5
816.54	-0.36
816.711	-0.09
816.883	0.37
817.054	1.03
817.226	-0.76
817.398	0.35
817.569	-0.47
817.741	0.12
817.912	-0.02
818.084	0.07
818.255	0.49
818.426	-0.09
818.598	-0.61
818.769	-0.51
818.941	0.7
819.112	0.25
819.283	0.19
819.455	0.02
819.626	0.11
819.798	0.23
819.969	0.15
820.14	-0.34
820.311	-0.27
820.483	-0.31
820.654	0.16
820.825	0.29
820.996	-0.4
821.168	-0.68
821.339	0.09
821.51	-0.75
821.681	-0.18
821.852	-0.18
822.023	-0.46
822.195	-0.11
822.366	0.09
822.537	0.29
822.708	-0.38
822.879	-0.18
823.05	0.35
823.221	0.42
823.392	0.37
823.563	0.05
823.734	0.07
823.905	0.06
824.076	0.18
824.247	-0.39
824.418	-0.27
824.589	0.56
824.759	0.38
824.93	-0.67
825.101	-0.91
825.272	0.42
825.443	0.31
825.614	0.35
825.784	-0.68
825.955	0.96
826.126	0.74
826.297	0.62
826.467	0.39
826.638	0.84
826.809	-0.69
826.98	-0.34
827.15	0.08
827.321	0.33
827.492	0.28
827.662	-0.12
827.833	0.75
828.003	1.06
828.174	-0.16
828.345	-0.61
828.515	0.86
828.686	0.57
828.856	-0.18
829.027	-0.31
829.197	0.04
829.368	0.17
829.538	-0.61
829.709	-0.2
829.879	0.39
830.049	-0.07
830.22	-0.08
830.39	0.12
830.56	0.78
830.731	-0.69
830.901	-0.39
831.072	0.13
831.242	0.39
831.412	-0.34
831.582	0.4
831.753	-0.88
831.923	0.16
832.093	0.09
832.263	-0.23
832.434	-0.41
832.604	-0.94
832.774	0.49
832.944	-0.29
833.114	-0.23
833.284	0.02
833.454	-0.59
833.624	-0.33
833.795	-0.46
833.965	0.95
834.135	0.57
834.305	-0.54
834.475	-0.48
834.645	0.38
834.815	-0.21
834.985	-0.33
835.155	-1.03
835.325	0.93
835.494	0.58
835.664	0.04
835.834	-0.49
836.004	0.37
836.174	0.63
836.344	0.15
836.514	-0.76
836.684	-0.25
836.853	0.61
837.023	-0.03
837.193	-0.54
837.363	0.86
837.532	0.58
837.702	-0.28
837.872	-0.45
838.041	0.63
838.211	1.65
838.381	-0.42
838.55	0.08
838.72	2.03
838.89	1.56
839.059	-0.27
839.229	-0.91
839.398	1.68
839.568	0.85
839.738	-0.11
839.907	0.6
840.077	-0.06
840.246	-0.65
840.416	-0.59
840.585	-0.5
840.755	1.51
840.924	0.5
841.093	-0.38
841.263	0
841.432	0.17
841.602	-0.51
841.771	-0.33
841.94	0.59
842.11	1.76
842.279	1.13
842.448	-0.74
842.617	-0.51
842.787	1.3
842.956	-1.01
843.125	0.44
843.294	0.02
843.464	0.86
843.633	0.04
843.802	-0.74
843.971	-0.29
844.14	1.32
844.309	1.98
844.479	0.01
844.648	-1.47
844.817	-0.2
844.986	0.19
845.155	-0.43
845.324	-0.66
845.493	-0.1
845.662	-1.18
845.831	0.47
846	0.55
846.169	0.13
846.338	1.2
846.507	1.44
846.676	0.35
846.844	-0.4
847.013	0.5
847.182	-0.61
847.351	-0.1
847.52	0.07
847.689	-0.31
847.858	-0.17
848.026	-0.81
848.195	-0.5
848.364	0.1
848.533	-1.16
848.701	-1.18
848.87	-0.19
849.039	2.37
849.207	0.71
849.376	1.34
849.545	1.84
849.713	-0.42
849.882	0.29
850.051	0.16
850.219	0.36
850.388	1.11
850.556	-1.52
850.725	-0.41
850.893	0.79
851.062	0.07
851.23	0.79
851.399	-1.87
851.567	-0.63
851.736	-0.61
851.904	-0.22
852.073	-0.52
852.241	0.78
852.41	-0.45
852.578	-0.45
852.746	-0.39
852.915	0.8
853.083	-0.19
853.251	-0.66
853.42	-0.32
853.588	-0.05
853.756	1.02
853.924	-0.34
854.093	0.56
854.261	0.49
854.429	-1.96
854.597	1.04
854.765	-0.43
854.934	0.74
855.102	1.14
855.27	0.13
855.438	0.76
855.606	0.68
855.774	1
855.942	-1.66
856.11	-2.32
856.278	-0.09
856.446	1.26
856.614	-0.45
856.782	-0.5
856.95	1.38
857.118	0.63
857.286	0.08
857.454	-0.08
857.622	1.21
857.79	0.67
857.958	-0.95
858.126	-0.71
858.294	-2.02
858.462	0.2
858.629	-0.77
858.797	-0.54
858.965	0.7
859.133	0.39
859.301	-0.8
859.468	0.46
859.636	-0.07
859.804	2.12
859.971	0.31
860.139	-2.14
860.307	1.14
860.474	0.08
860.642	-0.99
860.81	-1.12
860.977	0.04
861.145	1.13
861.313	0.43
861.48	-0.46
861.648	2.18
861.815	-0.39
861.983	-0.75
862.15	-0.48
862.318	1.56
862.485	1.65
862.653	-0.91
862.82	-1.33
862.988	1.73
863.155	0.31
863.322	-1.29
863.49	-0.84
863.657	-0.9
863.824	2.02
863.992	1.2
864.159	0.31
864.326	1.72
864.494	0.21
864.661	3.07
864.828	-1.68
864.996	1.85
865.163	0.86
865.33	-0.56
865.497	-2.97
865.664	-0.5
865.832	-2.44
865.999	0.19
866.166	-0.78
866.333	-1.08
866.5	-2.32
866.667	0.69
866.834	-1.43
867.001	2.54
867.168	-1.98
867.335	-0.38
867.502	-2.19
867.669	1.28
867.836	1.47
868.003	0.33
868.17	1.18
868.337	0.44
868.504	3.13
868.671	-2.03
868.838	-1.28
869.005	0.5
869.172	0.89
869.339	1.3
869.505	-1.13
869.672	-0.38
869.839	3.35
870.006	-1.05
870.173	-1.9
870.339	0.82
870.506	2.12
870.673	-0.25
870.84	1.27
871.006	0.78
871.173	-0.33
871.34	2.21
871.506	-1.44
871.673	0.99
871.839	-1.34
872.006	0.64
872.173	-0.7
872.339	-0.46
872.506	2.32
872.672	-1.67
872.839	-1.76
873.005	0.7
873.172	3.39
873.338	2.67
873.505	0.36
873.671	0.71
873.838	2.14
874.004	-1.76
874.171	-2.52
874.337	-0.2
874.503	-0.12
874.67	0.56
874.836	-0.2
875.002	1.3
875.169	2.37
875.335	-0.33
875.501	-0.54
875.668	1.8
875.834	0.94
876	-0.4
876.166	0.79
876.332	1.1
876.499	3.31
876.665	0.02
876.831	-0.67
876.997	2.37
877.163	0.11
877.329	-1.09
877.495	-1.22
877.662	1.47
877.828	-0.12
877.994	0.32
878.16	-1.73
878.326	-0.83
878.492	1.06
878.658	0.13
878.824	-0.09
878.99	1.72
879.156	-1.13
879.322	1.89
879.487	-0.87
879.653	1.59
879.819	0.84
879.985	-1.61
880.151	0.51
880.317	0.9
880.483	1.63
880.648	1.37
880.814	-1.67
880.98	0.68
881.146	-3.09
881.312	-1.1
881.477	-2.17
881.643	1
881.809	2.09
881.974	3.22
882.14	-2.49
882.306	-0.56
882.471	3.87
882.637	-1.65
882.803	2.42
882.968	4.47
883.134	3.86
883.299	-0.2
883.465	0.43
883.63	1.22
883.796	1.55
883.961	0.61
884.127	0.36
884.292	-2.5
884.458	-1.56
884.623	-1.56
