Data from Apollo_Calib_20240827__AbsoluteIrradiance__362__05-11-01-537.txt Node

Date: Wed Aug 28 05:11:01 BST 2024
User: biology
Spectrometer: FLMT08252
Trigger mode: 0
Integration Time (sec): 5.000000E-1
Scans to average: 5
Electric dark correction enabled: true
Nonlinearity correction enabled: false
Boxcar width: 0
XAxis mode: Wavelengths
Number of Pixels in Spectrum: 3648
>>>>>Begin Spectral Data<<<<<
179.588	-0
179.809	-0
180.03	-0
180.251	-0
180.473	-0
180.694	0
180.915	0
181.136	-0
181.357	0
181.578	-0
181.799	0
182.02	-0
182.241	0
182.462	-0
182.683	0
182.904	-0
183.125	-0
183.346	0
183.567	0
183.788	0
184.009	-0
184.23	0
184.451	0
184.672	-0
184.892	-0
185.113	0
185.334	0
185.555	-0
185.776	0
185.996	0
186.217	0
186.438	0
186.659	-0
186.879	0
187.1	0
187.321	0
187.541	-0
187.762	0
187.983	0
188.203	0
188.424	0
188.644	0
188.865	0
189.086	-0
189.306	0
189.527	0
189.747	0
189.968	-0
190.188	0
190.409	0
190.629	0
190.849	0
191.07	0
191.29	0
191.511	0
191.731	-0
191.951	-0
192.172	0
192.392	-0
192.612	0
192.833	0
193.053	0
193.273	0
193.493	0
193.714	0
193.934	0
194.154	0
194.374	0
194.594	0
194.815	0
195.035	0
195.255	0
195.475	-0
195.695	0
195.915	0
196.135	-0
196.355	0
196.575	0
196.795	0
197.015	-0
197.235	-0
197.455	0
197.675	0
197.895	0
198.115	-0
198.335	0
198.555	0
198.775	0
198.995	0
199.214	0
199.434	0
199.654	-0
199.874	0
200.094	1.51
200.313	-0.16
200.533	0.14
200.753	-0.37
200.973	1.31
201.192	0.95
201.412	-0.36
201.632	0.18
201.851	1.33
202.071	-0.27
202.291	0.2
202.51	0.02
202.73	1.19
202.95	0.5
203.169	-0.19
203.389	0.27
203.608	0.48
203.828	0.35
204.047	0.33
204.267	0.68
204.486	0.6
204.706	0.55
204.925	0.53
205.145	0.12
205.364	0.59
205.583	0.87
205.803	0.2
206.022	-0.17
206.242	0.46
206.461	0.02
206.68	0.02
206.9	0.43
207.119	0.81
207.338	1.45
207.557	-0.03
207.777	0.09
207.996	0.42
208.215	0.82
208.434	-0.12
208.654	-0.13
208.873	0.21
209.092	0.68
209.311	0.21
209.53	0.22
209.749	0.05
209.968	0.19
210.187	0.08
210.407	-0.24
210.626	0.02
210.845	0.44
211.064	0.27
211.283	-0.13
211.502	0.42
211.721	0.2
211.94	0.28
212.159	0.51
212.377	0.47
212.596	0.7
212.815	0.16
213.034	0.15
213.253	0.42
213.472	0.39
213.691	0.26
213.91	0.02
214.128	0.11
214.347	0.67
214.566	-0.05
214.785	-0.26
215.003	0.41
215.222	0.44
215.441	0.21
215.66	-0.05
215.878	0.31
216.097	0.28
216.316	-0
216.534	0.02
216.753	0.29
216.972	0.13
217.19	0.13
217.409	0.17
217.627	0.06
217.846	0.11
218.064	0.15
218.283	0.04
218.501	0.58
218.72	0.51
218.938	-0.02
219.157	0.06
219.375	0.37
219.594	0.35
219.812	-0.06
220.031	-0.06
220.249	0.49
220.467	0.56
220.686	0.11
220.904	0.06
221.122	0.01
221.341	0.63
221.559	0.32
221.777	0.01
221.995	0.2
222.214	0.3
222.432	-0.09
222.65	0.3
222.868	0.13
223.086	0.26
223.305	0.3
223.523	0.16
223.741	0.55
223.959	0.12
224.177	-0.22
224.395	0
224.613	0.25
224.831	0.31
225.049	0.05
225.267	-0.04
225.485	0.4
225.703	0.16
225.921	0.19
226.139	0.16
226.357	0.33
226.575	0.2
226.793	-0.06
227.011	0.79
227.229	0.2
227.447	0.31
227.665	-0.08
227.883	-0
228.1	0.15
228.318	0.22
228.536	-0.11
228.754	0.01
228.972	0.23
229.189	0.24
229.407	0.08
229.625	0.12
229.843	0.3
230.06	0.19
230.278	0.08
230.496	0.12
230.713	0.31
230.931	0.39
231.149	0.09
231.366	0.01
231.584	0.13
231.801	0.46
232.019	0.13
232.236	-0.08
232.454	0.01
232.671	0.28
232.889	0.06
233.106	0.11
233.324	0.12
233.541	0.16
233.759	0.14
233.976	-0.03
234.194	0.12
234.411	0.2
234.628	-0.05
234.846	0.16
235.063	0.08
235.28	0.15
235.498	0.11
235.715	-0.04
235.932	0.35
236.149	0.17
236.367	-0.01
236.584	0.1
236.801	0.12
237.018	0.25
237.236	0.12
237.453	-0
237.67	0.29
237.887	0.12
238.104	0
238.321	-0.07
238.538	0.06
238.755	0.23
238.973	-0.11
239.19	0.11
239.407	0.22
239.624	0.14
239.841	0.02
240.058	0
240.275	0.22
240.492	0.1
240.709	0.09
240.925	0.06
241.142	0.1
241.359	0.04
241.576	-0.05
241.793	0.13
242.01	0.15
242.227	0.23
242.444	0.13
242.66	0.17
242.877	0.16
243.094	0.06
243.311	0.07
243.527	0.09
243.744	0.12
243.961	0.2
244.178	0.04
244.394	0.14
244.611	0.26
244.828	0.24
245.044	0.03
245.261	0.09
245.477	0.12
245.694	0.23
245.911	0.12
246.127	0.11
246.344	0.3
246.56	0.23
246.777	0.08
246.993	0.05
247.21	0.13
247.426	0.22
247.643	0.08
247.859	0.04
248.076	0.1
248.292	0.27
248.508	0.08
248.725	0.15
248.941	0.2
249.157	0.18
249.374	0.11
249.59	0.07
249.806	0.1
250.023	0.26
250.239	0.04
250.455	0.07
250.671	0.11
250.888	0.14
251.104	0.17
251.32	0.04
251.536	0.12
251.752	0.09
251.969	0.12
252.185	0.06
252.401	0.36
252.617	0.18
252.833	0.05
253.049	0.12
253.265	0.09
253.481	0.16
253.697	-0.01
253.913	-0.02
254.129	0.13
254.345	0.09
254.561	0.09
254.777	0.08
254.993	0.15
255.209	0.14
255.425	0.07
255.641	0.12
255.857	0.24
256.073	0.16
256.288	0.03
256.504	0.02
256.72	0.13
256.936	0.23
257.152	0.09
257.367	0.03
257.583	0.09
257.799	0.23
258.015	0.03
258.23	0.11
258.446	0.21
258.662	0.13
258.877	-0.01
259.093	-0.01
259.309	0.1
259.524	0.16
259.74	0.04
259.955	0.02
260.171	0.13
260.387	0.11
260.602	0.18
260.818	0.11
261.033	0.06
261.249	0.04
261.464	0.12
261.68	0.03
261.895	0.12
262.11	0.17
262.326	0.09
262.541	0.01
262.757	0.15
262.972	0.18
263.187	0.13
263.403	0.12
263.618	0.19
263.833	0.11
264.049	0.04
264.264	0.05
264.479	0.15
264.694	0.18
264.91	0.01
265.125	0.05
265.34	0.21
265.555	0.25
265.77	0.13
265.986	0.06
266.201	0.13
266.416	0.21
266.631	0.05
266.846	0.13
267.061	0.15
267.276	0.2
267.491	-0.06
267.706	0.17
267.921	0.14
268.136	0.1
268.351	0.14
268.566	0.04
268.781	0.22
268.996	0.1
269.211	0.09
269.426	0.02
269.641	0.08
269.856	0.17
270.071	0.02
270.285	0.01
270.5	0.14
270.715	0.15
270.93	0.09
271.145	0.14
271.359	0.26
271.574	0.05
271.789	0.07
272.004	0.08
272.218	0.11
272.433	0.2
272.648	0.09
272.862	0.15
273.077	0.1
273.292	0.15
273.506	0.05
273.721	0.13
273.936	0.11
274.15	0.16
274.365	0.05
274.579	0.15
274.794	0.17
275.008	0.25
275.223	0.07
275.437	0.07
275.652	0.2
275.866	0.08
276.081	0.13
276.295	0.18
276.509	0.11
276.724	0.13
276.938	0.1
277.153	0.13
277.367	0.16
277.581	0.04
277.796	0.07
278.01	0.07
278.224	0.18
278.438	0.24
278.653	0.02
278.867	0.04
279.081	-0.06
279.295	0.02
279.51	0.13
279.724	0.03
279.938	0.14
280.152	0.08
280.366	0.05
280.58	0.12
280.794	0.2
281.008	0.14
281.222	0.14
281.437	0.2
281.651	0.14
281.865	0.2
282.079	0.08
282.293	-0.03
282.507	0.04
282.721	0.12
282.935	0.1
283.148	0.02
283.362	0.09
283.576	0.04
283.79	0.09
284.004	0.04
284.218	0.17
284.432	0.05
284.646	0.15
284.859	0.09
285.073	0.12
285.287	0.11
285.501	0.14
285.714	0.05
285.928	0.1
286.142	0.05
286.356	0.07
286.569	0.09
286.783	0.18
286.997	0.15
287.21	0.12
287.424	0.18
287.637	0.05
287.851	0.09
288.065	0.11
288.278	0.08
288.492	0.1
288.705	0.13
288.919	0.13
289.132	0.04
289.346	0.17
289.559	0.03
289.773	0.06
289.986	0.1
290.2	0.12
290.413	0.17
290.626	0.03
290.84	0.04
291.053	0.09
291.267	0.23
291.48	0.14
291.693	0.08
291.906	0.06
292.12	0.09
292.333	0.06
292.546	0.05
292.76	0.19
292.973	0.08
293.186	0.14
293.399	0.07
293.612	0.18
293.826	0.09
294.039	0.1
294.252	0.09
294.465	0.16
294.678	0.12
294.891	0.11
295.104	0.04
295.317	0.12
295.53	0.12
295.743	0.1
295.956	0.08
296.169	0.17
296.382	0.23
296.595	0.09
296.808	0.06
297.021	0.16
297.234	0.18
297.447	0.04
297.66	0.11
297.873	0.18
298.086	0.14
298.299	0.04
298.511	0.09
298.724	0.09
298.937	0.08
299.15	0.07
299.363	0.08
299.575	0.14
299.788	0.16
300.001	0.08
300.213	0.08
300.426	0.06
300.639	0.05
300.852	0.05
301.064	0.14
301.277	0.18
301.489	0.15
301.702	0.14
301.915	0.08
302.127	0.11
302.34	0.13
302.552	0.09
302.765	0.02
302.977	0.15
303.19	0.08
303.402	0.09
303.615	0.1
303.827	0.09
304.04	0.13
304.252	0.16
304.464	0.09
304.677	0.24
304.889	0.15
305.102	0.09
305.314	0.11
305.526	0.12
305.739	0.13
305.951	0.09
306.163	0.11
306.375	0.19
306.588	0.12
306.8	0.09
307.012	0.06
307.224	0.14
307.436	0.18
307.649	0.04
307.861	0.12
308.073	0.11
308.285	0.12
308.497	0.1
308.709	0.05
308.921	0.15
309.133	0.15
309.346	0.11
309.558	0.11
309.77	0.13
309.982	0.15
310.194	0.16
310.406	0.04
310.617	0.19
310.829	0.15
311.041	0.16
311.253	0.09
311.465	0.13
311.677	0.14
311.889	0.08
312.101	0.06
312.313	0.14
312.524	0.18
312.736	0.08
312.948	0.07
313.16	0.18
313.372	0.11
313.583	0.13
313.795	0.12
314.007	0.06
314.218	0.18
314.43	0.1
314.642	0.08
314.853	0.05
315.065	0.14
315.277	0.08
315.488	0.12
315.7	0.13
315.912	0.11
316.123	0.1
316.335	0.06
316.546	0.18
316.758	0.09
316.969	0.05
317.181	0.11
317.392	0.07
317.604	0.14
317.815	0.04
318.026	0.09
318.238	0.09
318.449	0.15
318.661	0.03
318.872	0.11
319.083	0.04
319.295	0.14
319.506	0.07
319.717	0.13
319.929	0.16
320.14	0.14
320.351	0.13
320.562	0.07
320.774	0.11
320.985	0.11
321.196	0.05
321.407	0.04
321.618	0.15
321.829	0.13
322.041	0.12
322.252	0.11
322.463	0.14
322.674	0.14
322.885	0.08
323.096	0.08
323.307	0.09
323.518	0.13
323.729	0.06
323.94	0.09
324.151	0.1
324.362	0.12
324.573	0.11
324.784	0.07
324.995	0.14
325.206	0.12
325.417	0.08
325.628	0.06
325.838	0.12
326.049	0.09
326.26	0.13
326.471	0.08
326.682	0.1
326.892	0.13
327.103	0.09
327.314	0.05
327.525	0.15
327.735	0.12
327.946	0.1
328.157	0.07
328.368	0.14
328.578	0.08
328.789	0.12
328.999	0.11
329.21	0.08
329.421	0.17
329.631	0.06
329.842	0.08
330.052	0.16
330.263	0.11
330.473	0.14
330.684	0.1
330.894	0.08
331.105	0.15
331.315	0.11
331.526	0.04
331.736	0.16
331.947	0.15
332.157	0.14
332.367	0.05
332.578	0.14
332.788	0.18
332.999	0.16
333.209	0.09
333.419	0.02
333.629	0.12
333.84	0.13
334.05	0.13
334.26	0.21
334.47	0.07
334.681	0.15
334.891	0.08
335.101	0.12
335.311	0.17
335.521	0.11
335.732	0.09
335.942	0.16
336.152	0.13
336.362	0.12
336.572	0.08
336.782	0.11
336.992	0.11
337.202	0.1
337.412	0.05
337.622	0.13
337.832	0.1
338.042	0.08
338.252	0.07
338.462	0.14
338.672	0.12
338.882	0.06
339.092	0.03
339.302	0.19
339.511	0.17
339.721	0.06
339.931	0.05
340.141	0.13
340.351	0.14
340.561	0.16
340.77	0.08
340.98	0.11
341.19	0.15
341.4	0.08
341.609	0.03
341.819	0.06
342.029	0.02
342.238	0.14
342.448	0.08
342.658	0.14
342.867	0.11
343.077	0.1
343.286	0.13
343.496	0.14
343.706	0.15
343.915	0.09
344.125	0.11
344.334	0.14
344.544	0.06
344.753	0.1
344.963	0.07
345.172	0.11
345.381	0.08
345.591	0.06
345.8	0.1
346.01	0.19
346.219	0.14
346.428	-0.04
346.638	0.09
346.847	0.1
347.056	0.2
347.266	0.05
347.475	0.09
347.684	0.15
347.893	0.12
348.103	0.13
348.312	0.1
348.521	0.08
348.73	0.11
348.94	0.1
349.149	0.08
349.358	0.09
349.567	0.05
349.776	0.03
349.985	0.07
350.194	0.12
350.403	0.12
350.612	0.09
350.821	0.07
351.03	0.08
351.239	0.04
351.448	0.11
351.657	0.1
351.866	0.21
352.075	0.12
352.284	0.12
352.493	0.08
352.702	0.16
352.911	0.15
353.12	0.09
353.329	0.08
353.538	0.11
353.746	0.1
353.955	0.08
354.164	0.13
354.373	0.07
354.582	0.17
354.79	0.09
354.999	0.14
355.208	0.1
355.416	0.17
355.625	0.1
355.834	0.12
356.042	0.12
356.251	0.08
356.46	0.07
356.668	0.14
356.877	0.18
357.085	0.13
357.294	0.02
357.503	0.11
357.711	0.1
357.92	0.26
358.128	0.13
358.337	0.06
358.545	0.09
358.754	0.1
358.962	0.14
359.17	0.1
359.379	0.11
359.587	0.11
359.796	0.14
360.004	0.15
360.212	0.15
360.421	0.18
360.629	0.08
360.837	0.1
361.046	0.15
361.254	0.19
361.462	0.13
361.67	0.07
361.879	0.14
362.087	0.12
362.295	0.15
362.503	0.1
362.711	0.07
362.92	0.07
363.128	0.04
363.336	0.03
363.544	0.07
363.752	0.08
363.96	0.07
364.168	0.05
364.376	0.14
364.584	0.09
364.792	0.13
365	0.16
365.208	0.1
365.416	0.14
365.624	0.16
365.832	0.06
366.04	0.19
366.248	0.13
366.456	0.13
366.664	0.11
366.872	0.13
367.079	0.09
367.287	0.14
367.495	0.1
367.703	0.09
367.911	0.11
368.118	0.1
368.326	0.09
368.534	0.07
368.742	0.19
368.949	0.06
369.157	0.07
369.365	0.13
369.572	0.06
369.78	0.03
369.988	0.15
370.195	0.15
370.403	0.13
370.61	0.08
370.818	0.11
371.026	0.21
371.233	0.09
371.441	0.12
371.648	0.06
371.856	0.14
372.063	0.1
372.271	0.14
372.478	0.09
372.685	0.12
372.893	0.14
373.1	0.09
373.308	0.09
373.515	0.19
373.722	0.11
373.93	0.12
374.137	0.15
374.344	0.16
374.552	0.14
374.759	0.15
374.966	0.1
375.173	0.13
375.381	0.17
375.588	0.1
375.795	0.07
376.002	0.07
376.209	0.06
376.417	0.14
376.624	0.1
376.831	0.15
377.038	0.14
377.245	0.05
377.452	0.12
377.659	0.13
377.866	0.08
378.073	0.11
378.28	0.11
378.487	0.15
378.694	0.15
378.901	0.13
379.108	0.12
379.315	0.13
379.522	0.19
379.729	0.11
379.936	0.14
380.143	0.14
380.35	0.13
380.557	0.1
380.763	0.11
380.97	0.07
381.177	0.12
381.384	0.16
381.591	0.16
381.797	0.1
382.004	0.17
382.211	0.15
382.418	0.13
382.624	0.18
382.831	0.14
383.038	0.13
383.244	0.13
383.451	0.1
383.658	0.11
383.864	0.11
384.071	0.06
384.277	0.16
384.484	0.05
384.69	0.14
384.897	0.16
385.103	0.14
385.31	0.11
385.516	0.13
385.723	0.15
385.929	0.1
386.136	0.1
386.342	0.15
386.549	0.13
386.755	0.15
386.961	0.15
387.168	0.13
387.374	0.13
387.58	0.15
387.787	0.15
387.993	0.13
388.199	0.1
388.406	0.12
388.612	0.1
388.818	0.1
389.024	0.12
389.231	0.14
389.437	0.22
389.643	0.16
389.849	0.13
390.055	0.16
390.261	0.14
390.467	0.14
390.674	0.08
390.88	0.15
391.086	0.15
391.292	0.12
391.498	0.15
391.704	0.15
391.91	0.13
392.116	0.1
392.322	0.06
392.528	0.18
392.734	0.14
392.94	0.14
393.146	0.13
393.352	0.13
393.557	0.15
393.763	0.13
393.969	0.17
394.175	0.14
394.381	0.14
394.587	0.09
394.792	0.18
394.998	0.24
395.204	0.2
395.41	0.13
395.615	0.18
395.821	0.16
396.027	0.2
396.233	0.15
396.438	0.16
396.644	0.21
396.85	0.18
397.055	0.15
397.261	0.17
397.466	0.15
397.672	0.18
397.878	0.22
398.083	0.18
398.289	0.13
398.494	0.17
398.7	0.19
398.905	0.08
399.111	0.23
399.316	0.11
399.522	0.15
399.727	0.17
399.932	0.14
400.138	0.19
400.343	0.22
400.549	0.16
400.754	0.17
400.959	0.17
401.165	0.2
401.37	0.21
401.575	0.24
401.78	0.26
401.986	0.2
402.191	0.15
402.396	0.21
402.601	0.24
402.807	0.19
403.012	0.2
403.217	0.28
403.422	0.18
403.627	0.23
403.832	0.19
404.037	0.23
404.243	0.23
404.448	0.21
404.653	0.2
404.858	0.25
405.063	0.29
405.268	0.2
405.473	0.19
405.678	0.17
405.883	0.35
406.088	0.3
406.293	0.14
406.498	0.22
406.703	0.24
406.907	0.26
407.112	0.21
407.317	0.3
407.522	0.3
407.727	0.23
407.932	0.26
408.136	0.36
408.341	0.28
408.546	0.3
408.751	0.29
408.956	0.3
409.16	0.38
409.365	0.3
409.57	0.3
409.774	0.32
409.979	0.39
410.184	0.38
410.388	0.28
410.593	0.39
410.798	0.42
411.002	0.41
411.207	0.45
411.411	0.45
411.616	0.38
411.82	0.43
412.025	0.48
412.229	0.45
412.434	0.54
412.638	0.5
412.843	0.51
413.047	0.56
413.252	0.53
413.456	0.52
413.66	0.58
413.865	0.62
414.069	0.69
414.273	0.63
414.478	0.62
414.682	0.67
414.886	0.65
415.091	0.71
415.295	0.73
415.499	0.82
415.703	0.81
415.908	0.86
416.112	0.81
416.316	0.93
416.52	0.9
416.724	0.92
416.929	0.97
417.133	1.23
417.337	1.08
417.541	1.11
417.745	1.14
417.949	1.25
418.153	1.28
418.357	1.21
418.561	1.47
418.765	1.42
418.969	1.56
419.173	1.62
419.377	1.6
419.581	1.75
419.785	1.67
419.989	1.76
420.193	1.86
420.397	1.92
420.601	2.03
420.804	2.18
421.008	2.15
421.212	2.28
421.416	2.26
421.62	2.25
421.823	2.42
422.027	2.58
422.231	2.52
422.435	2.56
422.638	2.64
422.842	2.69
423.046	2.88
423.249	3.06
423.453	3
423.657	3.18
423.86	3.28
424.064	3.37
424.268	3.63
424.471	3.53
424.675	3.74
424.878	3.92
425.082	4.05
425.285	4.31
425.489	4.27
425.692	4.41
425.896	4.42
426.099	4.71
426.303	4.81
426.506	5.03
426.71	5.28
426.913	5.56
427.116	5.7
427.32	5.65
427.523	5.88
427.726	6.25
427.93	6.25
428.133	6.61
428.336	6.81
428.54	6.96
428.743	7.29
428.946	7.61
429.149	7.53
429.353	7.68
429.556	7.8
429.759	7.98
429.962	8.08
430.165	8.41
430.368	8
430.571	8.26
430.775	8.25
430.978	8.23
431.181	8.42
431.384	8.52
431.587	8.62
431.79	9.13
431.993	9.04
432.196	9.43
432.399	9.9
432.602	9.93
432.805	10.21
433.008	10.8
433.211	10.72
433.414	11.16
433.616	11.18
433.819	11.25
434.022	11.49
434.225	11.81
434.428	11.82
434.631	12.28
434.833	12.15
435.036	12.49
435.239	12.78
435.442	12.92
435.645	13.17
435.847	13.37
436.05	13.79
436.253	14.07
436.455	14.21
436.658	14.16
436.861	14.49
437.063	14.73
437.266	14.79
437.468	15.36
437.671	15.67
437.874	16
438.076	15.92
438.279	16.66
438.481	16.75
438.684	17.96
438.886	17.4
439.089	17.89
439.291	18.22
439.494	18.69
439.696	19.13
439.899	20.08
440.101	20.65
440.303	21.02
440.506	22.16
440.708	22.24
440.91	22.57
441.113	22.95
441.315	23.59
441.517	23.44
441.72	24.31
441.922	23.99
442.124	24.2
442.326	24.77
442.529	25.43
442.731	25.51
442.933	26.23
443.135	26
443.337	26.4
443.539	27.26
443.742	27.18
443.944	28.2
444.146	27.96
444.348	28.33
444.55	28.36
444.752	28.75
444.954	29.14
445.156	29.04
445.358	30.01
445.56	30.55
445.762	30.54
445.964	31
446.166	30.99
446.368	31.01
446.57	31.23
446.772	30.91
446.974	30.5
447.175	31.18
447.377	30.87
447.579	31.82
447.781	31.54
447.983	30.95
448.184	30.34
448.386	31.11
448.588	30.51
448.79	30.44
448.991	31.05
449.193	31.15
449.395	30.19
449.597	29.26
449.798	29.33
450	28.58
450.202	28.46
450.403	28.58
450.605	28.25
450.806	27.73
451.008	27.53
451.21	26.97
451.411	26.32
451.613	24.85
451.814	25.4
452.016	25.18
452.217	23.95
452.419	24.12
452.62	23.41
452.821	22.97
453.023	22.64
453.224	21.89
453.426	21.14
453.627	19.85
453.828	19.99
454.03	20.19
454.231	19.94
454.432	19.81
454.634	18.94
454.835	18.63
455.036	18.56
455.238	17.7
455.439	17.18
455.64	16.69
455.841	16.37
456.042	16.56
456.244	15.97
456.445	15.5
456.646	15.06
456.847	14.93
457.048	14.68
457.249	14.58
457.45	13.94
457.651	13.36
457.852	12.87
458.054	12.29
458.255	12.34
458.456	12.47
458.657	12.12
458.858	11.45
459.058	11.25
459.259	11.35
459.46	10.81
459.661	10.77
459.862	10.68
460.063	10.66
460.264	10.32
460.465	9.99
460.666	9.89
460.866	9.46
461.067	9.1
461.268	9.1
461.469	8.92
461.67	8.77
461.87	8.45
462.071	8.4
462.272	8.25
462.473	8.09
462.673	8.47
462.874	8.24
463.075	8.05
463.275	8.1
463.476	8.07
463.676	7.89
463.877	7.66
464.078	7.61
464.278	7.56
464.479	7.29
464.679	7.13
464.88	7.05
465.08	6.94
465.281	6.7
465.481	6.34
465.682	5.96
465.882	5.97
466.083	5.82
466.283	5.76
466.483	5.54
466.684	5.25
466.884	5.03
467.085	5.07
467.285	5.12
467.485	4.9
467.686	4.7
467.886	4.55
468.086	4.44
468.286	4.33
468.487	4.48
468.687	4.17
468.887	4.07
469.087	4.22
469.287	3.98
469.488	3.7
469.688	3.88
469.888	3.79
470.088	3.64
470.288	3.56
470.488	3.46
470.688	3.33
470.888	3.22
471.088	3.01
471.288	3.1
471.488	2.99
471.688	2.94
471.888	2.85
472.088	2.95
472.288	2.86
472.488	2.68
472.688	2.62
472.888	2.59
473.088	2.54
473.288	2.42
473.488	2.39
473.688	2.53
473.887	2.37
474.087	2.26
474.287	2.26
474.487	2.18
474.687	2.17
474.886	2.08
475.086	2.01
475.286	2.03
475.486	1.97
475.685	1.88
475.885	1.85
476.085	1.83
476.284	1.83
476.484	1.77
476.684	1.75
476.883	1.77
477.083	1.65
477.282	1.58
477.482	1.62
477.681	1.64
477.881	1.47
478.08	1.5
478.28	1.41
478.479	1.46
478.679	1.45
478.878	1.34
479.078	1.34
479.277	1.35
479.477	1.28
479.676	1.29
479.875	1.23
480.075	1.2
480.274	1.21
480.473	1.19
480.673	1.17
480.872	1.15
481.071	1.17
481.271	1.11
481.47	1.05
481.669	1
481.868	0.97
482.067	0.96
482.267	0.91
482.466	0.92
482.665	0.88
482.864	0.85
483.063	0.83
483.262	0.91
483.461	0.93
483.661	0.87
483.86	0.84
484.059	0.84
484.258	0.79
484.457	0.76
484.656	0.75
484.855	0.77
485.054	0.65
485.253	0.65
485.452	0.64
485.651	0.64
485.849	0.65
486.048	0.61
486.247	0.6
486.446	0.63
486.645	0.57
486.844	0.55
487.043	0.54
487.241	0.53
487.44	0.5
487.639	0.51
487.838	0.55
488.037	0.5
488.235	0.56
488.434	0.47
488.633	0.43
488.831	0.49
489.03	0.49
489.229	0.46
489.427	0.46
489.626	0.49
489.825	0.45
490.023	0.4
490.222	0.36
490.42	0.42
490.619	0.41
490.817	0.38
491.016	0.32
491.214	0.41
491.413	0.38
491.611	0.34
491.81	0.32
492.008	0.35
492.207	0.34
492.405	0.36
492.604	0.28
492.802	0.31
493	0.29
493.199	0.29
493.397	0.33
493.595	0.31
493.794	0.28
493.992	0.32
494.19	0.27
494.388	0.29
494.587	0.26
494.785	0.25
494.983	0.22
495.181	0.27
495.379	0.24
495.578	0.25
495.776	0.26
495.974	0.24
496.172	0.22
496.37	0.21
496.568	0.19
496.766	0.19
496.964	0.24
497.162	0.23
497.36	0.18
497.558	0.22
497.756	0.24
497.954	0.19
498.152	0.18
498.35	0.2
498.548	0.18
498.746	0.2
498.944	0.16
499.142	0.18
499.34	0.14
499.538	0.18
499.736	0.15
499.933	0.2
500.131	0.2
500.329	0.18
500.527	0.21
500.725	0.21
500.922	0.18
501.12	0.17
501.318	0.18
501.516	0.14
501.713	0.17
501.911	0.17
502.109	0.12
502.306	0.15
502.504	0.14
502.701	0.11
502.899	0.15
503.097	0.21
503.294	0.14
503.492	0.13
503.689	0.12
503.887	0.16
504.084	0.18
504.282	0.15
504.479	0.1
504.677	0.14
504.874	0.09
505.072	0.13
505.269	0.12
505.466	0.14
505.664	0.13
505.861	0.09
506.059	0.11
506.256	0.16
506.453	0.1
506.651	0.16
506.848	0.14
507.045	0.13
507.242	0.12
507.44	0.09
507.637	0.14
507.834	0.1
508.031	0.14
508.229	0.07
508.426	0.09
508.623	0.13
508.82	0.08
509.017	0.09
509.214	0.1
509.411	0.11
509.608	0.08
509.805	0.09
510.003	0.08
510.2	0.07
510.397	0.13
510.594	0.07
510.791	0.08
510.988	0.1
511.184	0.13
511.381	0.09
511.578	0.07
511.775	0.13
511.972	0.09
512.169	0.08
512.366	0.09
512.563	0.1
512.76	0.08
512.956	0.08
513.153	0.05
513.35	0.11
513.547	0.08
513.744	0.06
513.94	0.07
514.137	0.09
514.334	0.1
514.53	0.08
514.727	0.1
514.924	0.15
515.12	0.06
515.317	0.05
515.514	0.06
515.71	0.06
515.907	0.06
516.103	0.07
516.3	0.08
516.497	0.09
516.693	0.09
516.89	0.08
517.086	0.07
517.283	0.09
517.479	0.09
517.676	0.07
517.872	0.07
518.068	0.05
518.265	0.07
518.461	0.06
518.658	0.05
518.854	0.09
519.05	0.05
519.247	0.05
519.443	0.07
519.639	0.08
519.836	0.06
520.032	0.07
520.228	0.09
520.424	0.11
520.621	0.08
520.817	0.05
521.013	0.09
521.209	0.08
521.405	0.12
521.601	0.07
521.798	0.09
521.994	0.11
522.19	0.03
522.386	0.03
522.582	0.06
522.778	0.08
522.974	0.03
523.17	0.07
523.366	0.07
523.562	0.09
523.758	0.07
523.954	0.03
524.15	0.07
524.346	0.08
524.542	0.04
524.738	0.03
524.934	0.07
525.129	0.06
525.325	0.06
525.521	0.06
525.717	0.09
525.913	0.05
526.109	0.07
526.304	0.08
526.5	0.06
526.696	0.07
526.892	0.05
527.087	0.08
527.283	0.04
527.479	0.08
527.674	0.03
527.87	0.05
528.066	0.05
528.261	0.1
528.457	0.07
528.653	0.05
528.848	0.03
529.044	0.08
529.239	0.06
529.435	0.08
529.63	0.05
529.826	0.11
530.021	0.05
530.217	0.09
530.412	0.03
530.608	0.05
530.803	0.04
530.999	0.05
531.194	0.01
531.389	0.06
531.585	0.03
531.78	0.05
531.975	0.05
532.171	0.06
532.366	0.03
532.561	0.05
532.757	0.03
532.952	0.04
533.147	0.07
533.342	0.04
533.538	0.06
533.733	0.09
533.928	0.05
534.123	0.02
534.318	0.01
534.513	0.06
534.709	0.04
534.904	0.04
535.099	0.02
535.294	0.06
535.489	0.06
535.684	0.03
535.879	0.02
536.074	0.04
536.269	0.02
536.464	0.07
536.659	0.06
536.854	0.04
537.049	0.06
537.244	0.06
537.439	0.05
537.634	0.06
537.828	0.07
538.023	0.04
538.218	-0.01
538.413	0.04
538.608	0.03
538.803	0.05
538.997	0.02
539.192	0.06
539.387	0.04
539.582	0.05
539.776	0.03
539.971	0.05
540.166	0.05
540.36	0.03
540.555	0.03
540.75	0.04
540.944	0.05
541.139	-0
541.334	0.03
541.528	0.07
541.723	0.07
541.917	0.04
542.112	0
542.306	0.03
542.501	0.03
542.695	0.03
542.89	0.02
543.084	0.06
543.279	0.04
543.473	0.04
543.668	0.06
543.862	0.05
544.056	0.06
544.251	0.05
544.445	0.05
544.64	0.03
544.834	0.01
545.028	0.05
545.222	0.06
545.417	0.08
545.611	0.06
545.805	0.03
546	0
546.194	0.06
546.388	0.02
546.582	0.05
546.776	0.05
546.97	0.02
547.165	0.07
547.359	0.07
547.553	0.02
547.747	0.04
547.941	0.03
548.135	0.04
548.329	0.06
548.523	0.05
548.717	0.05
548.911	0.04
549.105	0.05
549.299	0.06
549.493	0.07
549.687	0.07
549.881	0.06
550.075	0.03
550.269	0.03
550.463	0.05
550.657	0.04
550.85	0.05
551.044	0.03
551.238	0.04
551.432	0.01
551.626	0.02
551.82	0.05
552.013	0.02
552.207	0.02
552.401	0.06
552.594	0.03
552.788	0.02
552.982	0.06
553.176	0.02
553.369	0.05
553.563	0.06
553.756	0.01
553.95	0.02
554.144	0.04
554.337	0.07
554.531	0.06
554.724	0.03
554.918	0.03
555.111	0.07
555.305	0.05
555.498	0.08
555.692	0.06
555.885	0.03
556.079	0.06
556.272	0.04
556.466	0.04
556.659	0.03
556.852	0.04
557.046	0.02
557.239	0.07
557.432	0.01
557.626	0.01
557.819	0.04
558.012	0.07
558.206	0.05
558.399	0.04
558.592	0.06
558.785	0.02
558.979	0.05
559.172	0.04
559.365	0.06
559.558	0.06
559.751	0.02
559.944	0.04
560.138	0.03
560.331	0.01
560.524	0.03
560.717	0.04
560.91	0.04
561.103	0.07
561.296	0.05
561.489	0.05
561.682	0.06
561.875	0.08
562.068	0.07
562.261	0.04
562.454	0.07
562.647	0.04
562.84	0.05
563.032	0.02
563.225	0.05
563.418	0.02
563.611	0.01
563.804	0.03
563.997	-0
564.19	-0
564.382	0.04
564.575	0.03
564.768	0.06
564.961	0.05
565.153	0.02
565.346	0.06
565.539	0.08
565.731	0.06
565.924	0.06
566.117	0.06
566.309	0.07
566.502	0.03
566.695	0.03
566.887	0.04
567.08	0.02
567.272	0.03
567.465	0.03
567.657	0.05
567.85	0.05
568.042	0.04
568.235	0.07
568.427	0.05
568.62	0.02
568.812	0.04
569.005	0.06
569.197	0
569.389	0.06
569.582	0.03
569.774	0.03
569.966	0.01
570.159	0.02
570.351	0.04
570.543	0.03
570.736	0.04
570.928	0.03
571.12	0.04
571.312	0.03
571.505	-0.02
571.697	0.07
571.889	0.02
572.081	0.03
572.273	0.01
572.465	0.06
572.658	0.03
572.85	0.03
573.042	0.02
573.234	0.01
573.426	0.08
573.618	-0.01
573.81	0.05
574.002	0.07
574.194	0.07
574.386	-0
574.578	-0.03
574.77	-0
574.962	0.01
575.154	-0.02
575.346	0.03
575.538	0.03
575.729	0.02
575.921	0
576.113	0.02
576.305	0.06
576.497	0.03
576.689	0.02
576.88	0.01
577.072	0.05
577.264	0.02
577.456	0.03
577.647	-0.08
577.839	0.01
578.031	0.06
578.223	-0
578.414	0.01
578.606	0.04
578.798	0.05
578.989	-0.01
579.181	0.02
579.372	0.03
579.564	-0
579.755	0.05
579.947	0.03
580.139	0.04
580.33	-0.02
580.522	0.02
580.713	-0.04
580.905	0.03
581.096	0.06
581.287	0.03
581.479	0.02
581.67	0.06
581.862	0.03
582.053	-0.01
582.244	-0.01
582.436	0.03
582.627	0.03
582.818	-0.01
583.01	0.01
583.201	0.03
583.392	0.06
583.583	0.04
583.775	0.01
583.966	0.02
584.157	-0
584.348	0.01
584.54	-0
584.731	0.05
584.922	0.02
585.113	-0.01
585.304	0.03
585.495	0.06
585.686	0.04
585.877	0.05
586.068	0.04
586.259	0.04
586.45	0.05
586.641	0
586.832	-0.04
587.023	0.04
587.214	0.01
587.405	0.05
587.596	0
587.787	0.06
587.978	0.03
588.169	-0
588.36	0.02
588.551	0.04
588.742	0
588.932	0.03
589.123	0.04
589.314	0.08
589.505	0.06
589.696	0.04
589.886	-0.01
590.077	-0.02
590.268	0.03
590.458	-0
590.649	-0.02
590.84	0.09
591.03	0.02
591.221	-0.02
591.412	-0.01
591.602	0.03
591.793	0.06
591.984	0.01
592.174	0.02
592.365	0.09
592.555	0.02
592.746	0.03
592.936	0.04
593.127	0.05
593.317	0.05
593.508	0.01
593.698	0.04
593.889	0.04
594.079	0.03
594.269	-0.01
594.46	0.03
594.65	0.04
594.84	0
595.031	-0.03
595.221	0.02
595.411	-0.02
595.602	0.06
595.792	0.04
595.982	0.02
596.172	0.07
596.363	0.03
596.553	0.05
596.743	0.03
596.933	0.02
597.123	0.03
597.314	0.02
597.504	-0.01
597.694	0.04
597.884	0.05
598.074	-0.01
598.264	0.02
598.454	0.07
598.644	0.02
598.834	0
599.024	-0.02
599.214	0.01
599.404	0.03
599.594	-0
599.784	-0.02
599.974	0.06
600.164	0.06
600.354	-0.03
600.544	-0.01
600.734	0.01
600.924	0.08
601.114	0.01
601.303	0.02
601.493	0.03
601.683	0.02
601.873	0.03
602.063	-0.01
602.252	0.09
602.442	-0.05
602.632	0
602.821	-0.01
603.011	0.04
603.201	0.01
603.39	-0.02
603.58	0
603.77	0.01
603.959	0.06
604.149	0
604.339	0.03
604.528	0.06
604.718	0.06
604.907	0.04
605.097	0.01
605.286	-0.01
605.476	0.05
605.665	0.04
605.855	0.02
606.044	0.08
606.234	0.06
606.423	0.01
606.612	-0
606.802	0.01
606.991	0.05
607.181	0.04
607.37	-0.02
607.559	0.04
607.749	-0.02
607.938	0.02
608.127	0.03
608.316	-0.02
608.506	0.04
608.695	0.01
608.884	-0.03
609.073	0
609.263	0.02
609.452	0.03
609.641	0.03
609.83	-0.03
610.019	0.04
610.208	-0.03
610.397	0.02
610.586	0.04
610.775	0.01
610.965	-0.01
611.154	-0.01
611.343	0.04
611.532	0.01
611.721	-0.02
611.91	0.01
612.099	0.05
612.287	0.01
612.476	0
612.665	0.04
612.854	0.01
613.043	0.07
613.232	0.01
613.421	-0.03
613.61	0.04
613.798	-0.01
613.987	0.06
614.176	0.01
614.365	0.04
614.554	0.01
614.742	0.05
614.931	-0.02
615.12	0.04
615.309	0
615.497	0.05
615.686	-0
615.875	0.02
616.063	0.04
616.252	0.01
616.44	0.01
616.629	0
616.818	0.05
617.006	0.02
617.195	0.03
617.383	0.03
617.572	0.02
617.76	-0.01
617.949	0.03
618.137	0.02
618.326	0.05
618.514	-0.01
618.703	0
618.891	0.08
619.079	-0.04
619.268	0.02
619.456	0.01
619.644	0.06
619.833	0
620.021	0.01
620.209	-0
620.398	0.04
620.586	0.03
620.774	0.04
620.962	-0.01
621.151	0.07
621.339	0.02
621.527	-0.03
621.715	-0.04
621.903	-0.01
622.092	-0.02
622.28	0.02
622.468	0.04
622.656	0
622.844	0.06
623.032	-0
623.22	-0.02
623.408	0.05
623.596	0.03
623.784	0.04
623.972	-0
624.16	-0.01
624.348	0.09
624.536	-0.01
624.724	0.03
624.912	0.03
625.1	0.05
625.288	-0.01
625.476	0.02
625.664	0.06
625.851	-0.03
626.039	0.01
626.227	0.02
626.415	0.04
626.603	-0.03
626.79	0.02
626.978	0
627.166	0.03
627.354	0.05
627.541	-0.02
627.729	-0.04
627.917	0.03
628.104	0.03
628.292	0.02
628.48	0.03
628.667	0.03
628.855	0.01
629.042	0.05
629.23	-0
629.418	0.02
629.605	-0
629.793	-0.01
629.98	-0.02
630.168	0.04
630.355	0.02
630.543	-0.01
630.73	-0.01
630.917	0.03
631.105	0.09
631.292	0
631.48	-0
631.667	0.1
631.854	0.02
632.042	0.01
632.229	-0.06
632.416	0.01
632.604	0.03
632.791	-0.02
632.978	0.04
633.165	0.02
633.353	0.08
633.54	0.06
633.727	-0.04
633.914	-0.02
634.101	-0.04
634.289	0.05
634.476	-0.03
634.663	-0.02
634.85	0.02
635.037	-0.02
635.224	-0.05
635.411	0.08
635.598	0.04
635.785	0.03
635.972	0.02
636.159	0.04
636.346	0
636.533	-0.02
636.72	-0.03
636.907	-0.01
637.094	0.02
637.281	0.01
637.468	0.06
637.655	0.02
637.842	0.03
638.029	-0.01
638.215	0.05
638.402	0.03
638.589	-0.02
638.776	-0.01
638.963	-0.02
639.149	0.05
639.336	0.09
639.523	0.01
639.709	0
639.896	0
640.083	0.06
640.27	0.03
640.456	-0.02
640.643	0.04
640.829	-0.01
641.016	0.02
641.203	-0.03
641.389	0.07
641.576	0.02
641.762	-0.01
641.949	-0.03
642.135	0.06
642.322	0.04
642.508	-0.06
642.695	0
642.881	-0.01
643.068	0.02
643.254	-0.01
643.441	0.08
643.627	-0.03
643.813	-0.04
644	0.05
644.186	-0.01
644.372	0.04
644.559	0.06
644.745	0.01
644.931	-0.01
645.118	0.04
645.304	0.01
645.49	0.01
645.676	-0.02
645.862	-0.01
646.049	0.05
646.235	0.04
646.421	0.09
646.607	0.09
646.793	-0.05
646.979	-0.01
647.165	0.04
647.352	0.04
647.538	0.06
647.724	0.03
647.91	0.01
648.096	0.06
648.282	0.07
648.468	0.01
648.654	0.04
648.84	0.04
649.026	0
649.212	-0
649.397	-0.01
649.583	-0.06
649.769	0.04
649.955	-0.02
650.141	0.03
650.327	0.06
650.513	-0.01
650.698	0.04
650.884	-0.06
651.07	0.02
651.256	0.06
651.442	0.03
651.627	0.02
651.813	0.06
651.999	0.03
652.184	0.04
652.37	-0.01
652.556	0.01
652.741	0.07
652.927	-0.04
653.113	-0.03
653.298	0.04
653.484	-0.01
653.669	-0.05
653.855	0.01
654.04	0.02
654.226	0.03
654.412	-0
654.597	-0.05
654.782	0.01
654.968	0.04
655.153	0.05
655.339	-0
655.524	-0.06
655.71	0.05
655.895	-0.01
656.08	-0.01
656.266	0.07
656.451	0.03
656.636	0
656.822	-0
657.007	0
657.192	-0
657.378	-0.03
657.563	0.03
657.748	0.06
657.933	0.02
658.118	0.02
658.304	-0.01
658.489	0.07
658.674	0.06
658.859	-0.01
659.044	0
659.229	0.05
659.414	0.02
659.599	0.01
659.785	-0.05
659.97	-0.02
660.155	0.04
660.34	0.02
660.525	0.01
660.71	-0.03
660.895	0.06
661.08	-0.03
661.264	0
661.449	0.07
661.634	0.05
661.819	0.05
662.004	0.01
662.189	-0.08
662.374	-0.01
662.559	-0.03
662.743	-0.06
662.928	0.03
663.113	0.01
663.298	-0.02
663.483	-0.01
663.667	0.08
663.852	-0.04
664.037	0.03
664.221	-0.03
664.406	0.03
664.591	0.03
664.775	0.04
664.96	-0.02
665.145	0.01
665.329	-0.01
665.514	0
665.698	-0.02
665.883	-0.06
666.068	0.09
666.252	0.03
666.437	0
666.621	-0.01
666.806	0.03
666.99	0.01
667.174	-0.03
667.359	0.08
667.543	0
667.728	-0.02
667.912	-0.04
668.096	0.06
668.281	-0.02
668.465	0.01
668.649	0.02
668.834	-0.02
669.018	0.02
669.202	-0.03
669.387	-0.03
669.571	0.07
669.755	-0.01
669.939	0.01
670.124	0.04
670.308	0.07
670.492	0.07
670.676	0
670.86	0.03
671.044	-0.02
671.228	0.07
671.413	-0.01
671.597	-0.03
671.781	-0.01
671.965	0.02
672.149	-0
672.333	-0
672.517	-0.04
672.701	0.05
672.885	0
673.069	-0.05
673.253	-0
673.437	-0.02
673.621	-0.01
673.804	0.03
673.988	-0.01
674.172	-0.03
674.356	-0.08
674.54	-0
674.724	0.12
674.908	-0
675.091	0.05
675.275	-0.02
675.459	0.05
675.643	0.09
675.826	0.03
676.01	-0.02
676.194	-0.03
676.377	0.07
676.561	0.07
676.745	-0.03
676.928	0.05
677.112	0.05
677.296	-0.05
677.479	-0.02
677.663	-0.03
677.846	0.05
678.03	0.01
678.213	-0.01
678.397	0.07
678.58	0.03
678.764	0.03
678.947	-0.01
679.131	-0.03
679.314	0.06
679.498	0.01
679.681	0.01
679.865	0.04
680.048	-0.03
680.231	0.01
680.415	-0.01
680.598	-0.03
680.781	0.04
680.965	-0
681.148	0.03
681.331	-0.06
681.514	0.05
681.698	0.02
681.881	0.03
682.064	0.03
682.247	0.02
682.43	-0.05
682.614	0.06
682.797	0.05
682.98	0.08
683.163	-0.02
683.346	-0.01
683.529	-0.01
683.712	-0.06
683.895	0.01
684.078	-0.02
684.261	0.03
684.444	0.06
684.627	0.03
684.81	0.01
684.993	-0.01
685.176	0.04
685.359	-0.02
685.542	-0.02
685.725	0.08
685.908	-0.02
686.091	0.01
686.274	0.04
686.457	0.07
686.639	0.01
686.822	0.09
687.005	-0
687.188	0.05
687.371	0.13
687.553	0
687.736	0.04
687.919	0.09
688.102	0.04
688.284	-0.02
688.467	-0.02
688.65	0.03
688.832	0.07
689.015	-0.07
689.197	-0.03
689.38	0.1
689.563	0.08
689.745	-0.04
689.928	-0.1
690.11	0.01
690.293	0.02
690.475	-0.04
690.658	0.01
690.84	-0
691.023	-0.03
691.205	-0.02
691.388	0.03
691.57	0.06
691.752	0.03
691.935	-0.07
692.117	-0.03
692.3	0.05
692.482	-0.01
692.664	0
692.847	0.02
693.029	0.09
693.211	0.02
693.393	-0.01
693.576	-0.02
693.758	0.02
693.94	0.02
694.122	-0.02
694.304	-0
694.487	-0.03
694.669	0.07
694.851	-0.05
695.033	0.05
695.215	-0.03
695.397	0.01
695.579	0.03
695.761	-0.02
695.943	-0.03
696.125	0.11
696.308	-0
696.49	-0.13
696.671	0.08
696.853	0.04
697.035	0.13
697.217	-0.01
697.399	0.09
697.581	-0.01
697.763	0.04
697.945	-0
698.127	0.02
698.309	0.08
698.491	0.03
698.672	0.03
698.854	0.08
699.036	0.08
699.218	-0.07
699.399	0.11
699.581	0.08
699.763	0.02
699.945	-0.03
700.126	-0.02
700.308	0.07
700.49	0.02
700.671	-0.11
700.853	-0.06
701.035	-0.03
701.216	0
701.398	-0.02
701.579	-0.02
701.761	0.08
701.943	-0.03
702.124	-0.03
702.306	-0.03
702.487	0.12
702.669	0.02
702.85	-0.01
703.031	-0.08
703.213	0.08
703.394	0.04
703.576	-0.01
703.757	0.1
703.938	0.01
704.12	0.13
704.301	-0
704.483	-0.01
704.664	0.01
704.845	0.13
705.026	0.06
705.208	-0
705.389	0.04
705.57	0.04
705.751	0
705.933	0.04
706.114	0.03
706.295	0.02
706.476	-0.11
706.657	0.09
706.838	0.07
707.02	0.11
707.201	-0.05
707.382	0.01
707.563	0.03
707.744	-0.04
707.925	-0.01
708.106	-0.05
708.287	0.03
708.468	0.11
708.649	0.04
708.83	0.02
709.011	0.04
709.192	0.04
709.373	-0
709.554	0.04
709.734	0.09
709.915	0.1
710.096	0.06
710.277	-0.12
710.458	0.04
710.639	0.02
710.819	-0.13
711	0.01
711.181	0.07
711.362	0.11
711.542	-0.02
711.723	-0.07
711.904	0.07
712.085	0.08
712.265	-0.02
712.446	-0.07
712.627	-0.05
712.807	0.09
712.988	0.02
713.168	-0.07
713.349	0.08
713.53	-0.16
713.71	-0.05
713.891	-0.01
714.071	-0.06
714.252	0.02
714.432	-0.01
714.613	-0.03
714.793	-0.01
714.974	0.16
715.154	0.09
715.334	0.02
715.515	0.09
715.695	-0.08
715.876	-0.01
716.056	-0.05
716.236	-0.03
716.417	-0.06
716.597	-0.04
716.777	0.14
716.957	0.06
717.138	0
717.318	0.02
717.498	-0.06
717.678	0
717.859	-0.02
718.039	-0.06
718.219	0.02
718.399	0.05
718.579	-0.01
718.759	-0.06
718.939	0.03
719.12	0.03
719.3	-0.01
719.48	-0.15
719.66	-0.11
719.84	0.15
720.02	0.02
720.2	-0.03
720.38	0.07
720.56	0.12
720.74	-0.04
720.92	0.02
721.1	0.15
721.279	0.07
721.459	-0.01
721.639	-0.07
721.819	0.03
721.999	-0.02
722.179	0.12
722.359	-0.12
722.538	-0.01
722.718	-0
722.898	-0.08
723.078	-0.04
723.257	-0.01
723.437	-0
723.617	0.07
723.797	-0.01
723.976	0.05
724.156	0.03
724.336	0.06
724.515	0.22
724.695	-0.1
724.874	0.02
725.054	0.02
725.234	-0.01
725.413	-0.04
725.593	0.01
725.772	-0.02
725.952	-0.03
726.131	-0.05
726.311	-0.04
726.49	0.01
726.67	-0.13
726.849	0.02
727.028	0.03
727.208	0
727.387	0.07
727.567	-0.09
727.746	-0.03
727.925	-0.03
728.105	-0.09
728.284	-0.03
728.463	-0.07
728.643	0.12
728.822	-0.08
729.001	-0.05
729.18	-0.01
729.359	0.1
729.539	-0.05
729.718	-0.04
729.897	0.07
730.076	0.04
730.255	-0.05
730.434	0.01
730.614	0.1
730.793	0.07
730.972	0.03
731.151	0.01
731.33	0.09
731.509	0.07
731.688	0.01
731.867	-0
732.046	-0.13
732.225	0.15
732.404	-0.07
732.583	-0.06
732.762	0.01
732.941	0
733.12	-0.01
733.298	0.03
733.477	0.17
733.656	-0.01
733.835	-0.12
734.014	0.02
734.193	0.08
734.371	0.07
734.55	-0
734.729	-0.17
734.908	0.01
735.086	0.01
735.265	0.06
735.444	-0.06
735.623	-0.1
735.801	-0.08
735.98	-0.03
736.159	0.01
736.337	0.09
736.516	0.04
736.694	-0.04
736.873	-0.03
737.052	0.08
737.23	0.07
737.409	0.01
737.587	0.18
737.766	-0.04
737.944	0.03
738.123	0.05
738.301	0.05
738.479	-0.05
738.658	-0.01
738.836	-0.15
739.015	0.01
739.193	0.04
739.371	-0.15
739.55	-0.06
739.728	-0.01
739.906	0.09
740.085	0.21
740.263	0.13
740.441	-0.19
740.62	0.22
740.798	0.08
740.976	-0.06
741.154	-0.09
741.332	0.14
741.511	-0.05
741.689	0.05
741.867	0.07
742.045	0.1
742.223	0.01
742.401	-0.05
742.579	-0.02
742.757	0.07
742.935	-0.06
743.114	-0.07
743.292	0.01
743.47	0.02
743.648	0.07
743.826	0.01
744.004	-0
744.181	0.13
744.359	-0.06
744.537	0.11
744.715	0.01
744.893	0.03
745.071	0.07
745.249	-0
745.427	0.02
745.605	0.11
745.782	0.07
745.96	0.08
746.138	0.2
746.316	0.04
746.493	-0.03
746.671	-0.02
746.849	-0.05
747.027	0.07
747.204	-0.04
747.382	0.15
747.56	-0.16
747.737	-0.13
747.915	-0.06
748.093	0.11
748.27	0.02
748.448	-0.02
748.625	-0.2
748.803	-0.02
748.98	-0.04
749.158	0.07
749.335	0.07
749.513	-0.07
749.69	0
749.868	0.06
750.045	0.1
750.223	0.04
750.4	-0.28
750.578	0.24
750.755	0.06
750.932	-0.12
751.11	0.13
751.287	-0.15
751.464	0.22
751.642	-0.02
751.819	0.11
751.996	0.06
752.173	0.02
752.351	-0.09
752.528	-0.01
752.705	-0
752.882	0.01
753.06	0.12
753.237	-0
753.414	0.22
753.591	0.2
753.768	-0.03
753.945	-0.02
754.122	0.04
754.299	0.11
754.476	-0.11
754.654	0.03
754.831	0.03
755.008	0.06
755.185	-0.08
755.362	-0.1
755.539	0.06
755.716	0.01
755.892	-0.01
756.069	-0.03
756.246	0.04
756.423	0.01
756.6	0.06
756.777	0.01
756.954	0.04
757.131	0.02
757.307	-0.08
757.484	-0.03
757.661	0.11
757.838	-0
758.015	-0.1
758.191	0.08
758.368	0.05
758.545	0.27
758.721	0.01
758.898	-0.06
759.075	0.07
759.251	0.09
759.428	0.03
759.605	-0.18
759.781	-0
759.958	0.05
760.134	0.04
760.311	-0.07
760.488	0.09
760.664	0.19
760.841	0.03
761.017	-0.18
761.194	0.11
761.37	0.09
761.547	-0.03
761.723	0.13
761.899	0.23
762.076	-0.04
762.252	-0.09
762.429	-0.02
762.605	0.18
762.781	-0.01
762.958	0.22
763.134	-0.01
763.31	-0.03
763.486	0.15
763.663	-0.16
763.839	0.02
764.015	-0.2
764.191	-0.04
764.368	-0.06
764.544	-0.12
764.72	0.07
764.896	0.06
765.072	-0.06
765.248	0.03
765.425	-0.06
765.601	0.14
765.777	0.08
765.953	-0.31
766.129	-0.12
766.305	-0.17
766.481	0.02
766.657	0.03
766.833	0.16
767.009	-0.04
767.185	-0.03
767.361	0.02
767.537	-0.13
767.713	0.19
767.889	-0.12
768.065	0.07
768.24	0.17
768.416	0.1
768.592	-0.09
768.768	0.02
768.944	0.1
769.12	-0.11
769.295	-0.04
769.471	-0.07
769.647	0.02
769.823	0.18
769.998	-0.19
770.174	-0.08
770.35	0.36
770.525	0.13
770.701	0.03
770.877	-0.05
771.052	0.01
771.228	0.13
771.403	-0.06
771.579	0.05
771.755	0.25
771.93	-0.11
772.106	-0.1
772.281	-0.16
772.457	0.02
772.632	0.01
772.808	0
772.983	-0.08
773.159	-0.15
773.334	0.13
773.509	-0.07
773.685	-0.05
773.86	0.41
774.036	0.12
774.211	0.06
774.386	-0.19
774.562	-0.01
774.737	0.2
774.912	-0.01
775.087	0.16
775.263	-0.07
775.438	0
775.613	-0.02
775.788	-0.12
775.964	0.06
776.139	0.39
776.314	-0.15
776.489	0.07
776.664	-0.04
776.839	-0.12
777.014	0.19
777.19	0.13
777.365	0.29
777.54	0.19
777.715	-0.13
777.89	0.08
778.065	-0.01
778.24	-0.01
778.415	0.26
778.59	-0.15
778.765	-0.17
778.94	0.15
779.115	-0.08
779.289	0.02
779.464	0.01
779.639	-0.03
779.814	-0.05
779.989	-0.13
780.164	0.12
780.339	0.05
780.513	-0.07
780.688	-0.13
780.863	0.07
781.038	0.23
781.212	-0.01
781.387	-0.07
781.562	0.18
781.737	0.06
781.911	0.16
782.086	-0.25
782.261	-0.13
782.435	0.29
782.61	-0.09
782.784	0.14
782.959	0.37
783.134	0.05
783.308	-0.14
783.483	-0.14
783.657	0.49
783.832	0.07
784.006	-0.44
784.181	0.01
784.355	0.17
784.53	-0.26
784.704	-0.25
784.878	0.39
785.053	0.13
785.227	0.09
785.402	0.41
785.576	-0.19
785.75	0.01
785.925	0.04
786.099	0.17
786.273	-0.21
786.448	0.22
786.622	0.17
786.796	-0.1
786.97	-0.15
787.145	0.45
787.319	-0.18
787.493	-0.23
787.667	-0.31
787.841	-0.21
788.015	0.18
788.19	-0.07
788.364	-0
788.538	0.23
788.712	-0.03
788.886	-0.16
789.06	0.22
789.234	0.17
789.408	-0.03
789.582	-0.03
789.756	0.08
789.93	-0.27
790.104	-0.07
790.278	-0.05
790.452	0.03
790.626	0.15
790.8	0.08
790.973	0.05
791.147	0.26
791.321	0.45
791.495	0.18
791.669	-0
791.843	0.05
792.016	0.01
792.19	0.42
792.364	-0.18
792.538	0.62
792.711	0.15
792.885	-0.28
793.059	-0.19
793.233	-0.03
793.406	0.26
793.58	-0.03
793.754	0.23
793.927	0
794.101	0.12
794.274	-0.07
794.448	0.17
794.622	-0.21
794.795	0.24
794.969	-0.16
795.142	0.33
795.316	0.01
795.489	0.05
795.663	0.37
795.836	0.01
796.009	-0.19
796.183	0.27
796.356	0.37
796.53	-0.02
796.703	-0.09
796.876	0.44
797.05	-0.11
797.223	-0.14
797.396	0.01
797.57	0.21
797.743	0.53
797.916	0.12
798.09	-0.01
798.263	0.56
798.436	-0.07
798.609	-0.11
798.782	-0.05
798.956	0.19
799.129	0
799.302	-0.04
799.475	-0.38
799.648	-0.58
799.821	-0.37
799.994	-0.23
800.167	-0.2
800.34	0.05
800.514	-0.22
800.687	0.07
800.86	-0.07
801.033	-0.12
801.206	0.26
801.379	-0.28
801.551	0.07
801.724	0.12
801.897	0.52
802.07	-0.17
802.243	-0.45
802.416	-0.17
802.589	0.12
802.762	0.08
802.935	0.07
803.107	0.24
803.28	0.44
803.453	0.27
803.626	-0.43
803.798	-0.17
803.971	-0.3
804.144	0.19
804.317	0.07
804.489	0.52
804.662	-0.11
804.835	0.17
805.007	-0.4
805.18	0.35
805.353	0.41
805.525	0.05
805.698	-0.22
805.87	0.31
806.043	0.28
806.215	-0.55
806.388	-0.31
806.56	0.1
806.733	0.23
806.905	0.07
807.078	-0.16
807.25	-0.37
807.423	0.09
807.595	0.11
807.768	0.11
807.94	0.12
808.112	0.03
808.285	-0.07
808.457	-0.29
808.629	-0.27
808.802	0.24
808.974	-0.27
809.146	-0.07
809.318	-0.21
809.491	0.12
809.663	0.38
809.835	-0.32
810.007	0.17
810.18	0.04
810.352	-0.56
810.524	-0.56
810.696	-0
810.868	0.32
811.04	-0.24
811.212	-0.08
811.384	0.2
811.556	0.39
811.728	-0.2
811.901	0.74
812.073	-0.05
812.245	0.36
812.417	-0.06
812.589	-0.45
812.76	-0.28
812.932	0.04
813.104	0.35
813.276	-0.26
813.448	0.11
813.62	-0.33
813.792	0.23
813.964	-0
814.136	0.3
814.307	-0.19
814.479	-0.5
814.651	-0.11
814.823	0.7
814.995	0.14
815.166	0.17
815.338	-0.34
815.51	-0.45
815.681	0.88
815.853	-0.05
816.025	-0.08
816.196	0.28
816.368	0.26
816.54	-0.44
816.711	-0.37
816.883	0.2
817.054	0.98
817.226	-0.76
817.398	-0.27
817.569	-0.08
817.741	-0.1
817.912	-0.27
818.084	0.09
818.255	0.16
818.426	-0.61
818.598	-0.36
818.769	-0.43
818.941	0.26
819.112	0.25
819.283	0.02
819.455	-0.26
819.626	0.22
819.798	0.27
819.969	-0.17
820.14	0.06
820.311	-0.53
820.483	0.37
820.654	0.37
820.825	-0.22
820.996	-0
821.168	-0.19
821.339	-0.2
821.51	-0.74
821.681	-0.29
821.852	0.09
822.023	-0.6
822.195	-0.39
822.366	0.32
822.537	-0.05
822.708	-0.24
822.879	0.05
823.05	0.87
823.221	-0.14
823.392	0.06
823.563	-0.19
823.734	0.06
823.905	-0.17
824.076	-0.05
824.247	-0.14
824.418	-0.04
824.589	0.6
824.759	0.05
824.93	-0.21
825.101	-0.49
825.272	0.34
825.443	0.09
825.614	0.26
825.784	-1.4
825.955	0.75
826.126	0.5
826.297	0.3
826.467	0.86
826.638	0.5
826.809	-0.65
826.98	-0.15
827.15	0.31
827.321	0.02
827.492	1.02
827.662	-0.54
827.833	1.1
828.003	0.55
828.174	-0.66
828.345	-0.47
828.515	0.25
828.686	0.3
828.856	-0.32
829.027	-0.2
829.197	0.38
829.368	0.48
829.538	-0.25
829.709	-0.63
829.879	0.62
830.049	-0.13
830.22	-0.52
830.39	0.09
830.56	1
830.731	-0.42
830.901	-0.47
831.072	0.15
831.242	0.39
831.412	0.21
831.582	0.07
831.753	-0.68
831.923	0.39
832.093	0.33
832.263	0.05
832.434	-0.65
832.604	0.05
832.774	0.72
832.944	-0.62
833.114	-0.69
833.284	0.58
833.454	-0.59
833.624	-1.2
833.795	-0.45
833.965	0.59
834.135	0.8
834.305	-1.12
834.475	-0.54
834.645	-0.2
834.815	-0.17
834.985	-1.13
835.155	-0.35
835.325	0.77
835.494	-0
835.664	-0.08
835.834	-0.88
836.004	-0.01
836.174	0.11
836.344	-0.23
836.514	-0.47
836.684	-0.12
836.853	0.34
837.023	-0.22
837.193	-0.61
837.363	1.01
837.532	0.16
837.702	-0.07
837.872	-0.51
838.041	0.8
838.211	1.08
838.381	-0.84
838.55	0.32
838.72	1.76
838.89	0.96
839.059	-0.28
839.229	-0.85
839.398	1.44
839.568	0.32
839.738	-0.38
839.907	0.75
840.077	0.17
840.246	-0.74
840.416	-1.74
840.585	-0.92
840.755	0.85
840.924	1.01
841.093	-0.95
841.263	-0.38
841.432	0.22
841.602	-0.52
841.771	-0.65
841.94	-0.47
842.11	1.33
842.279	1.66
842.448	-0.71
842.617	-0.64
842.787	0.28
842.956	-0.63
843.125	-0.85
843.294	-0.23
843.464	1.71
843.633	-0.32
843.802	-1.25
843.971	0.03
844.14	0.06
844.309	0.58
844.479	-1.18
844.648	-0.47
844.817	-0.61
844.986	0.3
845.155	-0.34
845.324	0.21
845.493	-0.18
845.662	-1.26
845.831	-0.57
846	-0.05
846.169	-0.43
846.338	1.15
846.507	-0.31
846.676	0.54
846.844	-1.15
847.013	0.96
847.182	0.08
847.351	-1.22
847.52	0.14
847.689	0.42
847.858	-0.41
848.026	-1.06
848.195	-0.28
848.364	-0.92
848.533	-1.21
848.701	-1.06
848.87	0.59
849.039	0.6
849.207	0.63
849.376	0.63
849.545	1.06
849.713	-0.5
849.882	-0.53
850.051	0.08
850.219	0.48
850.388	0.48
850.556	-0.4
850.725	-0.9
850.893	0.54
851.062	0.15
851.23	-0.04
851.399	-1.68
851.567	0.11
851.736	-0.88
851.904	-0.28
852.073	-0.59
852.241	0.28
852.41	-1.09
852.578	-0.37
852.746	-0.15
852.915	0.2
853.083	-0.23
853.251	-0.14
853.42	-1.05
853.588	-0.31
853.756	0.49
853.924	-1.14
854.093	-0.62
854.261	-0.65
854.429	-1.47
854.597	0.11
854.765	-1.42
854.934	-0.13
855.102	1.18
855.27	-0.78
855.438	0.61
855.606	0.97
855.774	1.33
855.942	-1.71
856.11	-1.76
856.278	-0.11
856.446	0.27
856.614	-0.6
856.782	-1.27
856.95	-0.05
857.118	1.09
857.286	0.28
857.454	-1.72
857.622	0.3
857.79	0.54
857.958	-0.8
858.126	-0.94
858.294	-2.37
858.462	0.02
858.629	-1.14
858.797	-0.54
858.965	-0.07
859.133	0.06
859.301	-0.47
859.468	0.52
859.636	-1.12
859.804	1.72
859.971	-0.49
860.139	-1.18
860.307	0.4
860.474	0.1
860.642	-1.02
860.81	-0.85
860.977	-0.78
861.145	-0.42
861.313	-0.98
861.48	0.32
861.648	1.56
861.815	-0.52
861.983	-1.64
862.15	0.41
862.318	0.32
862.485	0.95
862.653	-0.01
862.82	-0.57
862.988	2.06
863.155	2.45
863.322	-1.63
863.49	-1.83
863.657	-0.75
863.824	1.14
863.992	-0.97
864.159	0.32
864.326	1.29
864.494	0.1
864.661	2.49
864.828	-1.31
864.996	1.64
865.163	2.85
865.33	-1.42
865.497	-2.1
865.664	-0.75
865.832	-2.37
865.999	-0.78
866.166	-1.29
866.333	-1.22
866.5	-1.34
866.667	0.37
866.834	0.94
867.001	0.25
867.168	-1.83
867.335	0.75
867.502	-2.5
867.669	0.21
867.836	3.16
868.003	-0.08
868.17	1.43
868.337	-0.75
868.504	3.22
868.671	-1.83
868.838	-0.41
869.005	0.54
869.172	0.7
869.339	0.92
869.505	-0.93
869.672	0.24
869.839	1.41
870.006	0.83
870.173	-2.22
870.339	1.06
870.506	3.12
870.673	-2.1
870.84	1.59
871.006	0.33
871.173	0.21
871.34	-0.07
871.506	-2.01
871.673	0.66
871.839	-3.32
872.006	0.33
872.173	-0.1
872.339	0.72
872.506	-0.3
872.672	-1.1
872.839	-1.82
873.005	-0.62
873.172	2.15
873.338	1.35
873.505	0.57
873.671	-1.13
873.838	0.02
874.004	-3.06
874.171	-0.62
874.337	-0.36
874.503	-0.02
874.67	1.24
874.836	-0.47
875.002	2.45
875.169	1.2
875.335	-1.73
875.501	-1.05
875.668	1.13
875.834	-0.25
876	-0.04
876.166	-0.48
876.332	-0.23
876.499	3.25
876.665	-1.05
876.831	0.4
876.997	2.36
877.163	0.22
877.329	-1.59
877.495	-0.09
877.662	-0.17
877.828	-0.15
877.994	-0.31
878.16	-2.81
878.326	-0.8
878.492	1.09
878.658	0.33
878.824	0.15
878.99	0.8
879.156	-0.17
879.322	2.84
879.487	-0.08
879.653	0.24
879.819	-0.3
879.985	-1.15
880.151	0.54
880.317	1.46
880.483	1.27
880.648	0.45
880.814	-2.52
880.98	0.3
881.146	-2.95
881.312	-0.41
881.477	-0.08
881.643	-1.07
881.809	1.62
881.974	1.28
882.14	-0.47
882.306	0.05
882.471	3.62
882.637	1.07
882.803	-0.49
882.968	1.96
883.134	2.92
883.299	0.39
883.465	-0.8
883.63	0.95
883.796	0.69
883.961	0.28
884.127	1.36
884.292	-3.9
884.458	-3.25
884.623	-3.25
