Data from Apollo_Calib_20240827__AbsoluteIrradiance__643__09-52-01-694.txt Node

Date: Wed Aug 28 09:52:01 BST 2024
User: biology
Spectrometer: FLMT08252
Trigger mode: 0
Integration Time (sec): 5.000000E-1
Scans to average: 5
Electric dark correction enabled: true
Nonlinearity correction enabled: false
Boxcar width: 0
XAxis mode: Wavelengths
Number of Pixels in Spectrum: 3648
>>>>>Begin Spectral Data<<<<<
179.588	-0
179.809	-0
180.03	-0
180.251	-0
180.473	-0
180.694	0
180.915	0
181.136	-0
181.357	0
181.578	-0
181.799	-0
182.02	-0
182.241	-0
182.462	-0
182.683	0
182.904	-0
183.125	0
183.346	0
183.567	0
183.788	-0
184.009	-0
184.23	0
184.451	0
184.672	-0
184.892	-0
185.113	0
185.334	0
185.555	-0
185.776	-0
185.996	0
186.217	0
186.438	-0
186.659	-0
186.879	0
187.1	-0
187.321	-0
187.541	-0
187.762	0
187.983	0
188.203	-0
188.424	0
188.644	0
188.865	0
189.086	-0
189.306	0
189.527	0
189.747	0
189.968	-0
190.188	0
190.409	-0
190.629	0
190.849	-0
191.07	-0
191.29	0
191.511	-0
191.731	-0
191.951	-0
192.172	0
192.392	-0
192.612	-0
192.833	0
193.053	0
193.273	0
193.493	-0
193.714	-0
193.934	0
194.154	0
194.374	-0
194.594	0
194.815	0
195.035	0
195.255	0
195.475	-0
195.695	0
195.915	0
196.135	-0
196.355	0
196.575	0
196.795	-0
197.015	-0
197.235	-0
197.455	-0
197.675	0
197.895	-0
198.115	-0
198.335	0
198.555	-0
198.775	0
198.995	0
199.214	0
199.434	0
199.654	-0
199.874	-0
200.094	0.84
200.313	-0.2
200.533	-0.02
200.753	-0.28
200.973	0.76
201.192	0.46
201.412	-0.62
201.632	-0.02
201.851	0.97
202.071	-0.43
202.291	-0.44
202.51	-0.71
202.73	0.34
202.95	-0.16
203.169	-0.36
203.389	-0.25
203.608	-0.16
203.828	-0.39
204.047	-0.39
204.267	0.37
204.486	-0.13
204.706	0.33
204.925	-0.01
205.145	0.05
205.364	0.31
205.583	0.61
205.803	0.06
206.022	-0.29
206.242	0.35
206.461	-0.03
206.68	-0.11
206.9	0.07
207.119	0.55
207.338	0.44
207.557	-0.13
207.777	0.1
207.996	-0.07
208.215	0.3
208.434	-0.09
208.654	-0.4
208.873	0.11
209.092	0.63
209.311	-0.08
209.53	0.11
209.749	-0
209.968	-0.2
210.187	0.05
210.407	-0.53
210.626	-0.09
210.845	0.41
211.064	0.04
211.283	-0.32
211.502	0.28
211.721	-0.09
211.94	-0.34
212.159	0.17
212.377	0.21
212.596	0.28
212.815	-0.03
213.034	0.12
213.253	0.39
213.472	0.31
213.691	-0.14
213.91	-0.19
214.128	0.02
214.347	0.45
214.566	-0.36
214.785	-0.31
215.003	0.22
215.222	-0.06
215.441	0.13
215.66	-0.37
215.878	-0
216.097	0.14
216.316	-0.16
216.534	-0.24
216.753	0.15
216.972	-0.06
217.19	-0.07
217.409	-0.22
217.627	-0.1
217.846	0.03
218.064	-0
218.283	-0.08
218.501	0.53
218.72	0.26
218.938	-0.32
219.157	-0.16
219.375	0.18
219.594	0.12
219.812	-0.26
220.031	-0.17
220.249	0.26
220.467	0.36
220.686	-0.06
220.904	-0.24
221.122	-0.09
221.341	0.4
221.559	0.08
221.777	-0.17
221.995	-0.08
222.214	0.2
222.432	0.04
222.65	0.31
222.868	0.11
223.086	0.18
223.305	0.14
223.523	0.03
223.741	0.3
223.959	-0.06
224.177	-0.24
224.395	-0.04
224.613	0.04
224.831	0.23
225.049	-0.04
225.267	-0.06
225.485	0.01
225.703	-0.02
225.921	-0.11
226.139	0.03
226.357	0.16
226.575	0.02
226.793	-0.14
227.011	0.57
227.229	-0.07
227.447	0.18
227.665	0.03
227.883	-0.31
228.1	0.04
228.318	0.13
228.536	-0.3
228.754	-0.16
228.972	0.14
229.189	0.15
229.407	-0.11
229.625	-0.04
229.843	0.18
230.06	0.14
230.278	-0.12
230.496	-0.03
230.713	0.01
230.931	0.13
231.149	-0.01
231.366	-0.24
231.584	-0.04
231.801	0.4
232.019	-0.04
232.236	-0.15
232.454	-0.02
232.671	0.03
232.889	-0.03
233.106	-0.06
233.324	-0.03
233.541	-0.09
233.759	0.02
233.976	-0.06
234.194	-0.04
234.411	-0
234.628	-0.07
234.846	-0.09
235.063	0.05
235.28	-0
235.498	0.02
235.715	-0.08
235.932	0.14
236.149	0.08
236.367	-0.14
236.584	0.02
236.801	-0.03
237.018	0.14
237.236	-0
237.453	-0.1
237.67	0.16
237.887	-0.06
238.104	-0.07
238.321	-0.02
238.538	0.03
238.755	0.08
238.973	-0.22
239.19	-0.01
239.407	0.04
239.624	0.04
239.841	-0.14
240.058	-0.03
240.275	0.05
240.492	-0.05
240.709	0.04
240.925	0.01
241.142	0.06
241.359	-0.07
241.576	-0.1
241.793	-0.08
242.01	0.02
242.227	0.09
242.444	0
242.66	0.13
242.877	0.02
243.094	0.06
243.311	0.1
243.527	-0.06
243.744	0.05
243.961	-0.01
244.178	-0.08
244.394	0.08
244.611	0.08
244.828	0.11
245.044	-0.16
245.261	0.05
245.477	0.04
245.694	0.12
245.911	0.01
246.127	-0.06
246.344	0.17
246.56	0.04
246.777	0.05
246.993	-0.07
247.21	0.01
247.426	0.12
247.643	-0.06
247.859	-0.1
248.076	-0.05
248.292	0.16
248.508	-0.06
248.725	0.01
248.941	0.04
249.157	0.1
249.374	-0.03
249.59	0.04
249.806	-0.04
250.023	0.09
250.239	-0.06
250.455	-0.12
250.671	-0.07
250.888	0.1
251.104	0.02
251.32	-0.03
251.536	-0.04
251.752	-0.03
251.969	0.03
252.185	-0.01
252.401	0.19
252.617	0.04
252.833	-0.09
253.049	-0.07
253.265	0.03
253.481	0.02
253.697	-0.02
253.913	-0.04
254.129	0.01
254.345	0.07
254.561	-0.03
254.777	0.05
254.993	0.04
255.209	0.05
255.425	-0.04
255.641	-0.09
255.857	0.17
256.073	-0.08
256.288	-0.09
256.504	0.02
256.72	0.03
256.936	0.04
257.152	-0.05
257.367	-0.02
257.583	-0.03
257.799	0.08
258.015	0
258.23	-0.06
258.446	0.18
258.662	-0.01
258.877	-0.07
259.093	-0.05
259.309	-0.02
259.524	-0
259.74	0.05
259.955	-0.07
260.171	0.06
260.387	-0
260.602	0.07
260.818	0.05
261.033	-0.06
261.249	-0.03
261.464	-0.01
261.68	-0.15
261.895	0.01
262.11	0.09
262.326	-0.03
262.541	-0.08
262.757	0.08
262.972	0.03
263.187	0.05
263.403	0.01
263.618	0.02
263.833	0.02
264.049	-0.01
264.264	0.04
264.479	0.04
264.694	0.11
264.91	-0.08
265.125	-0.1
265.34	0.05
265.555	0.14
265.77	0.07
265.986	-0.02
266.201	0.07
266.416	0.1
266.631	-0.06
266.846	0.01
267.061	0.02
267.276	-0
267.491	-0.18
267.706	0.02
267.921	0.02
268.136	0.01
268.351	-0.01
268.566	-0.08
268.781	0.06
268.996	0.06
269.211	0
269.426	-0.06
269.641	-0.02
269.856	0.02
270.071	0.01
270.285	-0.06
270.5	0.09
270.715	0.05
270.93	0.06
271.145	0.08
271.359	0.08
271.574	-0.06
271.789	-0.01
272.004	-0.05
272.218	0.02
272.433	0.08
272.648	-0.03
272.862	0.07
273.077	-0.03
273.292	0.02
273.506	-0.08
273.721	0.02
273.936	0.04
274.15	0.13
274.365	0.01
274.579	0.04
274.794	0.02
275.008	0.12
275.223	-0.1
275.437	0.02
275.652	0.06
275.866	0.05
276.081	-0.04
276.295	0.07
276.509	0
276.724	-0.04
276.938	0.09
277.153	0.05
277.367	0.05
277.581	-0.09
277.796	-0.01
278.01	-0.05
278.224	0.05
278.438	0.12
278.653	-0.07
278.867	-0.02
279.081	-0.17
279.295	-0.01
279.51	0.07
279.724	-0.08
279.938	-0.01
280.152	0.04
280.366	-0.04
280.58	0.01
280.794	0.08
281.008	0.03
281.222	0.07
281.437	0.09
281.651	0.03
281.865	0.11
282.079	-0.01
282.293	-0.08
282.507	-0.07
282.721	0
282.935	0.04
283.148	-0.11
283.362	-0.02
283.576	-0.07
283.79	0.02
284.004	-0.06
284.218	0.09
284.432	-0.03
284.646	0.03
284.859	-0.01
285.073	0
285.287	0.01
285.501	-0.03
285.714	-0.01
285.928	0.07
286.142	0.01
286.356	0.01
286.569	-0.03
286.783	0.12
286.997	0.02
287.21	0.04
287.424	-0.01
287.637	0.02
287.851	-0
288.065	0.07
288.278	-0.01
288.492	0.03
288.705	0.05
288.919	0.07
289.132	-0.05
289.346	0.09
289.559	-0.04
289.773	-0.02
289.986	0.01
290.2	0.01
290.413	0.09
290.626	-0.03
290.84	-0.01
291.053	-0
291.267	0.1
291.48	-0.01
291.693	-0.02
291.906	-0.01
292.12	-0.04
292.333	-0.06
292.546	0.01
292.76	0.03
292.973	0.04
293.186	0.08
293.399	-0.01
293.612	0.05
293.826	0.03
294.039	-0.02
294.252	0.03
294.465	0.06
294.678	0.02
294.891	0
295.104	-0.08
295.317	-0.01
295.53	-0
295.743	-0
295.956	0.03
296.169	0.08
296.382	0.03
296.595	-0.02
296.808	-0.05
297.021	0.04
297.234	0.01
297.447	0.03
297.66	0.01
297.873	0.06
298.086	0.03
298.299	-0.03
298.511	-0.03
298.724	-0.02
298.937	-0.01
299.15	0.01
299.363	0.04
299.575	0.04
299.788	0.05
300.001	-0.01
300.213	-0.05
300.426	-0.02
300.639	0
300.852	-0
301.064	0.03
301.277	0.09
301.489	0.05
301.702	0.06
301.915	0.03
302.127	-0
302.34	0.02
302.552	0.03
302.765	0.01
302.977	0.02
303.19	-0.01
303.402	-0.02
303.615	-0.01
303.827	-0.03
304.04	0.04
304.252	0.03
304.464	-0.01
304.677	0.14
304.889	0.09
305.102	-0.04
305.314	-0.03
305.526	0.05
305.739	0.01
305.951	-0.04
306.163	-0.02
306.375	0.09
306.588	-0
306.8	0.03
307.012	-0.06
307.224	0.01
307.436	0.09
307.649	-0.05
307.861	0.01
308.073	0.04
308.285	-0.01
308.497	-0.03
308.709	-0.02
308.921	0.04
309.133	0.05
309.346	-0.01
309.558	-0.01
309.77	0.07
309.982	0.08
310.194	0
310.406	-0
310.617	0.07
310.829	0.02
311.041	0.02
311.253	-0.02
311.465	-0.03
311.677	0
311.889	0.02
312.101	0
312.313	0.06
312.524	0.04
312.736	-0.06
312.948	-0.04
313.16	0.1
313.372	-0
313.583	0.02
313.795	-0.02
314.007	-0.06
314.218	0
314.43	-0.01
314.642	-0.02
314.853	0.02
315.065	0.05
315.277	-0.02
315.488	0.02
315.7	0.06
315.912	0.04
316.123	0.05
316.335	-0
316.546	0.11
316.758	-0.04
316.969	-0.01
317.181	0.05
317.392	-0.01
317.604	0.04
317.815	-0.03
318.026	-0.03
318.238	0.02
318.449	0.03
318.661	-0.04
318.872	-0.06
319.083	-0.05
319.295	0.05
319.506	-0.02
319.717	0.05
319.929	0.04
320.14	0.02
320.351	0.05
320.562	-0.02
320.774	0
320.985	0.01
321.196	-0.05
321.407	-0.09
321.618	0.02
321.829	0.01
322.041	0.04
322.252	0.01
322.463	0.03
322.674	0.04
322.885	-0.03
323.096	0
323.307	-0.01
323.518	0.02
323.729	-0.01
323.94	-0.04
324.151	-0
324.362	0.03
324.573	0.01
324.784	-0.02
324.995	0.05
325.206	0.03
325.417	-0.01
325.628	-0.01
325.838	-0.01
326.049	-0.01
326.26	0.04
326.471	0.01
326.682	0.05
326.892	0
327.103	-0.06
327.314	-0.04
327.525	0.05
327.735	0.02
327.946	0
328.157	0.01
328.368	-0
328.578	-0.01
328.789	0
328.999	-0
329.21	-0.02
329.421	0.01
329.631	-0.04
329.842	-0
330.052	0.01
330.263	0.06
330.473	0.04
330.684	0.02
330.894	0.02
331.105	-0.01
331.315	0.02
331.526	-0.04
331.736	0.04
331.947	0.03
332.157	0.03
332.367	-0.04
332.578	0.02
332.788	0.08
332.999	0.01
333.209	0.02
333.419	-0.02
333.629	0.01
333.84	0.01
334.05	-0.04
334.26	0.06
334.47	0.03
334.681	0.07
334.891	-0.01
335.101	0.07
335.311	0.08
335.521	0.05
335.732	-0.09
335.942	0.07
336.152	0.03
336.362	0.01
336.572	0.01
336.782	0.02
336.992	-0.02
337.202	-0.01
337.412	-0
337.622	0.06
337.832	0.02
338.042	0.02
338.252	-0.04
338.462	-0.03
338.672	0.02
338.882	-0.08
339.092	-0.01
339.302	0.1
339.511	-0.01
339.721	-0.02
339.931	-0.05
340.141	0.05
340.351	0.03
340.561	-0.01
340.77	0.02
340.98	0.01
341.19	0.02
341.4	-0.06
341.609	-0.05
341.819	-0.04
342.029	-0.04
342.238	-0.02
342.448	-0.03
342.658	-0
342.867	-0.03
343.077	0.01
343.286	0.03
343.496	-0.01
343.706	0.07
343.915	-0.01
344.125	-0.01
344.334	0.07
344.544	-0.05
344.753	0.02
344.963	-0.03
345.172	0.01
345.381	-0.01
345.591	-0.01
345.8	0.01
346.01	0.05
346.219	0.06
346.428	-0.03
346.638	-0.01
346.847	0.03
347.056	0.03
347.266	0.01
347.475	-0.02
347.684	0.04
347.893	0.05
348.103	0.02
348.312	0.02
348.521	-0.05
348.73	-0.02
348.94	0
349.149	0.04
349.358	0
349.567	0.01
349.776	-0.04
349.985	-0.02
350.194	0.06
350.403	-0.02
350.612	-0.05
350.821	-0
351.03	-0
351.239	-0.05
351.448	-0.04
351.657	0.01
351.866	0.09
352.075	0
352.284	0
352.493	-0.04
352.702	0.06
352.911	0.02
353.12	0.02
353.329	-0
353.538	0.01
353.746	-0
353.955	-0.02
354.164	0.03
354.373	0
354.582	0.05
354.79	0.01
354.999	0.05
355.208	-0.03
355.416	0.04
355.625	-0.03
355.834	0.01
356.042	0.04
356.251	-0.01
356.46	-0.03
356.668	-0.01
356.877	0.04
357.085	0.09
357.294	-0.07
357.503	0.06
357.711	0.01
357.92	0.11
358.128	0.03
358.337	-0.01
358.545	0.02
358.754	-0.05
358.962	0.04
359.17	-0
359.379	-0.02
359.587	0.05
359.796	-0.03
360.004	0.02
360.212	0
360.421	0.05
360.629	-0.01
360.837	-0.01
361.046	0.03
361.254	0.06
361.462	0.03
361.67	0
361.879	0.04
362.087	0.05
362.295	-0.03
362.503	0.02
362.711	-0.01
362.92	-0.04
363.128	-0.01
363.336	-0.06
363.544	-0.06
363.752	-0.03
363.96	-0.02
364.168	-0.04
364.376	0.01
364.584	-0.05
364.792	0.03
365	0.01
365.208	-0.04
365.416	0.03
365.624	0.03
365.832	-0.03
366.04	0.04
366.248	0.02
366.456	0.02
366.664	0.02
366.872	0
367.079	0
367.287	-0.01
367.495	0.02
367.703	0
367.911	-0.01
368.118	0.05
368.326	0.01
368.534	-0.01
368.742	0.07
368.949	-0.06
369.157	-0.02
369.365	0.02
369.572	0.02
369.78	-0.03
369.988	0.04
370.195	0.03
370.403	-0
370.61	-0.02
370.818	0.04
371.026	0.1
371.233	-0.01
371.441	-0
371.648	-0.03
371.856	0.01
372.063	0.04
372.271	-0.02
372.478	-0.02
372.685	-0.05
372.893	0.04
373.1	0.02
373.308	-0
373.515	0.06
373.722	0.01
373.93	-0.03
374.137	0.02
374.344	0.07
374.552	0.03
374.759	0.01
374.966	0.02
375.173	0
375.381	0.05
375.588	0
375.795	-0.02
376.002	-0.03
376.209	-0.06
376.417	0.01
376.624	-0.01
376.831	0.02
377.038	-0.02
377.245	-0.05
377.452	-0.03
377.659	0.03
377.866	-0.03
378.073	-0.01
378.28	-0
378.487	0.04
378.694	0.04
378.901	0.01
379.108	0.02
379.315	0.02
379.522	0.12
379.729	0.05
379.936	0.01
380.143	-0.01
380.35	0
380.557	0.02
380.763	-0
380.97	0
381.177	0.02
381.384	0.07
381.591	-0.02
381.797	-0.01
382.004	0.01
382.211	0.03
382.418	-0.02
382.624	0.04
382.831	0.01
383.038	-0.03
383.244	0.02
383.451	-0.02
383.658	0.02
383.864	-0.05
384.071	-0.02
384.277	0.11
384.484	-0.04
384.69	0.03
384.897	-0.06
385.103	-0.02
385.31	-0.03
385.516	-0.04
385.723	0
385.929	-0.01
386.136	-0
386.342	0.01
386.549	0.01
386.755	0.09
386.961	0
387.168	-0.02
387.374	0.01
387.58	0.03
387.787	-0
387.993	0.03
388.199	-0.02
388.406	-0.02
388.612	0.02
388.818	-0.03
389.024	-0.03
389.231	-0
389.437	0.09
389.643	0.01
389.849	0.05
390.055	-0
390.261	0.03
390.467	0.02
390.674	-0.03
390.88	-0.03
391.086	0.01
391.292	-0
391.498	0.02
391.704	0.04
391.91	0.02
392.116	-0.02
392.322	-0.1
392.528	0
392.734	0.01
392.94	0
393.146	0.01
393.352	0.02
393.557	-0.02
393.763	0.02
393.969	0.02
394.175	0
394.381	-0.02
394.587	-0.04
394.792	-0.01
394.998	0.02
395.204	0.04
395.41	-0.01
395.615	-0.01
395.821	-0
396.027	0.05
396.233	-0.03
396.438	0.01
396.644	0.06
396.85	-0
397.055	-0.01
397.261	0.05
397.466	0
397.672	0.05
397.878	0.01
398.083	0.03
398.289	-0.04
398.494	0.07
398.7	0.06
398.905	-0.08
399.111	0.06
399.316	-0.01
399.522	-0.02
399.727	0
399.932	-0
400.138	-0.02
400.343	0.04
400.549	0.02
400.754	0.05
400.959	-0.03
401.165	0.02
401.37	0.06
401.575	0.09
401.78	-0
401.986	-0.03
402.191	-0.02
402.396	-0.05
402.601	-0.01
402.807	0.02
403.012	0.02
403.217	0.05
403.422	0.01
403.627	0
403.832	-0.02
404.037	0.02
404.243	0.03
404.448	-0.02
404.653	-0.04
404.858	0.04
405.063	0.03
405.268	-0.06
405.473	-0.02
405.678	-0.04
405.883	0.15
406.088	0.03
406.293	-0.03
406.498	-0.01
406.703	0.01
406.907	-0.01
407.112	-0.04
407.317	0.01
407.522	0.03
407.727	-0.07
407.932	0.02
408.136	0.09
408.341	-0
408.546	0.04
408.751	0.02
408.956	-0.03
409.16	-0.01
409.365	0.03
409.57	-0.03
409.774	0.01
409.979	0.04
410.184	0.05
410.388	-0.05
410.593	0.05
410.798	-0.02
411.002	-0.02
411.207	0.01
411.411	0.02
411.616	-0.06
411.82	0
412.025	0.03
412.229	-0.04
412.434	0.06
412.638	0.05
412.843	-0.05
413.047	-0.07
413.252	-0.01
413.456	-0.02
413.66	0.06
413.865	-0.05
414.069	0.06
414.273	-0.03
414.478	-0
414.682	-0.05
414.886	-0.02
415.091	-0.05
415.295	-0.05
415.499	0.01
415.703	-0.03
415.908	0.01
416.112	-0.05
416.316	0.03
416.52	-0.03
416.724	-0.06
416.929	-0.03
417.133	0.05
417.337	-0.02
417.541	-0.03
417.745	-0
417.949	0.02
418.153	0.01
418.357	-0.03
418.561	0.08
418.765	0.03
418.969	0.1
419.173	0.07
419.377	-0.03
419.581	0.12
419.785	-0.02
419.989	-0.06
420.193	0.01
420.397	-0.03
420.601	0
420.804	0.04
421.008	-0.02
421.212	0.01
421.416	0.03
421.62	-0.01
421.823	-0
422.027	0.1
422.231	0.04
422.435	0
422.638	0.06
422.842	-0.03
423.046	-0.02
423.249	0.01
423.453	0.05
423.657	0.06
423.86	-0.02
424.064	-0
424.268	0.04
424.471	-0.01
424.675	0.04
424.878	0.06
425.082	-0.02
425.285	0.08
425.489	0
425.692	0.01
425.896	-0.05
426.099	0.03
426.303	-0.06
426.506	-0.04
426.71	0.05
426.913	0.04
427.116	0.05
427.32	-0
427.523	0.02
427.726	0.08
427.93	-0.06
428.133	-0.02
428.336	-0.03
428.54	-0.05
428.743	0.03
428.946	-0.01
429.149	-0.03
429.353	-0.05
429.556	-0.01
429.759	-0.03
429.962	-0.03
430.165	-0.04
430.368	-0.02
430.571	-0.04
430.775	0.05
430.978	0
431.181	0.01
431.384	0.05
431.587	0.02
431.79	0
431.993	0.03
432.196	0.02
432.399	-0.02
432.602	0.02
432.805	-0.01
433.008	-0.06
433.211	-0.05
433.414	0.02
433.616	0.07
433.819	0.04
434.022	-0.13
434.225	0.03
434.428	0.01
434.631	0.12
434.833	0.02
435.036	0.02
435.239	0.07
435.442	-0.02
435.645	-0.01
435.847	-0.01
436.05	0.06
436.253	0.02
436.455	-0.04
436.658	-0.06
436.861	0.07
437.063	-0.05
437.266	0
437.468	0.03
437.671	0.15
437.874	-0
438.076	-0.04
438.279	-0.07
438.481	0.03
438.684	-0.04
438.886	0.03
439.089	-0.06
439.291	-0.02
439.494	-0
439.696	-0.04
439.899	-0.02
440.101	0
440.303	-0.08
440.506	0.02
440.708	0
440.91	0.03
441.113	-0.02
441.315	0.05
441.517	-0.05
441.72	0.07
441.922	-0.02
442.124	-0.05
442.326	-0.01
442.529	0.09
442.731	-0.05
442.933	0.04
443.135	-0
443.337	-0.06
443.539	-0.03
443.742	-0.02
443.944	-0.03
444.146	-0.06
444.348	-0.03
444.55	-0.06
444.752	-0.02
444.954	-0.07
445.156	0.05
445.358	-0.02
445.56	0.07
445.762	0.01
445.964	-0.02
446.166	-0.05
446.368	-0.05
446.57	-0.01
446.772	-0.03
446.974	-0.02
447.175	-0.04
447.377	-0.04
447.579	-0.05
447.781	-0.09
447.983	0.09
448.184	0.02
448.386	0.02
448.588	-0.07
448.79	0.02
448.991	-0.03
449.193	-0.01
449.395	0.01
449.597	-0
449.798	0.03
450	0.05
450.202	-0
450.403	0
450.605	0.02
450.806	0.01
451.008	-0.14
451.21	0.04
451.411	0.05
451.613	0.01
451.814	-0.03
452.016	0.05
452.217	-0.05
452.419	0.04
452.62	0.01
452.821	0.03
453.023	0.04
453.224	0.05
453.426	-0.07
453.627	0.06
453.828	0.02
454.03	0.06
454.231	0.01
454.432	-0
454.634	0.12
454.835	-0.02
455.036	-0.06
455.238	0.04
455.439	0.06
455.64	-0.08
455.841	-0.06
456.042	0.11
456.244	0.03
456.445	-0.04
456.646	-0.07
456.847	-0.06
457.048	0.06
457.249	0.06
457.45	0.16
457.651	-0.06
457.852	0.06
458.054	-0
458.255	-0.02
458.456	0
458.657	0.04
458.858	-0.05
459.058	-0.03
459.259	0
459.46	-0.03
459.661	-0.01
459.862	0.11
460.063	0.01
460.264	0.06
460.465	-0.07
460.666	0.12
460.866	-0.04
461.067	-0
461.268	-0.03
461.469	-0.01
461.67	0.03
461.87	-0.05
462.071	-0.04
462.272	-0.03
462.473	-0.03
462.673	0.04
462.874	-0.07
463.075	-0.01
463.275	-0.07
463.476	-0
463.676	-0.01
463.877	0.02
464.078	-0.03
464.278	0.06
464.479	-0.02
464.679	0
464.88	-0.03
465.08	0.09
465.281	-0.05
465.481	-0.03
465.682	-0.02
465.882	0.03
466.083	-0.02
466.283	-0.01
466.483	0.01
466.684	-0.05
466.884	-0.03
467.085	0
467.285	0.02
467.485	-0.03
467.686	-0.04
467.886	-0.07
468.086	0.06
468.286	0.04
468.487	0
468.687	-0.04
468.887	-0.02
469.087	0.01
469.287	0
469.488	-0.05
469.688	0.04
469.888	0.04
470.088	0.04
470.288	0.03
470.488	0.08
470.688	-0.05
470.888	-0.02
471.088	-0.02
471.288	0.07
471.488	0.02
471.688	0.01
471.888	-0.07
472.088	0.03
472.288	0.04
472.488	-0.01
472.688	-0.05
472.888	-0.01
473.088	0.01
473.288	0.01
473.488	0
473.688	0.07
473.887	-0.01
474.087	-0.02
474.287	0.02
474.487	-0.02
474.687	0.02
474.886	-0.02
475.086	-0.03
475.286	-0
475.486	0.02
475.685	-0.02
475.885	-0.02
476.085	-0
476.284	0.02
476.484	-0
476.684	-0
476.883	0.03
477.083	0.06
477.282	-0.01
477.482	0.04
477.681	0.04
477.881	0.01
478.08	-0.05
478.28	-0.04
478.479	0.01
478.679	0.06
478.878	-0.03
479.078	-0.04
479.277	-0.04
479.477	0.01
479.676	0.02
479.875	0.01
480.075	-0.09
480.274	0.01
480.473	-0.01
480.673	-0.04
480.872	0.02
481.071	0.02
481.271	0.02
481.47	-0.01
481.669	-0.03
481.868	-0.02
482.067	-0.05
482.267	-0.03
482.466	-0.02
482.665	-0.04
482.864	-0.04
483.063	-0.04
483.262	-0
483.461	0.05
483.661	0.04
483.86	0.02
484.059	0.02
484.258	0.02
484.457	-0.02
484.656	0.01
484.855	0.04
485.054	-0.04
485.253	-0
485.452	-0.04
485.651	-0.02
485.849	0.02
486.048	-0.01
486.247	-0.01
486.446	-0.05
486.645	-0.05
486.844	-0.01
487.043	-0.02
487.241	0.03
487.44	-0.02
487.639	-0.03
487.838	0.02
488.037	0.04
488.235	0.04
488.434	0.01
488.633	0.01
488.831	-0
489.03	0.04
489.229	0.03
489.427	-0.01
489.626	0.04
489.825	0.03
490.023	0.01
490.222	-0.01
490.42	0.01
490.619	0.02
490.817	0.01
491.016	-0.01
491.214	0.02
491.413	0
491.611	-0.01
491.81	-0
492.008	0.01
492.207	0.01
492.405	0.01
492.604	-0.05
492.802	0
493	-0
493.199	-0.02
493.397	0
493.595	-0.01
493.794	-0.02
493.992	0.05
494.19	0.01
494.388	0.01
494.587	-0.01
494.785	0.01
494.983	-0.02
495.181	-0.01
495.379	-0.02
495.578	-0.02
495.776	0.02
495.974	0.01
496.172	-0
496.37	-0
496.568	-0.01
496.766	-0.02
496.964	0.02
497.162	0.01
497.36	-0.03
497.558	0.03
497.756	0.03
497.954	0.02
498.152	-0.03
498.35	0.01
498.548	-0.01
498.746	0.01
498.944	-0.03
499.142	-0.01
499.34	-0.04
499.538	0
499.736	-0.02
499.933	0.02
500.131	0.02
500.329	0.01
500.527	0.02
500.725	0.02
500.922	0.02
501.12	0.01
501.318	-0.01
501.516	-0.04
501.713	0
501.911	0
502.109	-0.04
502.306	0
502.504	-0.01
502.701	-0.03
502.899	-0.03
503.097	0.04
503.294	0.01
503.492	-0.01
503.689	0.01
503.887	0.03
504.084	0.05
504.282	0.02
504.479	-0.03
504.677	0.02
504.874	-0.02
505.072	-0.01
505.269	-0.01
505.466	0.01
505.664	0.02
505.861	-0.04
506.059	-0.03
506.256	-0
506.453	-0.02
506.651	0.03
506.848	0.01
507.045	0.01
507.242	-0
507.44	-0.01
507.637	0.01
507.834	-0
508.031	0.02
508.229	-0
508.426	-0.01
508.623	-0
508.82	-0.01
509.017	-0.02
509.214	-0.01
509.411	-0.01
509.608	-0.03
509.805	-0.01
510.003	-0.03
510.2	-0.02
510.397	0.03
510.594	-0.02
510.791	-0.02
510.988	-0.02
511.184	0.04
511.381	-0.01
511.578	-0.01
511.775	0.03
511.972	-0.01
512.169	0
512.366	-0
512.563	0.02
512.76	0.01
512.956	0.02
513.153	-0.01
513.35	0.01
513.547	0.01
513.744	-0.04
513.94	-0.03
514.137	-0
514.334	0.02
514.53	0.01
514.727	0.01
514.924	0.03
515.12	-0.02
515.317	-0.04
515.514	0
515.71	-0.05
515.907	-0.01
516.103	-0.03
516.3	0.02
516.497	0.01
516.693	0
516.89	0.01
517.086	-0.02
517.283	0.04
517.479	0.01
517.676	-0.01
517.872	0.01
518.068	-0
518.265	-0.01
518.461	-0.02
518.658	-0.02
518.854	0.01
519.05	-0.03
519.247	-0.03
519.443	0.02
519.639	-0.01
519.836	-0.02
520.032	0
520.228	0
520.424	0.03
520.621	0.03
520.817	0.01
521.013	0.01
521.209	0
521.405	0.04
521.601	-0.01
521.798	0.02
521.994	0.02
522.19	-0.04
522.386	-0.02
522.582	0
522.778	-0
522.974	-0
523.17	0
523.366	-0
523.562	0.03
523.758	-0.01
523.954	-0.02
524.15	-0.02
524.346	0.02
524.542	-0.02
524.738	-0.01
524.934	-0
525.129	-0.08
525.325	0.02
525.521	-0.01
525.717	0.03
525.913	0
526.109	0.01
526.304	0.01
526.5	0.02
526.696	0.01
526.892	0.01
527.087	0
527.283	-0.04
527.479	0.01
527.674	-0.03
527.87	-0.02
528.066	-0.02
528.261	0.03
528.457	-0
528.653	-0.02
528.848	-0.01
529.044	0.02
529.239	0
529.435	0.02
529.63	0.01
529.826	0.02
530.021	0
530.217	0.03
530.412	-0.01
530.608	-0.01
530.803	-0.01
530.999	-0
531.194	-0.05
531.389	0
531.585	-0.04
531.78	0.01
531.975	0
532.171	0.04
532.366	-0.03
532.561	-0.01
532.757	-0.02
532.952	-0
533.147	0.01
533.342	0.01
533.538	-0.01
533.733	0.01
533.928	-0.01
534.123	-0
534.318	-0.03
534.513	0.01
534.709	0
534.904	-0.03
535.099	-0
535.294	-0.01
535.489	0.01
535.684	-0.02
535.879	-0.03
536.074	-0
536.269	-0.05
536.464	-0
536.659	0
536.854	-0.01
537.049	-0.01
537.244	0.02
537.439	-0.02
537.634	0.05
537.828	0.01
538.023	-0.01
538.218	-0.04
538.413	-0
538.608	-0.04
538.803	0.01
538.997	-0.02
539.192	0.03
539.387	0
539.582	0
539.776	0
539.971	0.01
540.166	-0.01
540.36	-0.03
540.555	-0
540.75	0
540.944	0
541.139	-0.04
541.334	-0.02
541.528	0.02
541.723	0.02
541.917	-0.01
542.112	-0.03
542.306	-0.03
542.501	-0.01
542.695	0.02
542.89	-0.03
543.084	0
543.279	0
543.473	0.01
543.668	-0
543.862	0
544.056	0.02
544.251	0
544.445	-0.01
544.64	0
544.834	-0.02
545.028	0
545.222	0.01
545.417	0.03
545.611	-0.01
545.805	-0.02
546	-0.02
546.194	-0.01
546.388	-0.01
546.582	0.01
546.776	0
546.97	0
547.165	0.03
547.359	-0.01
547.553	-0.02
547.747	0
547.941	0.01
548.135	0.01
548.329	0.01
548.523	0.02
548.717	-0
548.911	-0
549.105	-0.02
549.299	-0
549.493	0.01
549.687	0.03
549.881	0.02
550.075	-0.01
550.269	-0.03
550.463	0.01
550.657	-0.02
550.85	-0.01
551.044	-0.01
551.238	-0
551.432	-0
551.626	-0.04
551.82	0.02
552.013	-0.02
552.207	0
552.401	0.02
552.594	0.01
552.788	-0.01
552.982	-0.01
553.176	-0
553.369	0.03
553.563	0.01
553.756	-0.01
553.95	-0.03
554.144	-0.03
554.337	0.02
554.531	-0.01
554.724	0
554.918	-0
555.111	0.02
555.305	-0.01
555.498	0.03
555.692	0.01
555.885	-0
556.079	0
556.272	-0
556.466	0.03
556.659	0
556.852	-0.01
557.046	0
557.239	0.03
557.432	-0.03
557.626	-0.04
557.819	0.02
558.012	0.02
558.206	0.02
558.399	-0
558.592	0
558.785	-0.03
558.979	0.04
559.172	0.02
559.365	0.01
559.558	-0
559.751	0
559.944	0.02
560.138	-0.01
560.331	-0
560.524	-0.04
560.717	0
560.91	-0
561.103	0.02
561.296	-0
561.489	0
561.682	0.01
561.875	0.03
562.068	0.03
562.261	0.01
562.454	0.03
562.647	0.01
562.84	0.02
563.032	-0.01
563.225	0.01
563.418	-0
563.611	0
563.804	-0.02
563.997	-0.03
564.19	-0.03
564.382	-0.06
564.575	0.01
564.768	0.01
564.961	-0
565.153	-0.02
565.346	0.03
565.539	0.01
565.731	0.02
565.924	0.03
566.117	0.02
566.309	0
566.502	-0.03
566.695	0.01
566.887	-0.01
567.08	-0.04
567.272	-0.03
567.465	-0.02
567.657	0.01
567.85	0.02
568.042	0.01
568.235	0.03
568.427	0
568.62	0.02
568.812	0.02
569.005	0.02
569.197	-0.04
569.389	0.01
569.582	0.01
569.774	-0
569.966	-0.05
570.159	-0.05
570.351	0.02
570.543	-0.02
570.736	0
570.928	-0.03
571.12	0
571.312	-0.02
571.505	-0.05
571.697	0.02
571.889	-0.02
572.081	-0
572.273	-0.03
572.465	0.02
572.658	-0
572.85	0
573.042	0.01
573.234	-0.01
573.426	0.03
573.618	-0.04
573.81	0.01
574.002	0.04
574.194	0.03
574.386	-0.03
574.578	-0.08
574.77	-0.04
574.962	0.01
575.154	-0.02
575.346	-0.03
575.538	0.01
575.729	-0.02
575.921	-0.01
576.113	-0
576.305	0.02
576.497	-0.02
576.689	-0.02
576.88	-0
577.072	0.02
577.264	-0.02
577.456	-0.02
577.647	-0.06
577.839	0.02
578.031	0.01
578.223	-0.01
578.414	-0.02
578.606	0.01
578.798	0
578.989	-0.01
579.181	-0.02
579.372	-0.02
579.564	-0.05
579.755	-0.01
579.947	0.02
580.139	0.01
580.33	-0.05
580.522	-0.03
580.713	-0.04
580.905	-0
581.096	-0.01
581.287	0
581.479	-0.01
581.67	0.01
581.862	-0.01
582.053	-0.01
582.244	-0.05
582.436	-0.03
582.627	0.02
582.818	-0.01
583.01	-0.04
583.201	0.02
583.392	-0
583.583	0.02
583.775	-0.01
583.966	-0.01
584.157	-0.01
584.348	-0.04
584.54	-0.03
584.731	0.02
584.922	-0.02
585.113	-0
585.304	0.02
585.495	0.03
585.686	0
585.877	0.03
586.068	0.02
586.259	-0
586.45	0.01
586.641	-0.02
586.832	-0.02
587.023	0
587.214	-0.01
587.405	0.02
587.596	-0.03
587.787	0.02
587.978	-0.01
588.169	-0.03
588.36	-0.02
588.551	0.01
588.742	-0.01
588.932	0
589.123	-0.01
589.314	0.04
589.505	0.02
589.696	0.01
589.886	-0.02
590.077	-0.05
590.268	0.02
590.458	-0.05
590.649	-0.03
590.84	0.02
591.03	-0.02
591.221	-0.05
591.412	-0.06
591.602	0.01
591.793	0.01
591.984	-0.06
592.174	-0.02
592.365	0.06
592.555	-0.04
592.746	0.02
592.936	-0.02
593.127	0.03
593.317	-0.01
593.508	-0.02
593.698	-0.04
593.889	0
594.079	0
594.269	0.01
594.46	0.02
594.65	0
594.84	-0.01
595.031	-0.02
595.221	-0.03
595.411	-0.07
595.602	0.03
595.792	-0.03
595.982	-0.01
596.172	0.03
596.363	0.01
596.553	0.01
596.743	0
596.933	0.02
597.123	0.01
597.314	0
597.504	-0.03
597.694	0.03
597.884	0.02
598.074	-0.03
598.264	-0.04
598.454	-0
598.644	0.01
598.834	0.03
599.024	-0.04
599.214	-0.02
599.404	0.04
599.594	-0
599.784	-0.01
599.974	0.06
600.164	0.01
600.354	-0.05
600.544	-0.05
600.734	0.02
600.924	0.03
601.114	-0.02
601.303	0.01
601.493	0.01
601.683	-0.01
601.873	0.02
602.063	-0.05
602.252	0.02
602.442	-0.11
602.632	-0.03
602.821	-0.05
603.011	0.02
603.201	-0.01
603.39	-0.02
603.58	-0.01
603.77	0.02
603.959	0.02
604.149	-0.01
604.339	-0.02
604.528	0.01
604.718	0.03
604.907	-0.02
605.097	-0.01
605.286	-0.02
605.476	-0
605.665	0.02
605.855	-0
606.044	0.04
606.234	0.01
606.423	0
606.612	-0.04
606.802	0.03
606.991	0.01
607.181	0
607.37	-0.07
607.559	0.03
607.749	-0.05
607.938	-0.01
608.127	-0.02
608.316	-0.02
608.506	-0.02
608.695	-0.01
608.884	-0.02
609.073	0.01
609.263	0.03
609.452	0.05
609.641	0.01
609.83	-0.02
610.019	-0.01
610.208	-0.04
610.397	-0.01
610.586	0.01
610.775	-0.02
610.965	-0.01
611.154	-0.02
611.343	-0
611.532	0
611.721	-0.02
611.91	-0.04
612.099	0.01
612.287	-0.02
612.476	-0.03
612.665	0
612.854	-0.05
613.043	0.04
613.232	-0.03
613.421	-0.05
613.61	0.01
613.798	-0.03
613.987	0.04
614.176	0
614.365	0.01
614.554	0
614.742	0
614.931	-0
615.12	0.02
615.309	-0.02
615.497	0
615.686	-0.03
615.875	0.02
616.063	-0
616.252	-0.02
616.44	-0.01
616.629	-0.01
616.818	0.04
617.006	0.01
617.195	0.01
617.383	0.01
617.572	0
617.76	-0.03
617.949	0
618.137	0.01
618.326	0.02
618.514	-0.01
618.703	-0.04
618.891	0.05
619.079	-0.08
619.268	0.01
619.456	-0.03
619.644	0.07
619.833	-0.02
620.021	-0.01
620.209	-0.06
620.398	-0.01
620.586	0.01
620.774	-0
620.962	-0.01
621.151	0.07
621.339	-0.03
621.527	-0.04
621.715	-0.04
621.903	-0.05
622.092	-0.04
622.28	-0.03
622.468	-0.03
622.656	-0.01
622.844	0.04
623.032	-0
623.22	-0.05
623.408	-0
623.596	0.02
623.784	-0.01
623.972	-0.02
624.16	-0.01
624.348	0.05
624.536	-0.04
624.724	-0.02
624.912	0.01
625.1	0.05
625.288	-0.01
625.476	-0.01
625.664	0.02
625.851	-0.03
626.039	-0.01
626.227	0.01
626.415	-0.01
626.603	-0.08
626.79	0.01
626.978	0.03
627.166	0.02
627.354	-0.01
627.541	-0.03
627.729	-0.06
627.917	-0.01
628.104	0.04
628.292	-0
628.48	0.01
628.667	-0.03
628.855	0
629.042	0.04
629.23	-0.01
629.418	-0.01
629.605	-0.03
629.793	-0.04
629.98	-0.05
630.168	-0
630.355	-0
630.543	-0.02
630.73	-0.01
630.917	0.03
631.105	0.06
631.292	-0.02
631.48	0
631.667	0.06
631.854	-0
632.042	0.02
632.229	-0.05
632.416	-0.02
632.604	-0.01
632.791	-0.03
632.978	0.04
633.165	-0.01
633.353	0.03
633.54	0
633.727	-0.05
633.914	-0.03
634.101	-0.09
634.289	0.04
634.476	-0.03
634.663	-0.06
634.85	0.01
635.037	-0.03
635.224	-0.06
635.411	0.03
635.598	0.03
635.785	-0.03
635.972	0.02
636.159	0.02
636.346	-0
636.533	-0.03
636.72	-0.01
636.907	-0.05
637.094	0.02
637.281	-0.02
637.468	0.03
637.655	0.02
637.842	0.01
638.029	-0.01
638.215	0.01
638.402	0.01
638.589	-0.01
638.776	-0.04
638.963	-0.02
639.149	0.03
639.336	0.04
639.523	-0
639.709	0.01
639.896	-0.02
640.083	0.05
640.27	0
640.456	-0.01
640.643	-0
640.829	-0.06
641.016	-0.01
641.203	-0.04
641.389	0.04
641.576	0.01
641.762	0.03
641.949	-0.02
642.135	-0.02
642.322	0.01
642.508	-0.02
642.695	-0.02
642.881	-0.02
643.068	-0.01
643.254	-0.01
643.441	0.03
643.627	-0.03
643.813	-0.05
644	0.01
644.186	-0.01
644.372	-0.03
644.559	0.05
644.745	-0.01
644.931	-0.04
645.118	0.01
645.304	0
645.49	-0.05
645.676	-0.02
645.862	0.01
646.049	0.04
646.235	-0.02
646.421	0.06
646.607	0.07
646.793	-0.03
646.979	-0.04
647.165	0.01
647.352	-0.01
647.538	0.02
647.724	0
647.91	0.02
648.096	0.04
648.282	0.02
648.468	-0.01
648.654	0.01
648.84	0.01
649.026	-0
649.212	-0
649.397	-0.02
649.583	-0.05
649.769	0.03
649.955	-0
650.141	0.01
650.327	0.03
650.513	-0.04
650.698	0.01
650.884	-0.06
651.07	0
651.256	0.03
651.442	-0.01
651.627	-0
651.813	0.03
651.999	-0
652.184	0.01
652.37	0
652.556	-0.01
652.741	0.03
652.927	-0.05
653.113	-0.04
653.298	0.01
653.484	-0.04
653.669	-0.04
653.855	0.01
654.04	-0
654.226	0.02
654.412	-0.01
654.597	-0.04
654.782	0.02
654.968	0.02
655.153	0.01
655.339	-0.01
655.524	-0.03
655.71	0.04
655.895	-0
656.08	-0.02
656.266	0.02
656.451	0.01
656.636	-0.03
656.822	-0.01
657.007	-0.02
657.192	-0.01
657.378	-0.04
657.563	0.02
657.748	0.01
657.933	-0
658.118	-0.01
658.304	-0.02
658.489	0.05
658.674	0.03
658.859	-0.02
659.044	0.02
659.229	0.05
659.414	-0.01
659.599	-0.01
659.785	-0.04
659.97	-0
660.155	0.03
660.34	0.03
660.525	-0.01
660.71	-0.01
660.895	0.03
661.08	0.02
661.264	-0
661.449	0.06
661.634	0.05
661.819	0.01
662.004	0.04
662.189	-0.07
662.374	-0.03
662.559	-0.03
662.743	-0.04
662.928	0.01
663.113	-0.03
663.298	-0.04
663.483	-0.03
663.667	0.04
663.852	-0.03
664.037	0.06
664.221	-0.01
664.406	0.03
664.591	0
664.775	-0
664.96	-0.01
665.145	0.01
665.329	0.04
665.514	-0.03
665.698	0.03
665.883	-0.05
666.068	0.05
666.252	-0.01
666.437	-0.03
666.621	0.01
666.806	0.04
666.99	0.02
667.174	-0.02
667.359	0.04
667.543	0.03
667.728	0.01
667.912	-0.04
668.096	0.04
668.281	-0.03
668.465	-0.02
668.649	0
668.834	-0.02
669.018	-0.04
669.202	0
669.387	-0.04
669.571	0.03
669.755	-0.03
669.939	0.01
670.124	0.02
670.308	0.1
670.492	0.05
670.676	0.02
670.86	0.04
671.044	-0.04
671.228	0.04
671.413	-0.04
671.597	-0.01
671.781	-0.02
671.965	0.04
672.149	0.04
672.333	0.02
672.517	0.02
672.701	0.05
672.885	0.03
673.069	-0.05
673.253	0.07
673.437	0.02
673.621	0.01
673.804	-0.02
673.988	0.05
674.172	0.06
674.356	-0.08
674.54	0.06
674.724	0.1
674.908	-0
675.091	0.04
675.275	0.04
675.459	0.06
675.643	0.11
675.826	0.06
676.01	0.04
676.194	0.02
676.377	0.06
676.561	0.06
676.745	0.06
676.928	0.07
677.112	0.05
677.296	-0.02
677.479	0.03
677.663	0.03
677.846	0.05
678.03	0.01
678.213	0.04
678.397	0.1
678.58	0.02
678.764	-0
678.947	-0.02
679.131	0.01
679.314	0.12
679.498	0.05
679.681	0.06
679.865	0.13
680.048	0.04
680.231	0.05
680.415	0.01
680.598	0.05
680.781	0.05
680.965	0.02
681.148	0.04
681.331	0.06
681.514	0.1
681.698	0.03
681.881	0.1
682.064	0.08
682.247	0.06
682.43	-0.02
682.614	0.06
682.797	0.12
682.98	0.1
683.163	0.02
683.346	0.08
683.529	0.07
683.712	0.02
683.895	0.09
684.078	0.03
684.261	0.06
684.444	0.07
684.627	0.09
684.81	0.03
684.993	0.09
685.176	0.11
685.359	-0.01
685.542	0.01
685.725	0.14
685.908	0.12
686.091	0.08
686.274	0.12
686.457	0.12
686.639	0.11
686.822	0.07
687.005	0.12
687.188	0.13
687.371	0.19
687.553	0.1
687.736	0.1
687.919	0.18
688.102	0.16
688.284	0.09
688.467	0.1
688.65	0.07
688.832	0.09
689.015	0.1
689.197	0.06
689.38	0.18
689.563	0.17
689.745	0.09
689.928	0.04
690.11	0.07
690.293	0.12
690.475	0.05
690.658	0.15
690.84	0.11
691.023	0.09
691.205	0.06
691.388	0.19
691.57	0.21
691.752	0.17
691.935	0.05
692.117	0.14
692.3	0.17
692.482	0.18
692.664	0.16
692.847	0.14
693.029	0.23
693.211	0.2
693.393	0.17
693.576	0.13
693.758	0.15
693.94	0.16
694.122	0.17
694.304	0.2
694.487	0.19
694.669	0.25
694.851	0.14
695.033	0.22
695.215	0.15
695.397	0.15
695.579	0.26
695.761	0.18
695.943	0.16
696.125	0.28
696.308	0.23
696.49	0.14
696.671	0.3
696.853	0.23
697.035	0.37
697.217	0.25
697.399	0.24
697.581	0.2
697.763	0.26
697.945	0.19
698.127	0.26
698.309	0.32
698.491	0.28
698.672	0.3
698.854	0.31
699.036	0.33
699.218	0.21
699.399	0.37
699.581	0.29
699.763	0.3
699.945	0.17
700.126	0.27
700.308	0.3
700.49	0.37
700.671	0.24
700.853	0.32
701.035	0.3
701.216	0.31
701.398	0.26
701.579	0.36
701.761	0.42
701.943	0.25
702.124	0.27
702.306	0.39
702.487	0.43
702.669	0.34
702.85	0.36
703.031	0.29
703.213	0.47
703.394	0.47
703.576	0.4
703.757	0.55
703.938	0.46
704.12	0.52
704.301	0.45
704.483	0.45
704.664	0.48
704.845	0.5
705.026	0.48
705.208	0.48
705.389	0.51
705.57	0.51
705.751	0.44
705.933	0.53
706.114	0.63
706.295	0.52
706.476	0.5
706.657	0.69
706.838	0.58
707.02	0.65
707.201	0.57
707.382	0.59
707.563	0.67
707.744	0.62
707.925	0.53
708.106	0.49
708.287	0.62
708.468	0.67
708.649	0.7
708.83	0.69
709.011	0.68
709.192	0.76
709.373	0.67
709.554	0.7
709.734	0.81
709.915	0.78
710.096	0.72
710.277	0.64
710.458	0.77
710.639	0.81
710.819	0.72
711	0.8
711.181	0.83
711.362	0.96
711.542	0.79
711.723	0.85
711.904	0.92
712.085	0.9
712.265	0.94
712.446	0.87
712.627	0.91
712.807	1.02
712.988	0.93
713.168	0.89
713.349	1.03
713.53	0.9
713.71	1.02
713.891	0.96
714.071	1.06
714.252	1.02
714.432	1.11
714.613	1.06
714.793	1.16
714.974	1.27
715.154	1.25
715.334	1.23
715.515	1.25
715.695	1.2
715.876	1.26
716.056	1.35
716.236	1.22
716.417	1.31
716.597	1.29
716.777	1.57
716.957	1.4
717.138	1.5
717.318	1.51
717.498	1.44
717.678	1.49
717.859	1.58
718.039	1.47
718.219	1.59
718.399	1.59
718.579	1.6
718.759	1.63
718.939	1.71
719.12	1.7
719.3	1.75
719.48	1.6
719.66	1.68
719.84	1.86
720.02	1.82
720.2	1.85
720.38	1.92
720.56	2.04
720.74	1.99
720.92	2.01
721.1	2.16
721.279	2.13
721.459	2.14
721.639	2.12
721.819	2.15
721.999	2.24
722.179	2.24
722.359	2.15
722.538	2.33
722.718	2.26
722.898	2.37
723.078	2.36
723.257	2.43
723.437	2.53
723.617	2.53
723.797	2.57
723.976	2.66
724.156	2.69
724.336	2.75
724.515	2.89
724.695	2.63
724.874	2.82
725.054	2.87
725.234	2.9
725.413	2.94
725.593	2.92
725.772	3.02
725.952	2.95
726.131	3.04
726.311	3.18
726.49	3.14
726.67	3.07
726.849	3.18
727.028	3.18
727.208	3.19
727.387	3.36
727.567	3.25
727.746	3.37
727.925	3.39
728.105	3.41
728.284	3.45
728.463	3.41
728.643	3.53
728.822	3.55
729.001	3.53
729.18	3.74
729.359	3.84
729.539	3.91
729.718	3.89
729.897	3.97
730.076	4.06
730.255	3.9
730.434	4.25
730.614	4.19
730.793	4.17
730.972	4.23
731.151	4.4
731.33	4.42
731.509	4.46
731.688	4.5
731.867	4.58
732.046	4.48
732.225	4.83
732.404	4.61
732.583	4.62
732.762	4.94
732.941	4.91
733.12	5.05
733.298	4.8
733.477	5.04
733.656	4.89
733.835	4.92
734.014	5.15
734.193	5.07
734.371	5.22
734.55	5.18
734.729	5.16
734.908	5.35
735.086	5.29
735.265	5.28
735.444	5.04
735.623	5.27
735.801	5.31
735.98	5.41
736.159	5.33
736.337	5.4
736.516	5.32
736.694	5.26
736.873	5.25
737.052	5.45
737.23	5.18
737.409	5.06
737.587	5.35
737.766	4.85
737.944	4.9
738.123	5.13
738.301	5.16
738.479	5.02
738.658	4.8
738.836	4.43
739.015	4.62
739.193	4.71
739.371	4.37
739.55	4.35
739.728	4.2
739.906	4.28
740.085	4.35
740.263	4.12
740.441	3.7
740.62	4.01
740.798	3.79
740.976	3.64
741.154	3.34
741.332	3.5
741.511	3.26
741.689	3.17
741.867	3.08
742.045	2.85
742.223	2.83
742.401	2.76
742.579	2.62
742.757	2.72
742.935	2.36
743.114	2.52
743.292	2.24
743.47	2.2
743.648	2.31
743.826	2.18
744.004	2.2
744.181	2.05
744.359	1.86
744.537	1.93
744.715	1.71
744.893	1.72
745.071	1.63
745.249	1.59
745.427	1.52
745.605	1.55
745.782	1.44
745.96	1.46
746.138	1.44
746.316	1.32
746.493	1.21
746.671	1.3
746.849	1.12
747.027	1.36
747.204	1.01
747.382	1.22
747.56	0.95
747.737	0.94
747.915	0.98
748.093	0.95
748.27	0.81
748.448	0.89
748.625	0.73
748.803	0.66
748.98	0.79
749.158	0.86
749.335	0.85
749.513	0.66
749.69	0.65
749.868	0.69
750.045	0.66
750.223	0.56
750.4	0.45
750.578	0.75
750.755	0.6
750.932	0.41
751.11	0.67
751.287	0.46
751.464	0.65
751.642	0.46
751.819	0.57
751.996	0.45
752.173	0.43
752.351	0.43
752.528	0.44
752.705	0.36
752.882	0.4
753.06	0.48
753.237	0.43
753.414	0.66
753.591	0.52
753.768	0.35
753.945	0.25
754.122	0.23
754.299	0.41
754.476	0.31
754.654	0.29
754.831	0.45
755.008	0.37
755.185	0.2
755.362	0.2
755.539	0.25
755.716	0.18
755.892	0.31
756.069	0.19
756.246	0.21
756.423	0.29
756.6	0.27
756.777	0.22
756.954	0.25
757.131	0.15
757.307	0.12
757.484	0.03
757.661	0.15
757.838	0.22
758.015	0.04
758.191	0.16
758.368	0.33
758.545	0.21
758.721	0.33
758.898	0.16
759.075	0.31
759.251	0.21
759.428	0.24
759.605	-0.04
759.781	0.06
759.958	0.13
760.134	0.23
760.311	-0.03
760.488	0.25
760.664	0.18
760.841	0.09
761.017	-0.01
761.194	0.23
761.37	0.14
761.547	0.11
761.723	0.07
761.899	0.17
762.076	-0.01
762.252	-0
762.429	0.05
762.605	0.16
762.781	0.09
762.958	0.18
763.134	0.02
763.31	0.11
763.486	0.12
763.663	-0.04
763.839	0.24
764.015	-0.06
764.191	0.04
764.368	0.08
764.544	-0.04
764.72	0.03
764.896	0.25
765.072	0.15
765.248	0
765.425	-0.06
765.601	0.1
765.777	0.13
765.953	-0.25
766.129	0.04
766.305	0.01
766.481	0.09
766.657	0.08
766.833	0.1
767.009	-0.06
767.185	0.05
767.361	-0.01
767.537	-0.02
767.713	0.1
767.889	0.01
768.065	0.06
768.24	-0.27
768.416	0.06
768.592	-0.03
768.768	-0.02
768.944	0.2
769.12	-0.09
769.295	-0.04
769.471	0.03
769.647	0.12
769.823	0.23
769.998	-0.02
770.174	-0
770.35	0.37
770.525	0.18
770.701	0.14
770.877	0.03
771.052	0.03
771.228	0.18
771.403	-0.02
771.579	0.16
771.755	0.32
771.93	-0.09
772.106	-0.25
772.281	-0.19
772.457	-0.13
772.632	0.13
772.808	-0.1
772.983	-0.05
773.159	-0.19
773.334	0.27
773.509	-0.01
773.685	-0.03
773.86	0.17
774.036	0.19
774.211	0.13
774.386	-0.03
774.562	-0
774.737	0.15
774.912	-0.17
775.087	0.1
775.263	0.03
775.438	0
775.613	-0.09
775.788	-0.07
775.964	0.16
776.139	0.28
776.314	-0.24
776.489	-0.05
776.664	-0.09
776.839	-0.11
777.014	0.15
777.19	0.24
777.365	0.14
777.54	0.03
777.715	0.05
777.89	0.01
778.065	-0.02
778.24	0.03
778.415	0.21
778.59	-0.12
778.765	0.03
778.94	0.04
779.115	-0.09
779.289	-0.07
779.464	0.05
779.639	0.13
779.814	-0.09
779.989	-0.12
780.164	0.17
780.339	0.26
780.513	-0.14
780.688	-0.12
780.863	0.02
781.038	0.19
781.212	-0.03
781.387	0.12
781.562	0.29
781.737	-0.11
781.911	0.25
782.086	-0.03
782.261	0.01
782.435	0.24
782.61	-0.01
782.784	-0.02
782.959	0.2
783.134	-0.08
783.308	-0.17
783.483	0.02
783.657	0.27
783.832	0.13
784.006	-0.25
784.181	0.01
784.355	0.34
784.53	-0.13
784.704	-0.25
784.878	0.36
785.053	0.16
785.227	-0.06
785.402	0.35
785.576	-0.12
785.75	-0.12
785.925	-0.06
786.099	0.17
786.273	0.06
786.448	0.22
786.622	0.25
786.796	-0
786.97	0.03
787.145	0.63
787.319	-0.35
787.493	-0.14
787.667	-0.4
787.841	-0.12
788.015	0.16
788.19	-0.01
788.364	-0.07
788.538	0.23
788.712	0.17
788.886	-0.29
789.06	0.15
789.234	0.15
789.408	-0.29
789.582	-0.06
789.756	0.04
789.93	-0.16
790.104	-0.06
790.278	-0.08
790.452	-0.01
790.626	0.09
790.8	-0.15
790.973	0.2
791.147	0.22
791.321	0.16
791.495	0.13
791.669	0.07
791.843	0.09
792.016	-0.07
792.19	0.48
792.364	0.01
792.538	0.44
792.711	0.41
792.885	-0.14
793.059	-0.16
793.233	-0.46
793.406	0.18
793.58	0.07
793.754	0.01
793.927	-0.19
794.101	0.12
794.274	-0.04
794.448	0.25
794.622	0.04
794.795	0.36
794.969	-0.25
795.142	0.49
795.316	0
795.489	-0.05
795.663	0.33
795.836	-0.03
796.009	-0.47
796.183	0.4
796.356	0.12
796.53	0.27
796.703	0.1
796.876	0.72
797.05	-0.14
797.223	-0
797.396	0.22
797.57	0.07
797.743	0.4
797.916	0.15
798.09	-0.3
798.263	0.09
798.436	0.11
798.609	-0.13
798.782	0.33
798.956	0.01
799.129	-0.1
799.302	-0.09
799.475	-0.08
799.648	-0.03
799.821	-0.3
799.994	0.03
800.167	-0.41
800.34	0.03
800.514	0.14
800.687	0.02
800.86	0.06
801.033	0.13
801.206	-0.01
801.379	0.08
801.551	0.19
801.724	0.37
801.897	0.42
802.07	0.11
802.243	-0.41
802.416	-0.05
802.589	-0.2
802.762	0.3
802.935	0.25
803.107	0.02
803.28	-0.17
803.453	0.2
803.626	-0.28
803.798	-0.02
803.971	-0.02
804.144	0.04
804.317	0.07
804.489	0.51
804.662	0.05
804.835	-0.03
805.007	-0.13
805.18	0.62
805.353	0.18
805.525	-0.3
805.698	-0.34
805.87	0.32
806.043	0.19
806.215	-0.28
806.388	-0.03
806.56	0.12
806.733	0.05
806.905	0.42
807.078	-0.19
807.25	-0.32
807.423	0.28
807.595	-0
807.768	0.11
807.94	0.19
808.112	0.45
808.285	-0.07
808.457	-0.44
808.629	0.07
808.802	0.16
808.974	0.14
809.146	-0.08
809.318	-0.12
809.491	0.2
809.663	0.3
809.835	-0.13
810.007	0.32
810.18	0.01
810.352	-0.27
810.524	-0.04
810.696	0.4
810.868	0.44
811.04	-0.29
811.212	-0.23
811.384	0.21
811.556	0.3
811.728	-0.16
811.901	0.82
812.073	0
812.245	0.35
812.417	-0.02
812.589	-0.35
812.76	0.09
812.932	0.13
813.104	0.34
813.276	0.06
813.448	0.34
813.62	0.04
813.792	0.2
813.964	-0.17
814.136	0.41
814.307	-0.36
814.479	-0.25
814.651	-0.16
814.823	0.84
814.995	-0.16
815.166	0.3
815.338	0.07
815.51	-0.33
815.681	0.99
815.853	-0.09
816.025	-0.05
816.196	0.38
816.368	0.29
816.54	-0.52
816.711	-0.42
816.883	0.08
817.054	0.74
817.226	-0.32
817.398	0.51
817.569	-0.4
817.741	0.06
817.912	-0.02
818.084	-0.1
818.255	0.08
818.426	0.22
818.598	-0.18
818.769	-0.18
818.941	0.16
819.112	0.59
819.283	-0.05
819.455	-0.81
819.626	0.02
819.798	0.7
819.969	-0.23
820.14	-0.09
820.311	-0.36
820.483	0.29
820.654	0.34
820.825	0.05
820.996	-0.25
821.168	-0.05
821.339	-0.1
821.51	-0.17
821.681	-0.13
821.852	0.22
822.023	-0.62
822.195	-0.32
822.366	0.32
822.537	0.35
822.708	0.1
822.879	-0.08
823.05	1.03
823.221	-0.18
823.392	0.71
823.563	-0.16
823.734	0.66
823.905	-0.04
824.076	-0.24
824.247	-0.79
824.418	-0.38
824.589	0.71
824.759	0.17
824.93	-0.26
825.101	-0.52
825.272	0.58
825.443	0.78
825.614	0.43
825.784	-1.01
825.955	1.32
826.126	0.65
826.297	0.08
826.467	0.61
826.638	0.61
826.809	-0.34
826.98	0.33
827.15	0.4
827.321	0.15
827.492	0.73
827.662	0.2
827.833	0.38
828.003	0.24
828.174	-0.51
828.345	-1.05
828.515	0.44
828.686	0.44
828.856	0.02
829.027	0.14
829.197	-0.85
829.368	0.41
829.538	-0.04
829.709	-0.38
829.879	-0.37
830.049	0.09
830.22	0.1
830.39	0.35
830.56	0.53
830.731	-0.49
830.901	-0.11
831.072	0.09
831.242	0.32
831.412	0.21
831.582	0.4
831.753	-0.62
831.923	1.4
832.093	0.05
832.263	-0.4
832.434	-0.14
832.604	-0.33
832.774	-0.1
832.944	-0.2
833.114	-0.41
833.284	-0.25
833.454	-0.25
833.624	0.21
833.795	-0.7
833.965	0.48
834.135	0.61
834.305	-0.09
834.475	-0.76
834.645	-0.01
834.815	-0.13
834.985	-0.29
835.155	-0.15
835.325	0.38
835.494	0.14
835.664	0.26
835.834	-0.22
836.004	0.24
836.174	0.22
836.344	-0.24
836.514	-0.48
836.684	-0.63
836.853	-0.29
837.023	0.49
837.193	-0.25
837.363	0.74
837.532	0.2
837.702	0.18
837.872	-0.37
838.041	0.41
838.211	1.55
838.381	-0.49
838.55	-0.15
838.72	1.66
838.89	0.77
839.059	-0.07
839.229	-0.54
839.398	1.53
839.568	-0.08
839.738	0.04
839.907	0.75
840.077	0.23
840.246	-0.26
840.416	-0.7
840.585	-0.07
840.755	1.86
840.924	0.9
841.093	-0.49
841.263	-0.18
841.432	0.41
841.602	-0.53
841.771	-0.28
841.94	0.46
842.11	2.31
842.279	0.85
842.448	-1.09
842.617	-0.83
842.787	0.63
842.956	-1.21
843.125	-0
843.294	0.88
843.464	-0.12
843.633	0.31
843.802	-0.87
843.971	-0.77
844.14	0.79
844.309	0.74
844.479	-0.16
844.648	-0.63
844.817	-0.5
844.986	0.55
845.155	-0.48
845.324	-0.4
845.493	0.3
845.662	-1.2
845.831	0.32
846	0.49
846.169	-0.33
846.338	1.05
846.507	-0.18
846.676	0.16
846.844	-0.52
847.013	1.5
847.182	-0.02
847.351	0.18
847.52	0.23
847.689	0.19
847.858	0.15
848.026	-0.87
848.195	-0.54
848.364	-0.27
848.533	-0.36
848.701	-0.37
848.87	0.44
849.039	0.73
849.207	1.3
849.376	1.33
849.545	1.27
849.713	-0.43
849.882	-0.46
850.051	0.68
850.219	0.43
850.388	0.98
850.556	-0.1
850.725	-0.19
850.893	1.05
851.062	0.45
851.23	0.94
851.399	-1.69
851.567	-0.27
851.736	-0.07
851.904	-1.25
852.073	-0.6
852.241	0.63
852.41	-0.2
852.578	0.07
852.746	-0.69
852.915	0.78
853.083	0.99
853.251	-0.19
853.42	-0.67
853.588	-0.74
853.756	1.54
853.924	0.46
854.093	0.2
854.261	-0.26
854.429	-1.14
854.597	0.11
854.765	-0.72
854.934	0.39
855.102	1.36
855.27	-0.27
855.438	0.44
855.606	1.37
855.774	0.92
855.942	-0.5
856.11	-2.26
856.278	-0.1
856.446	0.46
856.614	0.05
856.782	0.11
856.95	0.81
857.118	-0.16
857.286	0.82
857.454	0.23
857.622	0.82
857.79	0.48
857.958	-0.68
858.126	0.08
858.294	-1.34
858.462	-0.13
858.629	-0.2
858.797	0.31
858.965	0.79
859.133	0.46
859.301	1.41
859.468	1.32
859.636	-0.3
859.804	1.4
859.971	0.87
860.139	-1.4
860.307	0.56
860.474	-0.09
860.642	-1.17
860.81	-1.07
860.977	-0.81
861.145	0.73
861.313	0.33
861.48	1.17
861.648	0.31
861.815	-0.13
861.983	-0.05
862.15	0.55
862.318	1.36
862.485	1.61
862.653	-1.01
862.82	0.39
862.988	1.68
863.155	1
863.322	-0.86
863.49	-0.52
863.657	-0.07
863.824	0.85
863.992	0.11
864.159	-0.21
864.326	2.43
864.494	-1.45
864.661	2.46
864.828	-2.25
864.996	0.84
865.163	0.91
865.33	-1.48
865.497	-1.59
865.664	-0
865.832	-1.13
865.999	-0.29
866.166	-1.78
866.333	-0.15
866.5	0.72
866.667	0.7
866.834	-0.09
867.001	2.74
867.168	-0.85
867.335	-0.89
867.502	-0.09
867.669	0.09
867.836	2.13
868.003	0.68
868.17	1.5
868.337	-1
868.504	0.9
868.671	-1.68
868.838	-0.87
869.005	0.15
869.172	2.38
869.339	-0.02
869.505	-0.13
869.672	-0.24
869.839	1.82
870.006	1.01
870.173	-2.68
870.339	2.35
870.506	2.84
870.673	0.12
870.84	1.7
871.006	-0.45
871.173	0.38
871.34	-0.27
871.506	-1.48
871.673	2.17
871.839	-0.08
872.006	-0.51
872.173	-2.96
872.339	0.59
872.506	1.39
872.672	-0.37
872.839	-1.97
873.005	-0.7
873.172	3.6
873.338	2.67
873.505	0.58
873.671	0.33
873.838	0.69
874.004	-1.86
874.171	-0.65
874.337	-0.28
874.503	0.87
874.67	0.69
874.836	-1.24
875.002	2.61
875.169	0.14
875.335	0.17
875.501	-0.88
875.668	2.8
875.834	0.56
876	0.73
876.166	1.87
876.332	1.36
876.499	2.67
876.665	1.09
876.831	0.03
876.997	3.29
877.163	-0.39
877.329	0.22
877.495	-0.09
877.662	1.79
877.828	1.72
877.994	-0.57
878.16	-2.15
878.326	-0.52
878.492	0.55
878.658	0.07
878.824	1.04
878.99	2.64
879.156	0.46
879.322	3.15
879.487	0.74
879.653	1.02
879.819	0.78
879.985	-0.93
880.151	1.4
880.317	-0.36
880.483	0.59
880.648	0.89
880.814	-1.66
880.98	1.01
881.146	-2.61
881.312	-1.26
881.477	-0.64
881.643	0.94
881.809	1.24
881.974	3.16
882.14	-3.44
882.306	0.45
882.471	4.33
882.637	-1.13
882.803	2.98
882.968	3.61
883.134	2.65
883.299	0.15
883.465	1.47
883.63	0.11
883.796	2.31
883.961	0.69
884.127	1.78
884.292	-3.66
884.458	-1.66
884.623	-1.66
