Data from Apollo_Calib_20240827__AbsoluteIrradiance__280__03-49-02-826.txt Node

Date: Wed Aug 28 03:49:02 BST 2024
User: biology
Spectrometer: FLMT08252
Trigger mode: 0
Integration Time (sec): 5.000000E-1
Scans to average: 5
Electric dark correction enabled: true
Nonlinearity correction enabled: false
Boxcar width: 0
XAxis mode: Wavelengths
Number of Pixels in Spectrum: 3648
>>>>>Begin Spectral Data<<<<<
179.588	-0
179.809	-0
180.03	-0
180.251	-0
180.473	-0
180.694	0
180.915	0
181.136	0
181.357	0
181.578	-0
181.799	-0
182.02	-0
182.241	-0
182.462	-0
182.683	0
182.904	-0
183.125	-0
183.346	0
183.567	0
183.788	0
184.009	-0
184.23	0
184.451	0
184.672	-0
184.892	-0
185.113	0
185.334	0
185.555	-0
185.776	-0
185.996	0
186.217	0
186.438	0
186.659	-0
186.879	0
187.1	-0
187.321	0
187.541	-0
187.762	0
187.983	0
188.203	0
188.424	0
188.644	-0
188.865	0
189.086	0
189.306	0
189.527	0
189.747	0
189.968	-0
190.188	0
190.409	0
190.629	0
190.849	-0
191.07	0
191.29	0
191.511	0
191.731	-0
191.951	-0
192.172	0
192.392	0
192.612	-0
192.833	0
193.053	0
193.273	0
193.493	-0
193.714	0
193.934	0
194.154	0
194.374	0
194.594	-0
194.815	0
195.035	0
195.255	0
195.475	-0
195.695	0
195.915	0
196.135	0
196.355	0
196.575	0
196.795	0
197.015	-0
197.235	-0
197.455	0
197.675	0
197.895	-0
198.115	0
198.335	0
198.555	0
198.775	0
198.995	0
199.214	0
199.434	-0
199.654	0
199.874	0
200.094	1.8
200.313	-0.23
200.533	-0.12
200.753	-0.19
200.973	0.58
201.192	0.84
201.412	-0.68
201.632	0.3
201.851	1.08
202.071	-0.34
202.291	-0.18
202.51	-0.11
202.73	0.73
202.95	0.05
203.169	-0.12
203.389	-0.18
203.608	0.67
203.828	0.09
204.047	-0.14
204.267	1.01
204.486	0.38
204.706	0.53
204.925	0.24
205.145	0
205.364	0.95
205.583	0.91
205.803	-0.12
206.022	-0.12
206.242	0.02
206.461	0.27
206.68	-0.07
206.9	0.36
207.119	0.95
207.338	0.54
207.557	-0.1
207.777	-0.04
207.996	0.1
208.215	0.69
208.434	-0.07
208.654	-0.13
208.873	0.42
209.092	0.79
209.311	-0.11
209.53	0.3
209.749	0.07
209.968	-0.09
210.187	-0.04
210.407	-0.4
210.626	0.14
210.845	0.24
211.064	0.24
211.283	-0.07
211.502	0.41
211.721	0.37
211.94	-0.08
212.159	0.3
212.377	0.5
212.596	0.45
212.815	0.22
213.034	0.37
213.253	0.51
213.472	0.51
213.691	-0.03
213.91	-0.03
214.128	0.11
214.347	0.57
214.566	-0.29
214.785	-0.13
215.003	0.41
215.222	0.17
215.441	0.04
215.66	0.04
215.878	0.34
216.097	0.38
216.316	0.01
216.534	-0.01
216.753	0.32
216.972	0.1
217.19	0.06
217.409	0.07
217.627	0.16
217.846	0.08
218.064	0.27
218.283	0.01
218.501	0.56
218.72	0.28
218.938	0.05
219.157	0.04
219.375	0.36
219.594	0.35
219.812	-0.04
220.031	0.01
220.249	0.5
220.467	0.41
220.686	-0.06
220.904	-0.15
221.122	0.16
221.341	0.34
221.559	0.04
221.777	0.09
221.995	0.1
222.214	0.26
222.432	-0.07
222.65	0.22
222.868	0.21
223.086	0.19
223.305	0.31
223.523	0.2
223.741	0.49
223.959	-0
224.177	-0.09
224.395	0.01
224.613	0.25
224.831	0.22
225.049	-0.16
225.267	-0
225.485	0.21
225.703	0.08
225.921	-0.06
226.139	0.05
226.357	0.36
226.575	0.16
226.793	0.08
227.011	0.65
227.229	0.11
227.447	0.26
227.665	-0.03
227.883	-0.27
228.1	0.06
228.318	0.27
228.536	-0.22
228.754	-0.06
228.972	0.14
229.189	0.24
229.407	0.03
229.625	-0.01
229.843	0.23
230.06	0.34
230.278	-0.07
230.496	0.08
230.713	0.2
230.931	0.38
231.149	0.04
231.366	-0.07
231.584	0.06
231.801	0.37
232.019	-0.02
232.236	-0.17
232.454	0.06
232.671	0.1
232.889	0.11
233.106	-0.02
233.324	0.23
233.541	0.08
233.759	0.08
233.976	-0.04
234.194	0.12
234.411	0.15
234.628	0.03
234.846	-0.01
235.063	0.03
235.28	0.01
235.498	-0.03
235.715	0.05
235.932	0.28
236.149	0.09
236.367	-0.04
236.584	0.11
236.801	-0.08
237.018	0.09
237.236	0.06
237.453	-0.1
237.67	0.27
237.887	0.06
238.104	0
238.321	0.04
238.538	0.01
238.755	0.22
238.973	-0.19
239.19	0.04
239.407	0.25
239.624	0.16
239.841	0.03
240.058	-0.05
240.275	0.09
240.492	0.1
240.709	0.08
240.925	0
241.142	-0.04
241.359	-0.08
241.576	-0
241.793	0.07
242.01	0.04
242.227	0.21
242.444	0.09
242.66	0.21
242.877	0.19
243.094	0.02
243.311	0.08
243.527	0.08
243.744	0.13
243.961	0.1
244.178	-0.05
244.394	0.08
244.611	0.13
244.828	0.35
245.044	0.06
245.261	0.12
245.477	0.01
245.694	0.24
245.911	0.04
246.127	0.17
246.344	0.24
246.56	0.16
246.777	0.02
246.993	0.09
247.21	0.14
247.426	0.16
247.643	0.03
247.859	-0.01
248.076	0.05
248.292	0.32
248.508	0.09
248.725	0.06
248.941	0.18
249.157	0.13
249.374	-0.11
249.59	0.05
249.806	0.06
250.023	0.06
250.239	0
250.455	-0.01
250.671	0.05
250.888	0.08
251.104	0.15
251.32	-0.04
251.536	0.11
251.752	0.1
251.969	0.08
252.185	0.07
252.401	0.29
252.617	0.09
252.833	0.06
253.049	0.09
253.265	0.08
253.481	0.23
253.697	0.08
253.913	0.01
254.129	0.1
254.345	0.05
254.561	0.04
254.777	0.07
254.993	0.16
255.209	0.06
255.425	-0.01
255.641	-0.01
255.857	0.19
256.073	0.07
256.288	-0.06
256.504	0.03
256.72	0.13
256.936	0.22
257.152	0.02
257.367	-0.01
257.583	0.05
257.799	0.18
258.015	0
258.23	0.03
258.446	0.22
258.662	0.06
258.877	0.03
259.093	-0.03
259.309	0.05
259.524	0.11
259.74	0
259.955	-0.02
260.171	0.14
260.387	0.07
260.602	0.15
260.818	0.15
261.033	0.03
261.249	-0
261.464	0.02
261.68	-0.04
261.895	0.07
262.11	0.11
262.326	-0.01
262.541	0.02
262.757	0.09
262.972	0.1
263.187	0.06
263.403	0.07
263.618	0.16
263.833	0.06
264.049	0.02
264.264	0.04
264.479	0.11
264.694	0.09
264.91	-0.02
265.125	-0.01
265.34	0.17
265.555	0.18
265.77	0.04
265.986	-0.04
266.201	0.04
266.416	0.21
266.631	-0.05
266.846	0.03
267.061	0.12
267.276	0.14
267.491	-0.04
267.706	0.05
267.921	0.06
268.136	0.03
268.351	0.07
268.566	-0.03
268.781	0.19
268.996	0.08
269.211	0.02
269.426	0.01
269.641	0.03
269.856	0.14
270.071	0.04
270.285	-0.03
270.5	0.13
270.715	0.13
270.93	0.04
271.145	0.07
271.359	0.11
271.574	0.04
271.789	0.05
272.004	0.03
272.218	0.05
272.433	0.15
272.648	0.05
272.862	0.12
273.077	0.02
273.292	0.11
273.506	0.03
273.721	0.06
273.936	0.1
274.15	0.14
274.365	0.02
274.579	0.1
274.794	0.13
275.008	0.09
275.223	-0.01
275.437	-0
275.652	0.14
275.866	0.06
276.081	-0.03
276.295	0.14
276.509	0.03
276.724	0.09
276.938	0.05
277.153	0.06
277.367	0.15
277.581	0.08
277.796	0.06
278.01	-0.01
278.224	0.12
278.438	0.15
278.653	-0.03
278.867	0
279.081	0.16
279.295	-0.01
279.51	-0.01
279.724	-0.01
279.938	0.13
280.152	0.06
280.366	0.05
280.58	0.05
280.794	0.12
281.008	0.07
281.222	0.09
281.437	0.21
281.651	0.09
281.865	0.18
282.079	0.04
282.293	-0.05
282.507	0.02
282.721	0.04
282.935	0.04
283.148	-0.05
283.362	-0.01
283.576	-0.02
283.79	0.05
284.004	-0.05
284.218	0.08
284.432	0.08
284.646	0.02
284.859	0.05
285.073	0.01
285.287	0.1
285.501	0.02
285.714	0
285.928	0.11
286.142	0.03
286.356	0
286.569	-0
286.783	0.13
286.997	0.09
287.21	0.09
287.424	0.08
287.637	0.08
287.851	0.02
288.065	0.09
288.278	0.01
288.492	0.03
288.705	0.04
288.919	0.06
289.132	-0.01
289.346	0.14
289.559	0.03
289.773	-0.01
289.986	0.04
290.2	0.07
290.413	0.12
290.626	-0.02
290.84	0.04
291.053	0.07
291.267	0.11
291.48	0.05
291.693	0.04
291.906	-0.02
292.12	0.04
292.333	0.01
292.546	0.04
292.76	0.14
292.973	0.08
293.186	0.07
293.399	0.03
293.612	0.12
293.826	0.07
294.039	0.06
294.252	0.04
294.465	0.02
294.678	0.06
294.891	0.04
295.104	0.01
295.317	0.04
295.53	0.07
295.743	0.05
295.956	0.03
296.169	0.14
296.382	0.11
296.595	0.02
296.808	0.03
297.021	0.12
297.234	0.11
297.447	0.06
297.66	0.05
297.873	0.14
298.086	0.08
298.299	0.05
298.511	-0.03
298.724	0.07
298.937	-0.01
299.15	0.01
299.363	0.03
299.575	0.05
299.788	0.13
300.001	0.05
300.213	-0.01
300.426	0.07
300.639	0.05
300.852	0.01
301.064	0.11
301.277	0.14
301.489	0.09
301.702	0.08
301.915	0.07
302.127	0.03
302.34	0.07
302.552	0.09
302.765	0.01
302.977	0.1
303.19	0.04
303.402	0.06
303.615	0.04
303.827	0.01
304.04	0.04
304.252	0.07
304.464	0.05
304.677	0.2
304.889	0.09
305.102	0.01
305.314	0.03
305.526	0.11
305.739	0.09
305.951	-0
306.163	-0
306.375	0.1
306.588	0.01
306.8	0.02
307.012	0.02
307.224	0.07
307.436	0.09
307.649	-0.03
307.861	0.05
308.073	0.1
308.285	0.02
308.497	-0.01
308.709	0.03
308.921	0.07
309.133	0.14
309.346	0.06
309.558	0.04
309.77	0.09
309.982	0.11
310.194	0.09
310.406	0.06
310.617	0.14
310.829	0.08
311.041	0.07
311.253	-0.01
311.465	0.06
311.677	0.03
311.889	0.04
312.101	0.07
312.313	0.11
312.524	0.11
312.736	-0.02
312.948	0.02
313.16	0.14
313.372	0.09
313.583	0.04
313.795	0.04
314.007	-0.03
314.218	0.08
314.43	0.05
314.642	-0
314.853	-0
315.065	0.13
315.277	0.03
315.488	0.07
315.7	0.1
315.912	0.07
316.123	0.05
316.335	0.03
316.546	0.16
316.758	0.04
316.969	0.01
317.181	0.04
317.392	0.01
317.604	0.13
317.815	-0.02
318.026	-0.02
318.238	0.08
318.449	0.14
318.661	-0.01
318.872	0.03
319.083	-0.05
319.295	0.1
319.506	0.03
319.717	0.07
319.929	0.1
320.14	0.05
320.351	0.06
320.562	0.06
320.774	0.02
320.985	0.08
321.196	0.02
321.407	-0.02
321.618	0.09
321.829	0.03
322.041	0.12
322.252	0.03
322.463	0.1
322.674	0.09
322.885	0.03
323.096	0
323.307	0.02
323.518	0.04
323.729	0.03
323.94	0.06
324.151	0.05
324.362	0.09
324.573	0.06
324.784	-0.02
324.995	0.1
325.206	0.07
325.417	0.06
325.628	0.06
325.838	0.07
326.049	0.07
326.26	0.07
326.471	0.04
326.682	0.09
326.892	0.04
327.103	0
327.314	0.03
327.525	0.13
327.735	0.08
327.946	0.06
328.157	0.01
328.368	0.09
328.578	0.06
328.789	0.07
328.999	0.03
329.21	0.08
329.421	0.1
329.631	0.01
329.842	0.01
330.052	0.06
330.263	0.07
330.473	0.05
330.684	0.05
330.894	0.05
331.105	0.07
331.315	0.02
331.526	0.01
331.736	0.15
331.947	0.06
332.157	0.1
332.367	0.02
332.578	0.11
332.788	0.12
332.999	0.04
333.209	0.03
333.419	0.01
333.629	0.06
333.84	0.09
334.05	0.05
334.26	0.2
334.47	0.13
334.681	0.08
334.891	0.03
335.101	0.12
335.311	0.14
335.521	0.05
335.732	0.02
335.942	0.14
336.152	0.11
336.362	0.07
336.572	0.09
336.782	0.08
336.992	0.03
337.202	0.05
337.412	0.03
337.622	0.1
337.832	0.07
338.042	0.05
338.252	0.03
338.462	0.05
338.672	0.07
338.882	-0.02
339.092	0.08
339.302	0.16
339.511	0.09
339.721	0.05
339.931	-0.01
340.141	0.07
340.351	0.07
340.561	0.09
340.77	0.05
340.98	0.08
341.19	0.1
341.4	0.04
341.609	0
341.819	0.06
342.029	0.03
342.238	0.04
342.448	0.02
342.658	0.1
342.867	0.04
343.077	0.06
343.286	0.07
343.496	0.12
343.706	0.18
343.915	0.02
344.125	0.07
344.334	0.09
344.544	-0.02
344.753	-0.02
344.963	0.06
345.172	-0.02
345.381	0
345.591	0.01
345.8	0.09
346.01	0.1
346.219	0.11
346.428	-0.04
346.638	0.04
346.847	0.05
347.056	0.1
347.266	0.08
347.475	0.07
347.684	0.1
347.893	0.1
348.103	0.1
348.312	0.05
348.521	0.03
348.73	0.03
348.94	0.09
349.149	0.02
349.358	0.04
349.567	0.03
349.776	0.01
349.985	0.05
350.194	0.07
350.403	0.14
350.612	-0
350.821	0.07
351.03	0.07
351.239	0.01
351.448	0.01
351.657	0.04
351.866	0.14
352.075	0.04
352.284	0.13
352.493	0.06
352.702	0.1
352.911	0.07
353.12	0.07
353.329	0.02
353.538	0.06
353.746	0.04
353.955	0.02
354.164	0.06
354.373	0.1
354.582	0.07
354.79	0.05
354.999	0.12
355.208	0.04
355.416	0.12
355.625	-0.02
355.834	-0.01
356.042	0.1
356.251	0.03
356.46	0.03
356.668	0.06
356.877	0.18
357.085	0.12
357.294	-0.02
357.503	0.05
357.711	0.06
357.92	0.15
358.128	0.09
358.337	0.08
358.545	0.05
358.754	0.05
358.962	0.09
359.17	0.03
359.379	0.11
359.587	0.1
359.796	0.05
360.004	0.1
360.212	0.08
360.421	0.12
360.629	0.05
360.837	0.03
361.046	0.11
361.254	0.21
361.462	0.08
361.67	0.03
361.879	0.11
362.087	0.14
362.295	0.08
362.503	0
362.711	0.04
362.92	0.04
363.128	0.04
363.336	0.05
363.544	0.01
363.752	0.05
363.96	0.04
364.168	0.02
364.376	0.08
364.584	0.1
364.792	0.07
365	0.11
365.208	0.08
365.416	0.11
365.624	0.07
365.832	0.07
366.04	0.1
366.248	0.08
366.456	0.07
366.664	0.1
366.872	0.09
367.079	0.05
367.287	0.02
367.495	0.1
367.703	0.07
367.911	0.06
368.118	0.06
368.326	0.04
368.534	0.01
368.742	0.1
368.949	0.04
369.157	0.06
369.365	0.09
369.572	0.06
369.78	0.06
369.988	0.12
370.195	0.11
370.403	0.11
370.61	0.04
370.818	0.07
371.026	0.14
371.233	0.07
371.441	0.08
371.648	0.01
371.856	0.12
372.063	0.11
372.271	0.05
372.478	0.05
372.685	0.05
372.893	0.11
373.1	0.05
373.308	0.07
373.515	0.16
373.722	0.13
373.93	0.06
374.137	0.09
374.344	0.17
374.552	0.09
374.759	0.11
374.966	0.09
375.173	0.05
375.381	0.13
375.588	0.06
375.795	0.02
376.002	0.05
376.209	0.03
376.417	0.1
376.624	0.05
376.831	0.16
377.038	0.04
377.245	-0.02
377.452	0.04
377.659	0.11
377.866	0.08
378.073	0.05
378.28	0.07
378.487	0.11
378.694	0.11
378.901	0.07
379.108	0.04
379.315	0.15
379.522	0.14
379.729	0.09
379.936	0.07
380.143	0.09
380.35	0.1
380.557	0.06
380.763	0.09
380.97	0.07
381.177	0.11
381.384	0.11
381.591	0.07
381.797	0.09
382.004	0.1
382.211	0.12
382.418	0.13
382.624	0.17
382.831	0.17
383.038	0.08
383.244	0.09
383.451	0.12
383.658	0.14
383.864	0.09
384.071	0.04
384.277	0.13
384.484	0.09
384.69	0.13
384.897	0.07
385.103	0.1
385.31	0.06
385.516	0.08
385.723	0.08
385.929	0.12
386.136	0.1
386.342	0.14
386.549	0.13
386.755	0.17
386.961	0.17
387.168	0.09
387.374	0.11
387.58	0.15
387.787	0.11
387.993	0.1
388.199	0.14
388.406	0.07
388.612	0.09
388.818	0.06
389.024	0.11
389.231	0.14
389.437	0.27
389.643	0.13
389.849	0.13
390.055	0.16
390.261	0.16
390.467	0.21
390.674	0.09
390.88	0.14
391.086	0.19
391.292	0.11
391.498	0.16
391.704	0.2
391.91	0.15
392.116	0.13
392.322	0.03
392.528	0.2
392.734	0.16
392.94	0.19
393.146	0.22
393.352	0.19
393.557	0.17
393.763	0.18
393.969	0.23
394.175	0.2
394.381	0.22
394.587	0.16
394.792	0.25
394.998	0.25
395.204	0.27
395.41	0.19
395.615	0.26
395.821	0.26
396.027	0.26
396.233	0.23
396.438	0.29
396.644	0.38
396.85	0.33
397.055	0.34
397.261	0.29
397.466	0.32
397.672	0.37
397.878	0.4
398.083	0.44
398.289	0.32
398.494	0.48
398.7	0.45
398.905	0.38
399.111	0.52
399.316	0.4
399.522	0.48
399.727	0.46
399.932	0.48
400.138	0.49
400.343	0.59
400.549	0.53
400.754	0.66
400.959	0.66
401.165	0.66
401.37	0.65
401.575	0.85
401.78	0.72
401.986	0.71
402.191	0.76
402.396	0.83
402.601	0.94
402.807	0.97
403.012	0.97
403.217	1.12
403.422	1.08
403.627	1.14
403.832	1.13
404.037	1.25
404.243	1.26
404.448	1.36
404.653	1.41
404.858	1.5
405.063	1.5
405.268	1.56
405.473	1.57
405.678	1.68
405.883	1.99
406.088	1.88
406.293	1.9
406.498	1.95
406.703	2.03
406.907	2.17
407.112	2.27
407.317	2.45
407.522	2.54
407.727	2.63
407.932	2.72
408.136	2.98
408.341	2.97
408.546	3.12
408.751	3.23
408.956	3.39
409.16	3.54
409.365	3.65
409.57	3.75
409.774	3.84
409.979	4.08
410.184	4.27
410.388	4.23
410.593	4.56
410.798	4.77
411.002	5.01
411.207	5.21
411.411	5.46
411.616	5.48
411.82	5.78
412.025	5.88
412.229	6.12
412.434	6.41
412.638	6.6
412.843	6.8
413.047	7.02
413.252	7.11
413.456	7.71
413.66	7.85
413.865	7.94
414.069	8.26
414.273	8.44
414.478	8.65
414.682	8.95
414.886	9.33
415.091	9.4
415.295	9.77
415.499	10.33
415.703	10.21
415.908	10.86
416.112	10.97
416.316	11.39
416.52	11.69
416.724	11.98
416.929	12.27
417.133	12.98
417.337	12.87
417.541	13.37
417.745	13.57
417.949	13.88
418.153	14.42
418.357	14.63
418.561	15.41
418.765	15.27
418.969	15.64
419.173	16.33
419.377	16.5
419.581	17.11
419.785	17.59
419.989	17.61
420.193	18.3
420.397	18.37
420.601	18.73
420.804	18.95
421.008	19.03
421.212	19.41
421.416	19.01
421.62	19.36
421.823	19.25
422.027	19.22
422.231	19.12
422.435	18.83
422.638	18.75
422.842	18.9
423.046	19.14
423.249	19.42
423.453	19.03
423.657	19.19
423.86	19.2
424.064	19.42
424.268	19.25
424.471	19.07
424.675	19.19
424.878	18.81
425.082	18.92
425.285	19.32
425.489	18.6
425.692	18.42
425.896	17.98
426.099	17.83
426.303	18.02
426.506	17.68
426.71	17.75
426.913	17.48
427.116	17.39
427.32	16.9
427.523	16.6
427.726	16.56
427.93	16.31
428.133	16.49
428.336	16.13
428.54	15.88
428.743	15.64
428.946	15.6
429.149	14.93
429.353	14.42
429.556	14.09
429.759	13.49
429.962	13.27
430.165	12.97
430.368	11.99
430.571	11.64
430.775	11.22
430.978	10.72
431.181	10.39
431.384	10.18
431.587	9.89
431.79	9.91
431.993	9.51
432.196	9.33
432.399	9.47
432.602	9.25
432.805	8.98
433.008	9.14
433.211	8.66
433.414	8.72
433.616	8.26
433.819	8.08
434.022	7.86
434.225	7.81
434.428	7.51
434.631	7.63
434.833	7.16
435.036	7.13
435.239	7
435.442	6.69
435.645	6.55
435.847	6.43
436.05	6.43
436.253	6.37
436.455	6.17
436.658	5.83
436.861	5.92
437.063	5.71
437.266	5.39
437.468	5.39
437.671	5.41
437.874	5.27
438.076	4.9
438.279	4.94
438.481	4.83
438.684	4.99
438.886	4.68
439.089	4.55
439.291	4.44
439.494	4.36
439.696	4.32
439.899	4.31
440.101	4.26
440.303	4.16
440.506	4.3
440.708	3.98
440.91	3.99
441.113	3.8
441.315	3.79
441.517	3.53
441.72	3.68
441.922	3.28
442.124	3.12
442.326	3.25
442.529	3.25
442.731	3.04
442.933	3.11
443.135	2.87
443.337	2.65
443.539	2.68
443.742	2.55
443.944	2.62
444.146	2.49
444.348	2.45
444.55	2.26
444.752	2.31
444.954	2.2
445.156	2.14
445.358	2.08
445.56	2.15
445.762	2.07
445.964	2.02
446.166	1.89
446.368	1.87
446.57	1.87
446.772	1.77
446.974	1.69
447.175	1.71
447.377	1.59
447.579	1.58
447.781	1.52
447.983	1.58
448.184	1.51
448.386	1.49
448.588	1.35
448.79	1.37
448.991	1.35
449.193	1.32
449.395	1.28
449.597	1.28
449.798	1.28
450	1.21
450.202	1.19
450.403	1.17
450.605	1.18
450.806	1.1
451.008	1.01
451.21	1.08
451.411	1.05
451.613	0.98
451.814	0.99
452.016	1.03
452.217	0.93
452.419	1
452.62	0.91
452.821	0.91
453.023	0.94
453.224	0.95
453.426	0.83
453.627	0.84
453.828	0.84
454.03	0.86
454.231	0.87
454.432	0.73
454.634	0.88
454.835	0.72
455.036	0.65
455.238	0.76
455.439	0.79
455.64	0.65
455.841	0.65
456.042	0.74
456.244	0.62
456.445	0.6
456.646	0.55
456.847	0.56
457.048	0.69
457.249	0.68
457.45	0.88
457.651	0.51
457.852	0.63
458.054	0.51
458.255	0.5
458.456	0.56
458.657	0.48
458.858	0.44
459.058	0.51
459.259	0.55
459.46	0.46
459.661	0.48
459.862	0.62
460.063	0.47
460.264	0.49
460.465	0.34
460.666	0.59
460.866	0.39
461.067	0.42
461.268	0.39
461.469	0.39
461.67	0.37
461.87	0.35
462.071	0.38
462.272	0.36
462.473	0.39
462.673	0.39
462.874	0.25
463.075	0.4
463.275	0.34
463.476	0.35
463.676	0.4
463.877	0.32
464.078	0.34
464.278	0.37
464.479	0.35
464.679	0.34
464.88	0.37
465.08	0.45
465.281	0.27
465.481	0.26
465.682	0.29
465.882	0.37
466.083	0.27
466.283	0.29
466.483	0.27
466.684	0.19
466.884	0.25
467.085	0.26
467.285	0.32
467.485	0.18
467.686	0.24
467.886	0.19
468.086	0.21
468.286	0.2
468.487	0.24
468.687	0.18
468.887	0.23
469.087	0.27
469.287	0.23
469.488	0.12
469.688	0.25
469.888	0.29
470.088	0.26
470.288	0.27
470.488	0.23
470.688	0.15
470.888	0.23
471.088	0.16
471.288	0.2
471.488	0.22
471.688	0.22
471.888	0.16
472.088	0.25
472.288	0.29
472.488	0.18
472.688	0.17
472.888	0.19
473.088	0.21
473.288	0.19
473.488	0.15
473.688	0.22
473.887	0.17
474.087	0.11
474.287	0.2
474.487	0.15
474.687	0.17
474.886	0.11
475.086	0.17
475.286	0.17
475.486	0.22
475.685	0.17
475.885	0.13
476.085	0.17
476.284	0.17
476.484	0.17
476.684	0.15
476.883	0.22
477.083	0.17
477.282	0.12
477.482	0.2
477.681	0.2
477.881	0.18
478.08	0.11
478.28	0.08
478.479	0.16
478.679	0.24
478.878	0.12
479.078	0.12
479.277	0.11
479.477	0.13
479.676	0.15
479.875	0.09
480.075	0.06
480.274	0.11
480.473	0.14
480.673	0.07
480.872	0.16
481.071	0.11
481.271	0.12
481.47	0.08
481.669	0.05
481.868	0.09
482.067	0.05
482.267	0.08
482.466	0.07
482.665	0.06
482.864	0.04
483.063	0.04
483.262	0.12
483.461	0.12
483.661	0.1
483.86	0.09
484.059	0.11
484.258	0.09
484.457	0.09
484.656	0.08
484.855	0.13
485.054	0.03
485.253	0.05
485.452	0.05
485.651	0.1
485.849	0.1
486.048	0.08
486.247	0.04
486.446	0.06
486.645	0.04
486.844	0.07
487.043	0.07
487.241	0.1
487.44	0.05
487.639	0.08
487.838	0.11
488.037	0.1
488.235	0.16
488.434	0.09
488.633	0.06
488.831	0.09
489.03	0.11
489.229	0.08
489.427	0.06
489.626	0.09
489.825	0.12
490.023	0.07
490.222	0.06
490.42	0.11
490.619	0.09
490.817	0.08
491.016	0.04
491.214	0.11
491.413	0.06
491.611	0.06
491.81	0.04
492.008	0.09
492.207	0.08
492.405	0.07
492.604	0.01
492.802	0.06
493	0.08
493.199	0.06
493.397	0.05
493.595	0.05
493.794	0.03
493.992	0.11
494.19	0.04
494.388	0.09
494.587	0.06
494.785	0.07
494.983	0.03
495.181	0.04
495.379	0.08
495.578	0.05
495.776	0.09
495.974	0.05
496.172	0.06
496.37	0.02
496.568	0.05
496.766	0.03
496.964	0.08
497.162	0.04
497.36	0.02
497.558	0.06
497.756	0.06
497.954	0.05
498.152	0.03
498.35	0.05
498.548	0.05
498.746	0.06
498.944	0.02
499.142	0.02
499.34	0.01
499.538	0.05
499.736	0.04
499.933	0.1
500.131	0.07
500.329	0.07
500.527	0.08
500.725	0.09
500.922	0.08
501.12	0.04
501.318	0.05
501.516	0.03
501.713	0.07
501.911	0.05
502.109	0.03
502.306	0.06
502.504	0.04
502.701	0.03
502.899	0.04
503.097	0.08
503.294	0.05
503.492	0.04
503.689	0.03
503.887	0.09
504.084	0.08
504.282	0.03
504.479	0.02
504.677	0.03
504.874	0.02
505.072	0.04
505.269	0.03
505.466	0.09
505.664	0.05
505.861	0.02
506.059	0.03
506.256	0.07
506.453	0.03
506.651	0.11
506.848	0.07
507.045	0.05
507.242	0.04
507.44	0.05
507.637	0.05
507.834	0.04
508.031	0.07
508.229	0.03
508.426	0.03
508.623	0.07
508.82	0.04
509.017	0.05
509.214	0.06
509.411	0.04
509.608	0.01
509.805	0.03
510.003	0.03
510.2	0.03
510.397	0.05
510.594	0.01
510.791	0
510.988	0.04
511.184	0.06
511.381	0.04
511.578	0.02
511.775	0.06
511.972	0.04
512.169	0.03
512.366	0.03
512.563	0.05
512.76	0.02
512.956	0.07
513.153	0.01
513.35	0.04
513.547	0.03
513.744	-0
513.94	0.01
514.137	0.03
514.334	0.04
514.53	0.04
514.727	0.03
514.924	0.09
515.12	0.03
515.317	-0
515.514	0.03
515.71	0.03
515.907	0.04
516.103	0.05
516.3	0.05
516.497	0.08
516.693	0.07
516.89	0.05
517.086	0.01
517.283	0.05
517.479	0.04
517.676	0.04
517.872	0.05
518.068	0.02
518.265	0.04
518.461	0.04
518.658	0.03
518.854	0.05
519.05	0.03
519.247	0.01
519.443	0.05
519.639	0.05
519.836	0.05
520.032	0.03
520.228	0.04
520.424	0.07
520.621	0.05
520.817	0.02
521.013	0.06
521.209	0.05
521.405	0.07
521.601	0.03
521.798	0.04
521.994	0.08
522.19	0.02
522.386	-0.01
522.582	0.03
522.778	0.04
522.974	0.02
523.17	0.05
523.366	0.05
523.562	0.07
523.758	0.03
523.954	-0.02
524.15	0.02
524.346	0.02
524.542	0.01
524.738	0
524.934	0.04
525.129	0.03
525.325	0.04
525.521	0.02
525.717	0.06
525.913	0.02
526.109	0.05
526.304	0.02
526.5	0.05
526.696	0.03
526.892	0.03
527.087	0.04
527.283	-0.01
527.479	0.04
527.674	0.01
527.87	0.03
528.066	0.05
528.261	0.06
528.457	0.05
528.653	0.02
528.848	0.02
529.044	0.04
529.239	0.01
529.435	0.06
529.63	0.06
529.826	0.1
530.021	0.04
530.217	0.04
530.412	0.02
530.608	0.02
530.803	0.02
530.999	0.02
531.194	-0.03
531.389	0.04
531.585	-0.01
531.78	0.02
531.975	0.04
532.171	0.05
532.366	0.03
532.561	0.04
532.757	0
532.952	0.04
533.147	0.04
533.342	0.02
533.538	0
533.733	0.06
533.928	0.02
534.123	0.02
534.318	-0
534.513	0.02
534.709	0.03
534.904	0
535.099	-0
535.294	0.03
535.489	0.02
535.684	0.04
535.879	0.01
536.074	0.05
536.269	0
536.464	0.05
536.659	0.03
536.854	0.02
537.049	0.04
537.244	0.05
537.439	0.01
537.634	0.08
537.828	0.04
538.023	0.01
538.218	-0
538.413	0.03
538.608	-0.01
538.803	0.04
538.997	-0.01
539.192	0.05
539.387	0.04
539.582	0.03
539.776	0.02
539.971	0.01
540.166	0.02
540.36	0
540.555	0.03
540.75	0.01
540.944	0.03
541.139	-0.01
541.334	0.02
541.528	0.03
541.723	0.05
541.917	0.01
542.112	-0.01
542.306	0.01
542.501	-0.01
542.695	0.03
542.89	0.02
543.084	0.03
543.279	0.01
543.473	0.02
543.668	0.02
543.862	0.01
544.056	0.04
544.251	0.02
544.445	0.05
544.64	0.02
544.834	0
545.028	0.03
545.222	0.03
545.417	0.03
545.611	0.03
545.805	0.02
546	0.02
546.194	0.02
546.388	-0.01
546.582	0.03
546.776	0.01
546.97	0.03
547.165	0.05
547.359	0.04
547.553	0.02
547.747	0.02
547.941	0.01
548.135	0.02
548.329	0.05
548.523	0.04
548.717	0
548.911	-0
549.105	0.01
549.299	0.01
549.493	0.04
549.687	0.03
549.881	0.03
550.075	0.02
550.269	0
550.463	0.06
550.657	-0.01
550.85	0.04
551.044	-0
551.238	0.03
551.432	-0.01
551.626	0
551.82	0.03
552.013	0
552.207	0.03
552.401	0.02
552.594	0.06
552.788	0.02
552.982	0.03
553.176	0.02
553.369	0.05
553.563	0.03
553.756	-0.02
553.95	0
554.144	0
554.337	0.05
554.531	0.02
554.724	0.04
554.918	-0.01
555.111	0.04
555.305	0.02
555.498	0.06
555.692	0.04
555.885	0
556.079	0.04
556.272	-0.01
556.466	0.05
556.659	0.03
556.852	0.01
557.046	0.01
557.239	0.06
557.432	0
557.626	-0.01
557.819	0.05
558.012	0.03
558.206	0.03
558.399	0.01
558.592	0.04
558.785	0.03
558.979	0.04
559.172	0.02
559.365	0.02
559.558	0.03
559.751	0.01
559.944	0.01
560.138	-0
560.331	0.03
560.524	0.01
560.717	0.04
560.91	0.03
561.103	0.03
561.296	0.04
561.489	0.01
561.682	0.03
561.875	0.05
562.068	0.04
562.261	0.03
562.454	0.07
562.647	0.03
562.84	0.03
563.032	0.02
563.225	0.04
563.418	0
563.611	0
563.804	0.03
563.997	-0.01
564.19	-0.01
564.382	0.03
564.575	0.03
564.768	0.02
564.961	0.03
565.153	-0.01
565.346	0.04
565.539	0.04
565.731	0.03
565.924	0.04
566.117	0.02
566.309	0.02
566.502	-0
566.695	0.05
566.887	0.03
567.08	0.01
567.272	0
567.465	-0
567.657	0.03
567.85	0.03
568.042	0.03
568.235	0.08
568.427	0.02
568.62	-0
568.812	0.02
569.005	0.02
569.197	-0.02
569.389	0.02
569.582	0.02
569.774	0.02
569.966	-0.02
570.159	-0.04
570.351	0.03
570.543	0.01
570.736	0.02
570.928	0.02
571.12	0.03
571.312	0
571.505	-0.04
571.697	0.04
571.889	-0
572.081	0.01
572.273	0
572.465	0.07
572.658	-0
572.85	0.03
573.042	0.01
573.234	0.02
573.426	0.04
573.618	0
573.81	0.02
574.002	0.06
574.194	0.07
574.386	-0.01
574.578	-0.07
574.77	0.01
574.962	0.02
575.154	-0.02
575.346	0.01
575.538	0.06
575.729	0
575.921	0.01
576.113	-0
576.305	0.05
576.497	0
576.689	-0.03
576.88	-0.02
577.072	0.05
577.264	0.01
577.456	0.01
577.647	-0.06
577.839	0.02
578.031	0.06
578.223	-0.01
578.414	-0.03
578.606	0.05
578.798	0.02
578.989	-0
579.181	-0.01
579.372	0.01
579.564	0.02
579.755	0.03
579.947	0.02
580.139	0.03
580.33	-0.03
580.522	0.01
580.713	-0.05
580.905	0.04
581.096	0.01
581.287	0.02
581.479	0.02
581.67	0.05
581.862	0.01
582.053	-0.02
582.244	-0.02
582.436	0.01
582.627	0.03
582.818	0
583.01	-0.03
583.201	0.05
583.392	0.05
583.583	0.02
583.775	-0.03
583.966	-0.02
584.157	0.03
584.348	-0.01
584.54	-0.03
584.731	0.03
584.922	0.01
585.113	0.01
585.304	0.03
585.495	0.06
585.686	0.02
585.877	0.03
586.068	0.05
586.259	0.05
586.45	0.02
586.641	-0.01
586.832	-0.04
587.023	0.01
587.214	-0.01
587.405	-0
587.596	-0.01
587.787	0.06
587.978	0.03
588.169	-0.01
588.36	-0.04
588.551	0.04
588.742	0.01
588.932	0.03
589.123	-0
589.314	0.06
589.505	0.02
589.696	0.03
589.886	-0
590.077	-0.03
590.268	0.02
590.458	-0.03
590.649	-0.03
590.84	0.05
591.03	-0.01
591.221	-0.03
591.412	-0.03
591.602	0.02
591.793	0.08
591.984	-0.03
592.174	-0.01
592.365	0.07
592.555	-0.02
592.746	0.05
592.936	0.01
593.127	0.03
593.317	0.06
593.508	-0
593.698	-0.01
593.889	0.02
594.079	0.04
594.269	-0.02
594.46	0.02
594.65	0.01
594.84	0.02
595.031	-0.03
595.221	0.01
595.411	-0.02
595.602	0.05
595.792	0.01
595.982	-0.04
596.172	0.04
596.363	0.03
596.553	0.03
596.743	0.04
596.933	0.01
597.123	0.05
597.314	-0.01
597.504	-0.02
597.694	0.06
597.884	0.04
598.074	-0
598.264	0
598.454	0.01
598.644	0.01
598.834	0
599.024	-0.06
599.214	-0.02
599.404	0.02
599.594	-0.01
599.784	-0.03
599.974	0.08
600.164	0.03
600.354	-0
600.544	-0.03
600.734	0.02
600.924	0.05
601.114	-0.01
601.303	-0.01
601.493	0.02
601.683	0.02
601.873	0.04
602.063	-0.04
602.252	0.04
602.442	-0.04
602.632	-0.03
602.821	-0.03
603.011	0.02
603.201	0.01
603.39	-0.03
603.58	-0.02
603.77	0.02
603.959	0.02
604.149	0.03
604.339	0.01
604.528	0.06
604.718	0.02
604.907	0
605.097	-0.02
605.286	0.01
605.476	0.03
605.665	0.02
605.855	0.01
606.044	0.04
606.234	0.03
606.423	-0.01
606.612	-0.02
606.802	-0
606.991	0.05
607.181	0.03
607.37	-0.02
607.559	0.04
607.749	-0.02
607.938	0.02
608.127	-0.01
608.316	-0.03
608.506	0.04
608.695	0.01
608.884	-0.06
609.073	0.02
609.263	0.04
609.452	0.01
609.641	0.01
609.83	-0.04
610.019	-0
610.208	-0.03
610.397	-0
610.586	0.04
610.775	-0.01
610.965	-0.02
611.154	-0.02
611.343	0.04
611.532	0.02
611.721	-0
611.91	-0.02
612.099	0
612.287	0.01
612.476	-0.02
612.665	0
612.854	-0.02
613.043	0.05
613.232	-0.01
613.421	-0.03
613.61	0.04
613.798	-0
613.987	0.03
614.176	0.03
614.365	0.03
614.554	0
614.742	0.05
614.931	-0.02
615.12	0.06
615.309	0
615.497	0.02
615.686	-0.02
615.875	0.02
616.063	0.03
616.252	-0.03
616.44	0
616.629	-0.01
616.818	0.08
617.006	-0.02
617.195	-0.02
617.383	0.04
617.572	0.02
617.76	-0.02
617.949	-0
618.137	0.02
618.326	0.02
618.514	-0
618.703	-0
618.891	0.04
619.079	-0.06
619.268	0.03
619.456	-0.01
619.644	0.04
619.833	0.01
620.021	-0.03
620.209	-0.03
620.398	0.03
620.586	0.03
620.774	-0.01
620.962	0.02
621.151	0.09
621.339	0.03
621.527	-0.05
621.715	-0.02
621.903	-0.04
622.092	-0
622.28	0.03
622.468	0.01
622.656	-0.01
622.844	0.04
623.032	0.01
623.22	-0.03
623.408	0.02
623.596	0.01
623.784	0.06
623.972	-0
624.16	-0.03
624.348	0.05
624.536	0
624.724	0.02
624.912	0.05
625.1	0.07
625.288	-0.02
625.476	-0.02
625.664	0.06
625.851	-0
626.039	0.03
626.227	-0
626.415	0.02
626.603	-0.05
626.79	-0.01
626.978	-0.02
627.166	0.04
627.354	0.02
627.541	-0.03
627.729	-0.07
627.917	0.05
628.104	0.03
628.292	0.02
628.48	0.03
628.667	0.02
628.855	0.02
629.042	0.04
629.23	-0.01
629.418	-0.02
629.605	0
629.793	-0.04
629.98	-0.01
630.168	-0.01
630.355	-0.01
630.543	0.02
630.73	-0.02
630.917	0.03
631.105	0.06
631.292	-0
631.48	-0.02
631.667	0.09
631.854	0.02
632.042	-0
632.229	-0.01
632.416	0
632.604	0.01
632.791	-0.02
632.978	0.03
633.165	0.01
633.353	0.09
633.54	0.03
633.727	-0.06
633.914	-0.03
634.101	-0.05
634.289	0.06
634.476	-0.03
634.663	-0.02
634.85	0.04
635.037	-0.03
635.224	-0.04
635.411	0.04
635.598	0.04
635.785	-0
635.972	-0
636.159	0.02
636.346	-0.02
636.533	-0
636.72	-0.02
636.907	-0.01
637.094	0.03
637.281	0.01
637.468	0.04
637.655	-0.01
637.842	0.02
638.029	-0.02
638.215	0.05
638.402	0.01
638.589	0
638.776	-0.01
638.963	-0.01
639.149	0.05
639.336	0.09
639.523	0
639.709	0
639.896	-0.02
640.083	0.11
640.27	0.01
640.456	-0.01
640.643	0.02
640.829	-0.02
641.016	0.01
641.203	-0.05
641.389	0.02
641.576	0.02
641.762	0
641.949	-0.04
642.135	0.03
642.322	0.02
642.508	-0.05
642.695	-0.04
642.881	-0.01
643.068	0.01
643.254	-0
643.441	0.04
643.627	-0.04
643.813	-0.05
644	0.06
644.186	-0.03
644.372	-0.03
644.559	0.04
644.745	-0.01
644.931	-0.06
645.118	-0.02
645.304	-0.01
645.49	-0.01
645.676	-0.02
645.862	0.01
646.049	0.05
646.235	0
646.421	0.07
646.607	0.07
646.793	-0.02
646.979	-0
647.165	0
647.352	0.03
647.538	0.05
647.724	-0.01
647.91	0.03
648.096	0.06
648.282	0.06
648.468	0.01
648.654	0.01
648.84	0.02
649.026	0.04
649.212	-0.01
649.397	-0.05
649.583	-0.04
649.769	0.04
649.955	0.02
650.141	-0
650.327	0.08
650.513	-0.02
650.698	0.05
650.884	-0.08
651.07	0.03
651.256	0.04
651.442	-0
651.627	0
651.813	-0.02
651.999	0
652.184	0.02
652.37	-0.01
652.556	0.01
652.741	0.06
652.927	-0.08
653.113	-0.02
653.298	-0
653.484	-0.01
653.669	-0.06
653.855	0.02
654.04	-0
654.226	-0
654.412	-0.01
654.597	-0.04
654.782	0.05
654.968	0.04
655.153	-0.01
655.339	0
655.524	-0.04
655.71	0.06
655.895	-0.03
656.08	0.01
656.266	0.05
656.451	0.03
656.636	-0.03
656.822	-0
657.007	-0.01
657.192	-0.03
657.378	-0.05
657.563	0.01
657.748	-0.01
657.933	0.03
658.118	-0.01
658.304	-0.03
658.489	0.05
658.674	0.01
658.859	-0.07
659.044	0.02
659.229	0.04
659.414	-0.01
659.599	-0
659.785	-0.08
659.97	-0.05
660.155	0.04
660.34	0.05
660.525	-0.04
660.71	-0.03
660.895	0.03
661.08	-0.01
661.264	-0
661.449	0.08
661.634	0.03
661.819	0.04
662.004	0.02
662.189	-0.07
662.374	-0.03
662.559	-0.05
662.743	-0.02
662.928	-0
663.113	-0.01
663.298	-0.08
663.483	0
663.667	0.02
663.852	-0.04
664.037	0.03
664.221	0.02
664.406	0.07
664.591	0.05
664.775	0.03
664.96	0
665.145	0.02
665.329	0.06
665.514	-0.02
665.698	-0
665.883	-0.08
666.068	0.09
666.252	0.01
666.437	-0.06
666.621	-0.02
666.806	0.04
666.99	-0.02
667.174	-0.03
667.359	0.06
667.543	-0.01
667.728	-0.03
667.912	-0.07
668.096	0.04
668.281	-0.04
668.465	-0.02
668.649	0
668.834	0.02
669.018	0.01
669.202	-0.04
669.387	-0.03
669.571	0.01
669.755	-0.07
669.939	0.01
670.124	-0.01
670.308	0.04
670.492	0.03
670.676	-0.01
670.86	0.04
671.044	-0.06
671.228	0.01
671.413	-0.03
671.597	-0.01
671.781	-0.03
671.965	0.05
672.149	0.03
672.333	-0.01
672.517	-0.06
672.701	0.02
672.885	0.03
673.069	-0.08
673.253	0.02
673.437	0.01
673.621	-0.04
673.804	0.02
673.988	-0.01
674.172	0
674.356	-0.08
674.54	-0.03
674.724	0.1
674.908	-0.02
675.091	0.03
675.275	-0.01
675.459	0.01
675.643	0.03
675.826	-0
676.01	0.03
676.194	-0
676.377	0.03
676.561	0.05
676.745	0.01
676.928	-0.01
677.112	0.03
677.296	-0.06
677.479	0
677.663	-0.04
677.846	0.06
678.03	0.01
678.213	0
678.397	0.05
678.58	0.01
678.764	-0
678.947	-0.03
679.131	-0.03
679.314	0
679.498	-0.03
679.681	0.01
679.865	0.04
680.048	-0.02
680.231	-0.05
680.415	-0.05
680.598	-0.03
680.781	-0.01
680.965	-0.01
681.148	0.02
681.331	-0
681.514	0.01
681.698	-0.04
681.881	0
682.064	0.01
682.247	-0.03
682.43	-0.09
682.614	0.02
682.797	0.07
682.98	0.07
683.163	-0.02
683.346	-0.01
683.529	-0.03
683.712	-0.07
683.895	-0
684.078	-0.06
684.261	0
684.444	0.04
684.627	0.01
684.81	-0.03
684.993	-0.01
685.176	0.01
685.359	-0.02
685.542	0
685.725	0.04
685.908	-0.01
686.091	-0.05
686.274	0.01
686.457	0.05
686.639	-0.01
686.822	0.02
687.005	0.03
687.188	0.05
687.371	0.13
687.553	0.04
687.736	0.07
687.919	0.08
688.102	0.06
688.284	-0.05
688.467	-0.05
688.65	-0.04
688.832	-0.05
689.015	0
689.197	-0.04
689.38	0.08
689.563	0.07
689.745	-0.04
689.928	-0.03
690.11	0
690.293	0.01
690.475	-0.07
690.658	0.03
690.84	0.03
691.023	-0.02
691.205	-0.01
691.388	-0.01
691.57	0.06
691.752	0.04
691.935	-0.05
692.117	-0.02
692.3	0.05
692.482	-0.01
692.664	-0.01
692.847	0.04
693.029	0.07
693.211	0.07
693.393	-0.02
693.576	0.01
693.758	0.06
693.94	-0.03
694.122	-0.01
694.304	-0.01
694.487	0
694.669	0.06
694.851	-0.04
695.033	0.01
695.215	-0.05
695.397	-0.05
695.579	0.01
695.761	-0.03
695.943	-0.07
696.125	0.05
696.308	0.02
696.49	-0.13
696.671	0.12
696.853	-0.03
697.035	0.13
697.217	0.01
697.399	0.07
697.581	-0.06
697.763	-0.04
697.945	-0.04
698.127	-0.05
698.309	0.01
698.491	0.05
698.672	-0
698.854	0.03
699.036	0.1
699.218	0
699.399	0.04
699.581	0.06
699.763	0.01
699.945	-0.08
700.126	-0.08
700.308	0.01
700.49	0.03
700.671	-0.05
700.853	-0.02
701.035	-0.01
701.216	0
701.398	-0.08
701.579	-0.03
701.761	0.06
701.943	-0
702.124	-0.03
702.306	-0.03
702.487	0.14
702.669	-0
702.85	-0.05
703.031	-0.01
703.213	0.08
703.394	0.09
703.576	-0.03
703.757	0.11
703.938	0.02
704.12	0.17
704.301	0.01
704.483	-0.07
704.664	-0.01
704.845	0.08
705.026	0.05
705.208	-0.03
705.389	0.04
705.57	0
705.751	-0.04
705.933	0
706.114	0.11
706.295	-0.03
706.476	-0.07
706.657	0.12
706.838	0.03
707.02	0.04
707.201	-0.03
707.382	-0.07
707.563	0.06
707.744	0
707.925	-0.09
708.106	-0.01
708.287	0.08
708.468	0.09
708.649	-0.02
708.83	0.04
709.011	-0.02
709.192	0.06
709.373	-0.08
709.554	-0.03
709.734	0.05
709.915	0.08
710.096	-0.02
710.277	-0.12
710.458	-0.04
710.639	0.09
710.819	-0.07
711	-0.01
711.181	0.08
711.362	0.1
711.542	0.01
711.723	-0.04
711.904	0.06
712.085	0.01
712.265	0.02
712.446	-0.09
712.627	-0.01
712.807	-0.03
712.988	0.03
713.168	-0.09
713.349	0.11
713.53	-0.14
713.71	-0.06
713.891	-0.08
714.071	0.04
714.252	-0.05
714.432	-0.02
714.613	-0.07
714.793	0.01
714.974	0.1
715.154	0.04
715.334	0.06
715.515	0.17
715.695	-0.02
715.876	0.03
716.056	-0.05
716.236	-0.06
716.417	-0.04
716.597	-0.07
716.777	0.22
716.957	0
717.138	0.03
717.318	0
717.498	-0.11
717.678	0.04
717.859	-0.01
718.039	-0.1
718.219	0.01
718.399	-0.02
718.579	-0.05
718.759	-0.09
718.939	0.01
719.12	-0.02
719.3	0.02
719.48	-0.05
719.66	-0.11
719.84	0.09
720.02	0.03
720.2	-0.05
720.38	-0.03
720.56	0.1
720.74	-0.03
720.92	-0.01
721.1	0.07
721.279	0.12
721.459	0.04
721.639	-0.07
721.819	0.1
721.999	-0.02
722.179	0.04
722.359	-0.09
722.538	-0.04
722.718	0.04
722.898	-0.01
723.078	-0.01
723.257	-0.05
723.437	0.09
723.617	-0
723.797	-0.02
723.976	-0
724.156	0.04
724.336	0.09
724.515	0.17
724.695	-0.14
724.874	-0.04
725.054	0.07
725.234	-0.08
725.413	0.11
725.593	-0.01
725.772	0
725.952	0.02
726.131	-0.04
726.311	0
726.49	0.05
726.67	-0.06
726.849	-0.09
727.028	0.13
727.208	0.03
727.387	-0
727.567	-0.09
727.746	0.01
727.925	-0.15
728.105	-0
728.284	-0.09
728.463	0.02
728.643	0.05
728.822	-0.06
729.001	-0.02
729.18	0.03
729.359	0.07
729.539	-0
729.718	-0.03
729.897	0.1
730.076	0.01
730.255	-0.05
730.434	0.02
730.614	0.01
730.793	0.1
730.972	-0.07
731.151	0.03
731.33	0.15
731.509	0.01
731.688	-0
731.867	0.04
732.046	-0.04
732.225	0.17
732.404	-0.05
732.583	-0.09
732.762	0
732.941	0.1
733.12	0.09
733.298	-0.08
733.477	0.17
733.656	-0.1
733.835	-0.14
734.014	0.04
734.193	0.01
734.371	0.02
734.55	0.06
734.729	-0.14
734.908	-0.08
735.086	0.02
735.265	0.05
735.444	-0.09
735.623	-0.12
735.801	-0.14
735.98	-0.02
736.159	-0.02
736.337	0.09
736.516	-0.02
736.694	-0.03
736.873	-0.05
737.052	0.06
737.23	0.16
737.409	-0.09
737.587	0.11
737.766	-0.1
737.944	-0.09
738.123	0.11
738.301	0.11
738.479	0.04
738.658	0
738.836	-0.18
739.015	0.04
739.193	0.07
739.371	-0.04
739.55	-0.02
739.728	-0.05
739.906	0.11
740.085	0.17
740.263	0.01
740.441	-0.24
740.62	0.11
740.798	0.14
740.976	-0.1
741.154	-0.15
741.332	0.17
741.511	-0.05
741.689	0.06
741.867	0.11
742.045	0.01
742.223	0.01
742.401	-0.09
742.579	-0.12
742.757	-0
742.935	-0.15
743.114	-0.01
743.292	-0.08
743.47	0.08
743.648	0.12
743.826	0.02
744.004	0.08
744.181	0.07
744.359	-0.05
744.537	0.06
744.715	0.04
744.893	0.08
745.071	0.04
745.249	-0.05
745.427	0.02
745.605	0.08
745.782	-0.03
745.96	0.01
746.138	0.07
746.316	0.12
746.493	-0.05
746.671	0.05
746.849	0.04
747.027	0.07
747.204	-0.03
747.382	0.07
747.56	-0.08
747.737	0.01
747.915	-0.07
748.093	0.02
748.27	-0.09
748.448	0.02
748.625	-0.15
748.803	-0.01
748.98	0.01
749.158	0.07
749.335	0.14
749.513	-0.06
749.69	0.01
749.868	-0.03
750.045	0.03
750.223	-0.13
750.4	-0.1
750.578	0.11
750.755	0
750.932	-0.08
751.11	0.1
751.287	-0.05
751.464	0.06
751.642	-0.05
751.819	0.06
751.996	-0.01
752.173	0.06
752.351	-0.13
752.528	-0.03
752.705	-0.09
752.882	-0.03
753.06	0.08
753.237	0.06
753.414	0.16
753.591	0.15
753.768	0.02
753.945	-0.01
754.122	-0
754.299	-0.02
754.476	-0.06
754.654	0.02
754.831	0.1
755.008	-0.01
755.185	-0.06
755.362	-0.09
755.539	-0.01
755.716	-0.16
755.892	-0.1
756.069	-0.05
756.246	-0.04
756.423	0.04
756.6	0.07
756.777	-0.06
756.954	0.3
757.131	-0.05
757.307	-0.07
757.484	-0.04
757.661	0.04
757.838	0.11
758.015	-0.18
758.191	0.06
758.368	0.03
758.545	0.14
758.721	0.06
758.898	-0.04
759.075	0.05
759.251	0.06
759.428	0.04
759.605	-0.12
759.781	0.03
759.958	0.1
760.134	0.03
760.311	-0.03
760.488	0.11
760.664	0.13
760.841	0.01
761.017	-0.1
761.194	-0.01
761.37	0.17
761.547	-0.07
761.723	-0.1
761.899	0.17
762.076	-0.13
762.252	-0.02
762.429	-0.02
762.605	0.09
762.781	-0.01
762.958	-0.02
763.134	0.09
763.31	-0.05
763.486	0.14
763.663	-0.3
763.839	0.1
764.015	-0.22
764.191	-0.02
764.368	-0.05
764.544	-0.13
764.72	0.18
764.896	0.02
765.072	0.03
765.248	-0.04
765.425	-0.07
765.601	0.13
765.777	-0.01
765.953	-0.26
766.129	0.1
766.305	-0.07
766.481	0.07
766.657	0.06
766.833	0.12
767.009	-0.1
767.185	-0.09
767.361	-0.05
767.537	-0.01
767.713	0.15
767.889	-0.14
768.065	-0.07
768.24	0.01
768.416	0.05
768.592	-0.14
768.768	0.05
768.944	0.08
769.12	-0.04
769.295	0.02
769.471	-0.03
769.647	-0.01
769.823	0.17
769.998	-0.08
770.174	-0.15
770.35	0.34
770.525	0.29
770.701	-0.04
770.877	-0.01
771.052	0
771.228	0.1
771.403	-0.02
771.579	0.27
771.755	0.32
771.93	-0.09
772.106	-0.14
772.281	-0.13
772.457	0.06
772.632	0.09
772.808	-0.23
772.983	0.07
773.159	-0.11
773.334	0.03
773.509	-0.09
773.685	-0.11
773.86	0.32
774.036	0.19
774.211	-0.09
774.386	-0.04
774.562	0.03
774.737	0.13
774.912	-0.07
775.087	0.05
775.263	-0.03
775.438	-0.02
775.613	-0.16
775.788	-0.1
775.964	0.27
776.139	0.39
776.314	-0.1
776.489	0.09
776.664	-0.03
776.839	-0.03
777.014	0.14
777.19	-0.03
777.365	0.22
777.54	0.13
777.715	-0.08
777.89	-0.07
778.065	-0.08
778.24	0.03
778.415	0.08
778.59	-0.1
778.765	-0.1
778.94	0.09
779.115	-0.01
779.289	-0.07
779.464	0.11
779.639	0.14
779.814	-0.17
779.989	-0.25
780.164	0.28
780.339	0.04
780.513	-0.11
780.688	-0.18
780.863	0.08
781.038	0.31
781.212	-0.1
781.387	0.09
781.562	0.31
781.737	-0.06
781.911	0.05
782.086	-0.21
782.261	0.11
782.435	0.23
782.61	-0.19
782.784	0.09
782.959	0.21
783.134	-0.29
783.308	-0.21
783.483	-0.22
783.657	0.28
783.832	0.21
784.006	-0.2
784.181	-0.03
784.355	0.16
784.53	-0.31
784.704	-0.13
784.878	0.35
785.053	0.01
785.227	0.18
785.402	0.41
785.576	-0.31
785.75	-0.2
785.925	0.05
786.099	0.05
786.273	-0.03
786.448	0.45
786.622	0.11
786.796	-0.04
786.97	-0.04
787.145	0.43
787.319	-0.2
787.493	-0.09
787.667	-0.32
787.841	0.04
788.015	0.2
788.19	-0.11
788.364	0.08
788.538	0.18
788.712	0.1
788.886	-0.03
789.06	0.24
789.234	0.19
789.408	-0.37
789.582	-0.2
789.756	-0.03
789.93	-0.07
790.104	-0.13
790.278	-0.17
790.452	-0.33
790.626	0.09
790.8	-0.08
790.973	0.15
791.147	0.2
791.321	0.3
791.495	0.19
791.669	0.12
791.843	0.01
792.016	0.13
792.19	0.34
792.364	-0.35
792.538	0.53
792.711	0.16
792.885	-0.04
793.059	-0.18
793.233	-0.47
793.406	0.03
793.58	0.11
793.754	-0.08
793.927	-0.22
794.101	0.2
794.274	0.13
794.448	0.13
794.622	-0.28
794.795	0.48
794.969	-0.02
795.142	0.3
795.316	-0.05
795.489	-0.24
795.663	0.39
795.836	0.07
796.009	-0.17
796.183	0.26
796.356	0.15
796.53	0
796.703	0.09
796.876	0.47
797.05	0.01
797.223	-0.15
797.396	0.02
797.57	0.03
797.743	0.51
797.916	0.03
798.09	-0.1
798.263	-0.05
798.436	0.26
798.609	-0.14
798.782	0.27
798.956	0.17
799.129	0.03
799.302	-0.03
799.475	-0.18
799.648	0
799.821	-0.35
799.994	0.07
800.167	-0.38
800.34	-0.19
800.514	0.09
800.687	-0.14
800.86	-0.01
801.033	0.04
801.206	-0.06
801.379	-0.2
801.551	0.12
801.724	0.17
801.897	0.5
802.07	-0.2
802.243	-0.31
802.416	-0.17
802.589	0.07
802.762	0.31
802.935	0.1
803.107	0.3
803.28	0.35
803.453	0.25
803.626	0.03
803.798	0.09
803.971	-0.18
804.144	0.28
804.317	0.21
804.489	0.26
804.662	-0.06
804.835	0.13
805.007	-0.34
805.18	0.32
805.353	0.05
805.525	-0.08
805.698	-0.72
805.87	0.1
806.043	0.37
806.215	-0.25
806.388	0.04
806.56	0.4
806.733	0.36
806.905	0.33
807.078	-0.24
807.25	-0.53
807.423	0.32
807.595	0.09
807.768	0.21
807.94	0.17
808.112	0.07
808.285	-0.2
808.457	-0.21
808.629	-0.19
808.802	0.42
808.974	0.15
809.146	-0.02
809.318	-0.22
809.491	0.15
809.663	0.01
809.835	-0.22
810.007	-0.05
810.18	-0.03
810.352	-0.07
810.524	-0.27
810.696	0.12
810.868	0.54
811.04	-0.08
811.212	-0.2
811.384	0.19
811.556	-0.1
811.728	0.05
811.901	0.7
812.073	-0.08
812.245	0.12
812.417	0.06
812.589	-0.46
812.76	-0.36
812.932	0.39
813.104	0.28
813.276	-0.23
813.448	0.75
813.62	-0.19
813.792	0.27
813.964	-0.2
814.136	-0.07
814.307	-0.34
814.479	-0.3
814.651	-0.14
814.823	1.04
814.995	0.1
815.166	0.66
815.338	-0.12
815.51	-0.42
815.681	1.03
815.853	0.06
816.025	-0.2
816.196	0.68
816.368	0.65
816.54	-0.34
816.711	-0.26
816.883	0.08
817.054	1.11
817.226	-0.6
817.398	0.24
817.569	0.08
817.741	-0.5
817.912	-0.03
818.084	-0.15
818.255	0.13
818.426	-0.22
818.598	-0.13
818.769	-0.44
818.941	0.25
819.112	0.32
819.283	0.24
819.455	-0.33
819.626	0.15
819.798	0.17
819.969	0.1
820.14	0.32
820.311	0.19
820.483	0.12
820.654	0.32
820.825	-0.12
820.996	-0
821.168	-0.4
821.339	-0.53
821.51	-0.52
821.681	-0.55
821.852	0.02
822.023	-0.56
822.195	-0.44
822.366	0.47
822.537	0.13
822.708	0.28
822.879	-0.4
823.05	0.9
823.221	-0.33
823.392	0.41
823.563	-0.02
823.734	0.08
823.905	-0.08
824.076	-0.29
824.247	-0.4
824.418	-0.57
824.589	0.78
824.759	-0.09
824.93	0.14
825.101	-0.49
825.272	0.26
825.443	0.83
825.614	0.4
825.784	-1.18
825.955	1.5
826.126	0.65
826.297	0.27
826.467	0.59
826.638	0.61
826.809	-0.67
826.98	0.05
827.15	0.28
827.321	0.39
827.492	0.93
827.662	-0.57
827.833	0.74
828.003	0.47
828.174	-0.52
828.345	-0.52
828.515	0.98
828.686	0.05
828.856	-0.28
829.027	-0.31
829.197	0.1
829.368	0.62
829.538	-0.14
829.709	-0.46
829.879	0.3
830.049	0.27
830.22	-0.42
830.39	-0.12
830.56	0.87
830.731	-0.4
830.901	-0.8
831.072	-0.41
831.242	0.21
831.412	0.29
831.582	-0.02
831.753	-0.58
831.923	0.47
832.093	0.27
832.263	-0.1
832.434	-0.39
832.604	0.02
832.774	0.12
832.944	-0.25
833.114	-0.41
833.284	0.49
833.454	-0.43
833.624	-0.44
833.795	-0.21
833.965	0.33
834.135	0.57
834.305	-0.52
834.475	-0.62
834.645	0.35
834.815	-0.34
834.985	-0.06
835.155	-0.43
835.325	-0.02
835.494	0.67
835.664	0.12
835.834	-0.62
836.004	0.62
836.174	0.17
836.344	0.44
836.514	-1.06
836.684	0.12
836.853	0.45
837.023	0.63
837.193	-0.68
837.363	0.38
837.532	0.64
837.702	-0.14
837.872	-0.81
838.041	0.72
838.211	1.76
838.381	-0.01
838.55	0.11
838.72	1.51
838.89	1.27
839.059	-0.16
839.229	-0.07
839.398	0.78
839.568	0.41
839.738	0.45
839.907	0.8
840.077	0.39
840.246	-0.3
840.416	-0.64
840.585	-0.36
840.755	0.96
840.924	0.55
841.093	-0.22
841.263	-0.72
841.432	0.07
841.602	-0.55
841.771	-0.85
841.94	0.05
842.11	1.49
842.279	1.02
842.448	-0.42
842.617	-0.4
842.787	1.63
842.956	-0.53
843.125	-0.2
843.294	0.08
843.464	1.2
843.633	-0.01
843.802	-1.57
843.971	-0.53
844.14	0.18
844.309	0.31
844.479	-0.57
844.648	-0.2
844.817	0.13
844.986	-0.36
845.155	-0.07
845.324	-0.81
845.493	0.31
845.662	0.5
845.831	0.16
846	-0.19
846.169	-0.28
846.338	1.05
846.507	0.43
846.676	0.12
846.844	-0.61
847.013	0.88
847.182	-0.04
847.351	-0.37
847.52	-0.09
847.689	-0.08
847.858	0.39
848.026	-0.5
848.195	0.17
848.364	-0.51
848.533	-0.43
848.701	-0.58
848.87	0.16
849.039	0.7
849.207	0.62
849.376	1.03
849.545	1.6
849.713	-0.11
849.882	-0.07
850.051	0.04
850.219	-0.06
850.388	0.46
850.556	-0.47
850.725	-0.1
850.893	0.11
851.062	-0
851.23	0.97
851.399	-0.85
851.567	0.08
851.736	-0.49
851.904	-0.85
852.073	0.78
852.241	-0.41
852.41	0.64
852.578	-0.07
852.746	-0.35
852.915	0.42
853.083	0.14
853.251	-1.21
853.42	-0.82
853.588	-0.17
853.756	1.09
853.924	0.43
854.093	-0.46
854.261	-1.4
854.429	-1.46
854.597	-0.9
854.765	-0.92
854.934	0.79
855.102	0.44
855.27	-0.5
855.438	1.23
855.606	1.82
855.774	1.69
855.942	-1.51
856.11	-1.79
856.278	-0
856.446	1.02
856.614	-0.17
856.782	-1.15
856.95	0.8
857.118	0.02
857.286	-0.62
857.454	-1
857.622	1.6
857.79	0.19
857.958	-0.73
858.126	-0.88
858.294	-2.55
858.462	-0.54
858.629	-0.44
858.797	-0.25
858.965	0.13
859.133	-0.02
859.301	-0.36
859.468	-0.39
859.636	-0.25
859.804	1.7
859.971	0.65
860.139	0.02
860.307	1.31
860.474	-1.12
860.642	-0.54
860.81	-0.15
860.977	-0.92
861.145	1.13
861.313	-0.44
861.48	-0.26
861.648	-0.65
861.815	-0.56
861.983	-1.21
862.15	-1.51
862.318	-0.23
862.485	2.58
862.653	-1.72
862.82	-0.83
862.988	2.58
863.155	0.04
863.322	-0.57
863.49	-2.19
863.657	-1.23
863.824	1.54
863.992	-0.35
864.159	-0.06
864.326	1.87
864.494	-0.44
864.661	1.93
864.828	-2.45
864.996	1.57
865.163	2.23
865.33	-0.26
865.497	-2.2
865.664	-1.22
865.832	-2.56
865.999	-0.48
866.166	-1.17
866.333	-0.78
866.5	-1.2
866.667	0.33
866.834	0.49
867.001	2.15
867.168	-2.69
867.335	0.12
867.502	-2.44
867.669	1.6
867.836	1.94
868.003	-0.71
868.17	1.9
868.337	-1.33
868.504	1.89
868.671	-0.59
868.838	-1.27
869.005	2.27
869.172	1.7
869.339	-0.25
869.505	-0.76
869.672	0.5
869.839	2.12
870.006	-0.6
870.173	-2.15
870.339	0.22
870.506	4.17
870.673	-1.82
870.84	0.76
871.006	1.24
871.173	-0.22
871.34	0.13
871.506	-0.74
871.673	-0.39
871.839	-1.72
872.006	0.02
872.173	-2.22
872.339	0.96
872.506	1.9
872.672	0.1
872.839	-2.05
873.005	-0.83
873.172	4.07
873.338	1.37
873.505	0.23
873.671	0.76
873.838	2.08
874.004	-1.84
874.171	-2
874.337	1.44
874.503	0.6
874.67	0.22
874.836	-1.04
875.002	2.68
875.169	1.23
875.335	-0.65
875.501	-0.95
875.668	0.56
875.834	0.74
876	-0.5
876.166	0.16
876.332	2.3
876.499	5.05
876.665	-0.07
876.831	0.93
876.997	3.73
877.163	1.19
877.329	0.04
877.495	-1.5
877.662	1.37
877.828	1.45
877.994	-1.47
878.16	-2.07
878.326	-0.65
878.492	-0.06
878.658	-0.13
878.824	0.13
878.99	0.89
879.156	0.22
879.322	1.19
879.487	-1.12
879.653	-0.17
879.819	-0.56
879.985	-0.5
880.151	0.05
880.317	1.46
880.483	0.33
880.648	0.88
880.814	-1.87
880.98	-0.79
881.146	-3.92
881.312	-1.15
881.477	-0.53
881.643	0.28
881.809	2.52
881.974	1.67
882.14	-3.61
882.306	0.15
882.471	4.24
882.637	0.41
882.803	0.26
882.968	3.36
883.134	2.67
883.299	0.63
883.465	0.2
883.63	1.23
883.796	1.69
883.961	2.5
884.127	0.59
884.292	-3.84
884.458	-1.94
884.623	-1.94
