Data from Apollo_Calib_20240827__AbsoluteIrradiance__434__06-23-01-373.txt Node

Date: Wed Aug 28 06:23:01 BST 2024
User: biology
Spectrometer: FLMT08252
Trigger mode: 0
Integration Time (sec): 5.000000E-1
Scans to average: 5
Electric dark correction enabled: true
Nonlinearity correction enabled: false
Boxcar width: 0
XAxis mode: Wavelengths
Number of Pixels in Spectrum: 3648
>>>>>Begin Spectral Data<<<<<
179.588	-0
179.809	-0
180.03	-0
180.251	-0
180.473	-0
180.694	0
180.915	0
181.136	-0
181.357	0
181.578	-0
181.799	-0
182.02	-0
182.241	0
182.462	-0
182.683	-0
182.904	-0
183.125	-0
183.346	0
183.567	0
183.788	0
184.009	0
184.23	0
184.451	0
184.672	0
184.892	0
185.113	0
185.334	0
185.555	0
185.776	0
185.996	0
186.217	0
186.438	0
186.659	0
186.879	0
187.1	0
187.321	0
187.541	0
187.762	0
187.983	0
188.203	0
188.424	0
188.644	0
188.865	0
189.086	0
189.306	0
189.527	0
189.747	0
189.968	0
190.188	0
190.409	0
190.629	0
190.849	0
191.07	0
191.29	0
191.511	0
191.731	0
191.951	0
192.172	0
192.392	0
192.612	0
192.833	0
193.053	0
193.273	0
193.493	0
193.714	0
193.934	0
194.154	0
194.374	0
194.594	0
194.815	0
195.035	0
195.255	0
195.475	0
195.695	0
195.915	0
196.135	0
196.355	0
196.575	0
196.795	0
197.015	0
197.235	0
197.455	0
197.675	0
197.895	0
198.115	0
198.335	0
198.555	0
198.775	0
198.995	0
199.214	0
199.434	0
199.654	0
199.874	0
200.094	-0.57
200.313	0.22
200.533	0.74
200.753	0.07
200.973	1.81
201.192	1.31
201.412	0.48
201.632	0.93
201.851	1.79
202.071	0.4
202.291	0.51
202.51	0.17
202.73	1.18
202.95	0.49
203.169	-0.03
203.389	0.63
203.608	0.79
203.828	0.32
204.047	0.78
204.267	1.08
204.486	0.66
204.706	0.62
204.925	0.58
205.145	0.74
205.364	1
205.583	1.46
205.803	0.59
206.022	0.09
206.242	0.48
206.461	0.85
206.68	0.31
206.9	0.62
207.119	1.48
207.338	0.73
207.557	0.3
207.777	0.33
207.996	0.57
208.215	1.02
208.434	0.3
208.654	0.11
208.873	0.47
209.092	1.03
209.311	0.46
209.53	0.58
209.749	0.26
209.968	0.24
210.187	0.42
210.407	0.23
210.626	0.55
210.845	0.68
211.064	0.66
211.283	0.2
211.502	0.86
211.721	0.6
211.94	0.59
212.159	0.66
212.377	0.57
212.596	0.75
212.815	0.43
213.034	0.54
213.253	0.77
213.472	0.72
213.691	0.35
213.91	0.16
214.128	0.31
214.347	0.83
214.566	0.1
214.785	0.14
215.003	0.57
215.222	0.64
215.441	0.32
215.66	0.32
215.878	0.4
216.097	0.53
216.316	0.21
216.534	0.33
216.753	0.39
216.972	0.29
217.19	0.24
217.409	0.3
217.627	0.1
217.846	0.37
218.064	0.38
218.283	0.11
218.501	0.69
218.72	0.48
218.938	0.16
219.157	0.31
219.375	0.5
219.594	0.54
219.812	-0.02
220.031	0.08
220.249	0.55
220.467	0.69
220.686	0.18
220.904	0.1
221.122	0.27
221.341	0.52
221.559	0.37
221.777	0.25
221.995	0.26
222.214	0.45
222.432	0.1
222.65	0.56
222.868	0.31
223.086	0.44
223.305	0.44
223.523	0.2
223.741	0.7
223.959	0.14
224.177	0.04
224.395	0.16
224.613	0.37
224.831	0.47
225.049	0.08
225.267	0.27
225.485	0.35
225.703	0.19
225.921	0.23
226.139	0.13
226.357	0.36
226.575	0.28
226.793	0.14
227.011	0.84
227.229	0.18
227.447	0.26
227.665	0.11
227.883	-0.04
228.1	0.21
228.318	0.36
228.536	0.03
228.754	0.2
228.972	0.32
229.189	0.32
229.407	0.19
229.625	0.17
229.843	0.47
230.06	0.26
230.278	0.2
230.496	0.27
230.713	0.16
230.931	0.41
231.149	0.05
231.366	-0.02
231.584	0.19
231.801	0.48
232.019	0.19
232.236	0.06
232.454	0.15
232.671	0.18
232.889	0.21
233.106	0.14
233.324	0.29
233.541	0.2
233.759	0.28
233.976	0.11
234.194	0.25
234.411	0.2
234.628	0.13
234.846	0.14
235.063	0.21
235.28	0.19
235.498	0.22
235.715	0.08
235.932	0.29
236.149	0.26
236.367	0.1
236.584	0.28
236.801	0.09
237.018	0.41
237.236	0.24
237.453	0.05
237.67	0.27
237.887	0.16
238.104	0.21
238.321	0.08
238.538	0.19
238.755	0.35
238.973	0.09
239.19	0.19
239.407	0.19
239.624	0.25
239.841	0.12
240.058	0.15
240.275	0.28
240.492	0.24
240.709	0.1
240.925	0.18
241.142	0.25
241.359	0.06
241.576	0.03
241.793	0.14
242.01	0.23
242.227	0.34
242.444	0.24
242.66	0.32
242.877	0.15
243.094	0.14
243.311	0.21
243.527	0.2
243.744	0.26
243.961	0.32
244.178	0.11
244.394	0.16
244.611	0.34
244.828	0.38
245.044	0.12
245.261	0.27
245.477	0.25
245.694	0.17
245.911	0.08
246.127	0.18
246.344	0.28
246.56	0.3
246.777	0.13
246.993	0.2
247.21	0.25
247.426	0.22
247.643	0.13
247.859	0.11
248.076	0.08
248.292	0.34
248.508	0.1
248.725	0.21
248.941	0.2
249.157	0.2
249.374	0.07
249.59	0.1
249.806	0.14
250.023	0.36
250.239	0.14
250.455	0.08
250.671	0.21
250.888	0.19
251.104	0.16
251.32	0.11
251.536	0.09
251.752	0.17
251.969	0.11
252.185	0.19
252.401	0.29
252.617	0.2
252.833	0.21
253.049	0.18
253.265	0.22
253.481	0.13
253.697	0.08
253.913	0.06
254.129	0.2
254.345	0.19
254.561	0.16
254.777	0.17
254.993	0.21
255.209	0.2
255.425	0.16
255.641	0.06
255.857	0.27
256.073	0.16
256.288	0.04
256.504	0.06
256.72	0.19
256.936	0.23
257.152	0.12
257.367	0.1
257.583	0.19
257.799	0.29
258.015	0.1
258.23	0.21
258.446	0.22
258.662	0.13
258.877	0.09
259.093	0.05
259.309	0.14
259.524	0.18
259.74	0.09
259.955	0.04
260.171	0.22
260.387	0.2
260.602	0.22
260.818	0.12
261.033	0.05
261.249	0.07
261.464	0.13
261.68	0.06
261.895	0.19
262.11	0.17
262.326	0.13
262.541	0.05
262.757	0.27
262.972	0.16
263.187	0.18
263.403	0.09
263.618	0.23
263.833	0.2
264.049	0.08
264.264	0.12
264.479	0.18
264.694	0.23
264.91	0.1
265.125	0.1
265.34	0.23
265.555	0.27
265.77	0.17
265.986	0.13
266.201	0.21
266.416	0.24
266.631	0.12
266.846	0.14
267.061	0.17
267.276	0.21
267.491	0.05
267.706	0.19
267.921	0.15
268.136	0.09
268.351	0.15
268.566	0.06
268.781	0.23
268.996	0.2
269.211	0.1
269.426	0.07
269.641	0.13
269.856	0.25
270.071	0.08
270.285	0.05
270.5	0.17
270.715	0.22
270.93	0.11
271.145	0.12
271.359	0.18
271.574	0.07
271.789	0.1
272.004	0.07
272.218	0.11
272.433	0.17
272.648	0.12
272.862	0.15
273.077	0.16
273.292	0.13
273.506	0.13
273.721	0.1
273.936	0.18
274.15	0.23
274.365	0.09
274.579	0.18
274.794	0.16
275.008	0.2
275.223	0.02
275.437	0.07
275.652	0.19
275.866	0.19
276.081	0.16
276.295	0.17
276.509	0.15
276.724	0.17
276.938	0.1
277.153	0.16
277.367	0.18
277.581	0.1
277.796	0.14
278.01	0.01
278.224	0.16
278.438	0.25
278.653	0.03
278.867	0.08
279.081	0.01
279.295	0.04
279.51	0.12
279.724	0.01
279.938	0.21
280.152	0.16
280.366	0.11
280.58	0.14
280.794	0.22
281.008	0.14
281.222	0.15
281.437	0.22
281.651	0.14
281.865	0.21
282.079	0.11
282.293	0
282.507	0.09
282.721	0.14
282.935	0.09
283.148	0.08
283.362	0.1
283.576	0.08
283.79	0.09
284.004	0.08
284.218	0.13
284.432	0.08
284.646	0.12
284.859	0.1
285.073	0.11
285.287	0.14
285.501	0.15
285.714	0.1
285.928	0.09
286.142	0.17
286.356	0.08
286.569	0.07
286.783	0.16
286.997	0.14
287.21	0.08
287.424	0.11
287.637	0.13
287.851	0.15
288.065	0.15
288.278	0.08
288.492	0.1
288.705	0.1
288.919	0.12
289.132	0.04
289.346	0.2
289.559	0.08
289.773	0.07
289.986	0.05
290.2	0.12
290.413	0.16
290.626	0.06
290.84	0.07
291.053	0.13
291.267	0.21
291.48	0.08
291.693	0.08
291.906	0.13
292.12	0.12
292.333	0.07
292.546	0.12
292.76	0.22
292.973	0.12
293.186	0.18
293.399	0.09
293.612	0.14
293.826	0.11
294.039	0.12
294.252	0.1
294.465	0.13
294.678	0.14
294.891	0.17
295.104	0.04
295.317	0.09
295.53	0.07
295.743	0.1
295.956	0.1
296.169	0.18
296.382	0.17
296.595	0.08
296.808	0.06
297.021	0.15
297.234	0.09
297.447	0.12
297.66	0.11
297.873	0.17
298.086	0.11
298.299	0.1
298.511	0.1
298.724	0.03
298.937	0.08
299.15	0.03
299.363	0.1
299.575	0.11
299.788	0.11
300.001	0.12
300.213	0.03
300.426	0.08
300.639	0.1
300.852	0.04
301.064	0.16
301.277	0.22
301.489	0.09
301.702	0.12
301.915	0.11
302.127	0.1
302.34	0.08
302.552	0.11
302.765	0.08
302.977	0.11
303.19	0.11
303.402	0.11
303.615	0.11
303.827	0.02
304.04	0.13
304.252	0.12
304.464	0.11
304.677	0.23
304.889	0.19
305.102	0.06
305.314	0.05
305.526	0.09
305.739	0.15
305.951	0.06
306.163	0.09
306.375	0.2
306.588	0.06
306.8	0.07
307.012	0.07
307.224	0.13
307.436	0.16
307.649	0.01
307.861	0.13
308.073	0.13
308.285	0.06
308.497	0.01
308.709	0.11
308.921	0.08
309.133	0.13
309.346	0.08
309.558	0.1
309.77	0.16
309.982	0.15
310.194	0.12
310.406	0.1
310.617	0.16
310.829	0.07
311.041	0.18
311.253	0.05
311.465	0.07
311.677	0.11
311.889	0.1
312.101	0.05
312.313	0.12
312.524	0.15
312.736	0.07
312.948	0.11
313.16	0.18
313.372	0.14
313.583	0.11
313.795	0.06
314.007	0.03
314.218	0.13
314.43	0.1
314.642	0.08
314.853	0.02
315.065	0.14
315.277	0.12
315.488	0.09
315.7	0.12
315.912	0.11
316.123	0.11
316.335	0.07
316.546	0.22
316.758	0.08
316.969	0.06
317.181	0.12
317.392	0.06
317.604	0.13
317.815	0.02
318.026	0.08
318.238	0.11
318.449	0.13
318.661	0.02
318.872	0.07
319.083	0.06
319.295	0.15
319.506	0.13
319.717	0.1
319.929	0.13
320.14	0.13
320.351	0.13
320.562	0.04
320.774	0.1
320.985	0.1
321.196	0.01
321.407	0.01
321.618	0.16
321.829	0.11
322.041	0.17
322.252	0.1
322.463	0.11
322.674	0.13
322.885	0.09
323.096	0.05
323.307	0.12
323.518	0.1
323.729	0.07
323.94	0.01
324.151	0.11
324.362	0.11
324.573	0.09
324.784	0.04
324.995	0.14
325.206	0.09
325.417	0.1
325.628	0.09
325.838	0.1
326.049	0.12
326.26	0.14
326.471	0.1
326.682	0.15
326.892	0.09
327.103	0.04
327.314	0.05
327.525	0.14
327.735	0.1
327.946	0.11
328.157	0.06
328.368	0.16
328.578	0.13
328.789	0.13
328.999	0.09
329.21	0.07
329.421	0.15
329.631	0.09
329.842	0.03
330.052	0.09
330.263	0.12
330.473	0.11
330.684	0.08
330.894	0.1
331.105	0.13
331.315	0.07
331.526	0.05
331.736	0.2
331.947	0.1
332.157	0.13
332.367	0.08
332.578	0.16
332.788	0.13
332.999	0.15
333.209	0.07
333.419	0.04
333.629	0.09
333.84	0.14
334.05	0.08
334.26	0.18
334.47	0.08
334.681	0.16
334.891	0.11
335.101	0.13
335.311	0.18
335.521	0.13
335.732	0.06
335.942	0.15
336.152	0.12
336.362	0.11
336.572	0.1
336.782	0.1
336.992	0.06
337.202	0.09
337.412	0.09
337.622	0.14
337.832	0.08
338.042	0.1
338.252	0.05
338.462	0.1
338.672	0.1
338.882	0.05
339.092	0.11
339.302	0.17
339.511	0.1
339.721	0.08
339.931	0.03
340.141	0.16
340.351	0.16
340.561	0.1
340.77	0.06
340.98	0.11
341.19	0.11
341.4	0.08
341.609	0.06
341.819	0.08
342.029	0.07
342.238	0.09
342.448	0.07
342.658	0.16
342.867	0.07
343.077	0.07
343.286	0.08
343.496	0.1
343.706	0.18
343.915	0.06
344.125	0.1
344.334	0.14
344.544	0.01
344.753	0.04
344.963	0.06
345.172	0.07
345.381	0.09
345.591	0.02
345.8	0.11
346.01	0.16
346.219	0.12
346.428	-0.03
346.638	0.12
346.847	0.08
347.056	0.14
347.266	0.05
347.475	0.08
347.684	0.14
347.893	0.09
348.103	0.11
348.312	0.06
348.521	0.08
348.73	0.12
348.94	0.15
349.149	0.06
349.358	0.08
349.567	0.07
349.776	0.07
349.985	0.09
350.194	0.1
350.403	0.13
350.612	0.05
350.821	0.04
351.03	0.06
351.239	0.06
351.448	0.09
351.657	0.06
351.866	0.15
352.075	0.12
352.284	0.16
352.493	0.06
352.702	0.14
352.911	0.17
353.12	0.08
353.329	0.09
353.538	0.1
353.746	0.11
353.955	0.1
354.164	0.11
354.373	0.09
354.582	0.09
354.79	0.13
354.999	0.09
355.208	0.08
355.416	0.16
355.625	0.04
355.834	0.08
356.042	0.12
356.251	0.08
356.46	0.07
356.668	0.14
356.877	0.18
357.085	0.15
357.294	-0.01
357.503	0.1
357.711	0.14
357.92	0.24
358.128	0.09
358.337	0.08
358.545	0.11
358.754	0.1
358.962	0.1
359.17	0.06
359.379	0.12
359.587	0.12
359.796	0.07
360.004	0.15
360.212	0.1
360.421	0.12
360.629	0.04
360.837	0.11
361.046	0.12
361.254	0.22
361.462	0.11
361.67	0.03
361.879	0.07
362.087	0.16
362.295	0.1
362.503	0.11
362.711	0.04
362.92	0.03
363.128	0.06
363.336	0.08
363.544	0.06
363.752	0.09
363.96	0.04
364.168	0.08
364.376	0.12
364.584	0.07
364.792	0.19
365	0.16
365.208	0.11
365.416	0.12
365.624	0.12
365.832	0.08
366.04	0.14
366.248	0.12
366.456	0.13
366.664	0.11
366.872	0.07
367.079	0.08
367.287	0.09
367.495	0.11
367.703	0.12
367.911	0.04
368.118	0.1
368.326	0.07
368.534	0.07
368.742	0.18
368.949	0.01
369.157	0.09
369.365	0.15
369.572	0.09
369.78	0.09
369.988	0.14
370.195	0.18
370.403	0.12
370.61	0.06
370.818	0.14
371.026	0.14
371.233	0.08
371.441	0.14
371.648	0.07
371.856	0.07
372.063	0.11
372.271	0.07
372.478	0.09
372.685	0.09
372.893	0.13
373.1	0.05
373.308	0.07
373.515	0.17
373.722	0.14
373.93	0.09
374.137	0.1
374.344	0.18
374.552	0.14
374.759	0.1
374.966	0.11
375.173	0.06
375.381	0.14
375.588	0.11
375.795	0.02
376.002	0.05
376.209	0.08
376.417	0.1
376.624	0.09
376.831	0.13
377.038	0.08
377.245	0.05
377.452	0.08
377.659	0.09
377.866	0.1
378.073	0.08
378.28	0.08
378.487	0.15
378.694	0.13
378.901	0.06
379.108	0.09
379.315	0.19
379.522	0.16
379.729	0.11
379.936	0.06
380.143	0.09
380.35	0.1
380.557	0.07
380.763	0.13
380.97	0.08
381.177	0.11
381.384	0.14
381.591	0.09
381.797	0.13
382.004	0.12
382.211	0.13
382.418	0.12
382.624	0.18
382.831	0.13
383.038	0.07
383.244	0.12
383.451	0.1
383.658	0.11
383.864	0.08
384.071	0.1
384.277	0.16
384.484	0.07
384.69	0.16
384.897	0.09
385.103	0.09
385.31	0.06
385.516	0.1
385.723	0.06
385.929	0.07
386.136	0.1
386.342	0.11
386.549	0.09
386.755	0.17
386.961	0.11
387.168	0.11
387.374	0.12
387.58	0.15
387.787	0.1
387.993	0.09
388.199	0.09
388.406	0.08
388.612	0.06
388.818	0.09
389.024	0.11
389.231	0.09
389.437	0.13
389.643	0.15
389.849	0.09
390.055	0.1
390.261	0.11
390.467	0.15
390.674	0.13
390.88	0.12
391.086	0.15
391.292	0.06
391.498	0.14
391.704	0.15
391.91	0.1
392.116	0.09
392.322	0.05
392.528	0.14
392.734	0.07
392.94	0.11
393.146	0.08
393.352	0.11
393.557	0.11
393.763	0.1
393.969	0.12
394.175	0.15
394.381	0.13
394.587	0.05
394.792	0.08
394.998	0.15
395.204	0.18
395.41	0.07
395.615	0.14
395.821	0.1
396.027	0.19
396.233	0.07
396.438	0.16
396.644	0.22
396.85	0.15
397.055	0.12
397.261	0.11
397.466	0.21
397.672	0.13
397.878	0.17
398.083	0.11
398.289	0.08
398.494	0.12
398.7	0.17
398.905	0.04
399.111	0.2
399.316	0.09
399.522	0.12
399.727	0.13
399.932	0.07
400.138	0.07
400.343	0.15
400.549	0.13
400.754	0.12
400.959	0.14
401.165	0.12
401.37	0.15
401.575	0.23
401.78	0.11
401.986	0.09
402.191	0.13
402.396	0.09
402.601	0.15
402.807	0.1
403.012	0.14
403.217	0.15
403.422	0.16
403.627	0.11
403.832	0.13
404.037	0.15
404.243	0.16
404.448	0.09
404.653	0.12
404.858	0.17
405.063	0.16
405.268	0.15
405.473	0.1
405.678	0.09
405.883	0.25
406.088	0.19
406.293	0.09
406.498	0.1
406.703	0.15
406.907	0.12
407.112	0.14
407.317	0.18
407.522	0.22
407.727	0.07
407.932	0.11
408.136	0.18
408.341	0.13
408.546	0.12
408.751	0.13
408.956	0.1
409.16	0.13
409.365	0.11
409.57	0.12
409.774	0.12
409.979	0.17
410.184	0.15
410.388	0.11
410.593	0.2
410.798	0.19
411.002	0.12
411.207	0.15
411.411	0.18
411.616	0.16
411.82	0.13
412.025	0.14
412.229	0.13
412.434	0.16
412.638	0.15
412.843	0.11
413.047	0.14
413.252	0.1
413.456	0.11
413.66	0.14
413.865	0.11
414.069	0.25
414.273	0.16
414.478	0.1
414.682	0.09
414.886	0.1
415.091	0.06
415.295	0.1
415.499	0.18
415.703	0.15
415.908	0.19
416.112	-0.01
416.316	0.21
416.52	0.08
416.724	0.12
416.929	0.11
417.133	0.24
417.337	0.16
417.541	0.09
417.745	0.1
417.949	0.17
418.153	0.14
418.357	0.11
418.561	0.25
418.765	0.16
418.969	0.29
419.173	0.19
419.377	0.12
419.581	0.23
419.785	0.16
419.989	0.11
420.193	0.1
420.397	0.16
420.601	0.29
420.804	0.2
421.008	0.16
421.212	0.18
421.416	0.21
421.62	0.14
421.823	0.14
422.027	0.23
422.231	0.21
422.435	0.15
422.638	0.17
422.842	0.2
423.046	0.17
423.249	0.15
423.453	0.19
423.657	0.22
423.86	0.15
424.064	0.13
424.268	0.25
424.471	0.14
424.675	0.22
424.878	0.24
425.082	0.17
425.285	0.22
425.489	0.16
425.692	0.16
425.896	0.13
426.099	0.2
426.303	0.16
426.506	0.13
426.71	0.19
426.913	0.24
427.116	0.21
427.32	0.2
427.523	0.13
427.726	0.23
427.93	0.15
428.133	0.17
428.336	0.13
428.54	0.17
428.743	0.23
428.946	0.23
429.149	0.15
429.353	0.13
429.556	0.15
429.759	0.18
429.962	0.13
430.165	0.18
430.368	0.15
430.571	0.14
430.775	0.2
430.978	0.14
431.181	0.2
431.384	0.17
431.587	0.19
431.79	0.13
431.993	0.21
432.196	0.19
432.399	0.14
432.602	0.24
432.805	0.17
433.008	0.17
433.211	0.14
433.414	0.17
433.616	0.25
433.819	0.12
434.022	0.08
434.225	0.27
434.428	0.17
434.631	0.26
434.833	0.17
435.036	0.16
435.239	0.22
435.442	0.19
435.645	0.12
435.847	0.2
436.05	0.28
436.253	0.21
436.455	0.14
436.658	0.17
436.861	0.28
437.063	0.15
437.266	0.17
437.468	0.24
437.671	0.34
437.874	0.21
438.076	0.15
438.279	0.11
438.481	0.22
438.684	0.15
438.886	0.23
439.089	0.08
439.291	0.19
439.494	0.22
439.696	0.14
439.899	0.22
440.101	0.21
440.303	0.1
440.506	0.25
440.708	0.21
440.91	0.27
441.113	0.19
441.315	0.23
441.517	0.17
441.72	0.23
441.922	0.18
442.124	0.16
442.326	0.25
442.529	0.28
442.731	0.16
442.933	0.27
443.135	0.18
443.337	0.15
443.539	0.19
443.742	0.2
443.944	0.2
444.146	0.2
444.348	0.2
444.55	0.19
444.752	0.17
444.954	0.16
445.156	0.22
445.358	0.21
445.56	0.28
445.762	0.17
445.964	0.24
446.166	0.16
446.368	0.19
446.57	0.29
446.772	0.16
446.974	0.22
447.175	0.23
447.377	0.18
447.579	0.22
447.781	0.15
447.983	0.28
448.184	0.21
448.386	0.24
448.588	0.12
448.79	0.22
448.991	0.22
449.193	0.2
449.395	0.21
449.597	0.26
449.798	0.21
450	0.23
450.202	0.2
450.403	0.23
450.605	0.23
450.806	0.15
451.008	0.15
451.21	0.24
451.411	0.22
451.613	0.18
451.814	0.23
452.016	0.28
452.217	0.24
452.419	0.25
452.62	0.22
452.821	0.27
453.023	0.31
453.224	0.24
453.426	0.19
453.627	0.25
453.828	0.25
454.03	0.26
454.231	0.25
454.432	0.19
454.634	0.32
454.835	0.18
455.036	0.2
455.238	0.28
455.439	0.28
455.64	0.18
455.841	0.18
456.042	0.36
456.244	0.29
456.445	0.2
456.646	0.22
456.847	0.22
457.048	0.3
457.249	0.36
457.45	0.49
457.651	0.26
457.852	0.32
458.054	0.29
458.255	0.27
458.456	0.27
458.657	0.28
458.858	0.19
459.058	0.28
459.259	0.28
459.46	0.27
459.661	0.23
459.862	0.42
460.063	0.26
460.264	0.33
460.465	0.21
460.666	0.4
460.866	0.27
461.067	0.28
461.268	0.27
461.469	0.24
461.67	0.31
461.87	0.24
462.071	0.31
462.272	0.28
462.473	0.32
462.673	0.31
462.874	0.25
463.075	0.33
463.275	0.29
463.476	0.34
463.676	0.39
463.877	0.34
464.078	0.36
464.278	0.34
464.479	0.34
464.679	0.31
464.88	0.34
465.08	0.43
465.281	0.31
465.481	0.34
465.682	0.3
465.882	0.4
466.083	0.31
466.283	0.33
466.483	0.32
466.684	0.34
466.884	0.31
467.085	0.33
467.285	0.42
467.485	0.34
467.686	0.35
467.886	0.37
468.086	0.36
468.286	0.4
468.487	0.41
468.687	0.33
468.887	0.41
469.087	0.44
469.287	0.46
469.488	0.35
469.688	0.47
469.888	0.46
470.088	0.49
470.288	0.5
470.488	0.5
470.688	0.4
470.888	0.38
471.088	0.39
471.288	0.5
471.488	0.5
471.688	0.52
471.888	0.47
472.088	0.53
472.288	0.53
472.488	0.52
472.688	0.48
472.888	0.56
473.088	0.54
473.288	0.53
473.488	0.52
473.688	0.66
473.887	0.54
474.087	0.57
474.287	0.59
474.487	0.55
474.687	0.59
474.886	0.59
475.086	0.58
475.286	0.64
475.486	0.58
475.685	0.6
475.885	0.61
476.085	0.65
476.284	0.66
476.484	0.66
476.684	0.73
476.883	0.79
477.083	0.69
477.282	0.7
477.482	0.79
477.681	0.8
477.881	0.7
478.08	0.74
478.28	0.77
478.479	0.8
478.679	0.9
478.878	0.78
479.078	0.82
479.277	0.91
479.477	0.87
479.676	0.9
479.875	0.9
480.075	0.9
480.274	0.98
480.473	0.95
480.673	0.93
480.872	1.05
481.071	1.03
481.271	1.04
481.47	1.04
481.669	1.04
481.868	1.04
482.067	1.1
482.267	1.05
482.466	1.11
482.665	1.12
482.864	1.13
483.063	1.14
483.262	1.23
483.461	1.28
483.661	1.34
483.86	1.31
484.059	1.37
484.258	1.37
484.457	1.37
484.656	1.38
484.855	1.47
485.054	1.37
485.253	1.41
485.452	1.42
485.651	1.56
485.849	1.57
486.048	1.57
486.247	1.59
486.446	1.68
486.645	1.63
486.844	1.7
487.043	1.69
487.241	1.77
487.44	1.77
487.639	1.86
487.838	1.87
488.037	1.87
488.235	2.01
488.434	2.04
488.633	1.88
488.831	2.11
489.03	2.17
489.229	2.16
489.427	2.16
489.626	2.22
489.825	2.22
490.023	2.32
490.222	2.31
490.42	2.38
490.619	2.44
490.817	2.51
491.016	2.46
491.214	2.56
491.413	2.62
491.611	2.56
491.81	2.68
492.008	2.71
492.207	2.85
492.405	2.83
492.604	2.82
492.802	2.9
493	3.04
493.199	3.05
493.397	3.12
493.595	3.21
493.794	3.18
493.992	3.37
494.19	3.36
494.388	3.47
494.587	3.4
494.785	3.44
494.983	3.46
495.181	3.64
495.379	3.71
495.578	3.82
495.776	3.86
495.974	3.79
496.172	4
496.37	4.13
496.568	4.19
496.766	4.17
496.964	4.34
497.162	4.31
497.36	4.47
497.558	4.51
497.756	4.6
497.954	4.69
498.152	4.85
498.35	4.96
498.548	4.87
498.746	4.96
498.944	5.01
499.142	5.17
499.34	5.32
499.538	5.52
499.736	5.36
499.933	5.54
500.131	5.62
500.329	5.91
500.527	5.82
500.725	6.08
500.922	6.19
501.12	6.26
501.318	6.41
501.516	6.39
501.713	6.61
501.911	6.63
502.109	6.63
502.306	6.91
502.504	6.81
502.701	7.03
502.899	7.17
503.097	7.59
503.294	7.38
503.492	7.68
503.689	7.81
503.887	7.8
504.084	7.99
504.282	8.02
504.479	8.08
504.677	8.52
504.874	8.46
505.072	8.39
505.269	8.78
505.466	8.97
505.664	9.07
505.861	9.01
506.059	9.3
506.256	9.31
506.453	9.55
506.651	9.79
506.848	9.98
507.045	10
507.242	10.02
507.44	10.2
507.637	10.45
507.834	10.44
508.031	10.82
508.229	10.81
508.426	10.76
508.623	11.13
508.82	11.31
509.017	11.36
509.214	11.31
509.411	11.74
509.608	11.63
509.805	12.04
510.003	12.04
510.2	12.21
510.397	12.5
510.594	12.42
510.791	12.69
510.988	12.72
511.184	12.66
511.381	12.51
511.578	13.05
511.775	13.38
511.972	13.23
512.169	13.46
512.366	13.57
512.563	13.72
512.76	14.03
512.956	14.1
513.153	14
513.35	14
513.547	14.05
513.744	14.3
513.94	14.43
514.137	14.69
514.334	14.68
514.53	14.82
514.727	15.36
514.924	14.98
515.12	15.09
515.317	15.16
515.514	15.05
515.71	14.99
515.907	15.54
516.103	15.55
516.3	15.31
516.497	15.59
516.693	15.62
516.89	15.66
517.086	15.87
517.283	15.87
517.479	15.51
517.676	16.02
517.872	16.02
518.068	16.05
518.265	16.02
518.461	15.85
518.658	16.18
518.854	16.08
519.05	16.3
519.247	16.4
519.443	16.09
519.639	16.33
519.836	16.01
520.032	15.97
520.228	16.26
520.424	16
520.621	16.06
520.817	16.27
521.013	15.96
521.209	16.25
521.405	16.23
521.601	16.01
521.798	15.95
521.994	15.78
522.19	15.73
522.386	15.8
522.582	15.89
522.778	16.07
522.974	15.66
523.17	15.54
523.366	15.43
523.562	15.47
523.758	15.48
523.954	15.09
524.15	15.3
524.346	15.23
524.542	15.22
524.738	15.01
524.934	15.11
525.129	14.87
525.325	14.67
525.521	14.58
525.717	14.87
525.913	14.41
526.109	14.36
526.304	14.59
526.5	14.28
526.696	14.17
526.892	13.96
527.087	14.25
527.283	13.92
527.479	13.72
527.674	13.33
527.87	13.54
528.066	13.4
528.261	13.31
528.457	12.97
528.653	13.26
528.848	12.99
529.044	12.98
529.239	12.65
529.435	12.61
529.63	12.34
529.826	12.21
530.021	12.2
530.217	12.18
530.412	11.98
530.608	11.91
530.803	11.82
530.999	11.51
531.194	11.52
531.389	11.52
531.585	11.4
531.78	11.39
531.975	11.12
532.171	11.12
532.366	10.98
532.561	10.85
532.757	10.64
532.952	10.74
533.147	10.35
533.342	10.43
533.538	10.22
533.733	10.35
533.928	9.78
534.123	9.89
534.318	9.87
534.513	9.65
534.709	9.79
534.904	9.6
535.099	9.52
535.294	9.41
535.489	9.36
535.684	9.18
535.879	9.11
536.074	9.08
536.269	8.97
536.464	8.81
536.659	8.7
536.854	8.58
537.049	8.56
537.244	8.46
537.439	8.35
537.634	8.28
537.828	8.22
538.023	8.09
538.218	8.06
538.413	7.82
538.608	7.81
538.803	7.72
538.997	7.61
539.192	7.57
539.387	7.49
539.582	7.43
539.776	7.27
539.971	7.23
540.166	7.22
540.36	7.09
540.555	7.15
540.75	6.96
540.944	6.9
541.139	6.82
541.334	6.68
541.528	6.68
541.723	6.62
541.917	6.57
542.112	6.4
542.306	6.27
542.501	6.25
542.695	6.22
542.89	6.08
543.084	6.08
543.279	6.01
543.473	6.03
543.668	5.93
543.862	5.72
544.056	5.67
544.251	5.74
544.445	5.7
544.64	5.6
544.834	5.33
545.028	5.22
545.222	5.34
545.417	5.45
545.611	5.32
545.805	5.19
546	5.01
546.194	5.05
546.388	5.01
546.582	4.88
546.776	4.83
546.97	4.83
547.165	4.78
547.359	4.67
547.553	4.56
547.747	4.53
547.941	4.6
548.135	4.46
548.329	4.45
548.523	4.39
548.717	4.3
548.911	4.22
549.105	4.13
549.299	4.21
549.493	4.14
549.687	4.03
549.881	4.04
550.075	4
550.269	3.8
550.463	3.93
550.657	3.75
550.85	3.77
551.044	3.67
551.238	3.69
551.432	3.61
551.626	3.59
551.82	3.56
552.013	3.42
552.207	3.47
552.401	3.46
552.594	3.34
552.788	3.3
552.982	3.25
553.176	3.16
553.369	3.28
553.563	3.15
553.756	3.1
553.95	3.05
554.144	3.03
554.337	3.02
554.531	2.88
554.724	2.9
554.918	2.86
555.111	2.83
555.305	2.78
555.498	2.77
555.692	2.76
555.885	2.68
556.079	2.68
556.272	2.56
556.466	2.6
556.659	2.54
556.852	2.5
557.046	2.44
557.239	2.45
557.432	2.4
557.626	2.42
557.819	2.4
558.012	2.33
558.206	2.38
558.399	2.25
558.592	2.23
558.785	2.16
558.979	2.19
559.172	2.16
559.365	2.14
559.558	2.12
559.751	2.05
559.944	2.09
560.138	2
560.331	2
560.524	1.99
560.717	1.94
560.91	1.93
561.103	1.9
561.296	1.83
561.489	1.88
561.682	1.82
561.875	1.85
562.068	1.84
562.261	1.74
562.454	1.8
562.647	1.71
562.84	1.7
563.032	1.68
563.225	1.66
563.418	1.62
563.611	1.6
563.804	1.61
563.997	1.54
564.19	1.5
564.382	1.61
564.575	1.49
564.768	1.5
564.961	1.48
565.153	1.47
565.346	1.43
565.539	1.47
565.731	1.42
565.924	1.42
566.117	1.43
566.309	1.35
566.502	1.3
566.695	1.3
566.887	1.31
567.08	1.25
567.272	1.24
567.465	1.21
567.657	1.26
567.85	1.21
568.042	1.22
568.235	1.22
568.427	1.17
568.62	1.2
568.812	1.17
569.005	1.14
569.197	1.12
569.389	1.11
569.582	1.08
569.774	1.1
569.966	1.02
570.159	1.04
570.351	1.04
570.543	1.01
570.736	1.02
570.928	0.94
571.12	0.98
571.312	0.94
571.505	0.89
571.697	0.99
571.889	0.92
572.081	0.95
572.273	0.89
572.465	0.95
572.658	0.91
572.85	0.9
573.042	0.86
573.234	0.85
573.426	0.9
573.618	0.83
573.81	0.83
574.002	0.84
574.194	0.81
574.386	0.77
574.578	0.7
574.77	0.79
574.962	0.76
575.154	0.71
575.346	0.76
575.538	0.72
575.729	0.7
575.921	0.72
576.113	0.72
576.305	0.76
576.497	0.67
576.689	0.68
576.88	0.64
577.072	0.69
577.264	0.66
577.456	0.64
577.647	0.61
577.839	0.65
578.031	0.67
578.223	0.61
578.414	0.58
578.606	0.61
578.798	0.58
578.989	0.58
579.181	0.59
579.372	0.56
579.564	0.55
579.755	0.57
579.947	0.56
580.139	0.57
580.33	0.51
580.522	0.5
580.713	0.46
580.905	0.51
581.096	0.53
581.287	0.53
581.479	0.47
581.67	0.54
581.862	0.51
582.053	0.48
582.244	0.45
582.436	0.48
582.627	0.48
582.818	0.46
583.01	0.39
583.201	0.48
583.392	0.47
583.583	0.45
583.775	0.43
583.966	0.44
584.157	0.43
584.348	0.43
584.54	0.38
584.731	0.42
584.922	0.42
585.113	0.35
585.304	0.43
585.495	0.43
585.686	0.42
585.877	0.42
586.068	0.4
586.259	0.37
586.45	0.39
586.641	0.36
586.832	0.34
587.023	0.36
587.214	0.34
587.405	0.39
587.596	0.35
587.787	0.4
587.978	0.38
588.169	0.32
588.36	0.31
588.551	0.35
588.742	0.32
588.932	0.36
589.123	0.34
589.314	0.34
589.505	0.32
589.696	0.34
589.886	0.31
590.077	0.27
590.268	0.34
590.458	0.27
590.649	0.26
590.84	0.31
591.03	0.27
591.221	0.29
591.412	0.26
591.602	0.3
591.793	0.3
591.984	0.27
592.174	0.27
592.365	0.37
592.555	0.24
592.746	0.27
592.936	0.28
593.127	0.28
593.317	0.3
593.508	0.26
593.698	0.23
593.889	0.25
594.079	0.26
594.269	0.22
594.46	0.24
594.65	0.26
594.84	0.25
595.031	0.21
595.221	0.22
595.411	0.22
595.602	0.3
595.792	0.25
595.982	0.21
596.172	0.28
596.363	0.26
596.553	0.26
596.743	0.22
596.933	0.23
597.123	0.27
597.314	0.2
597.504	0.22
597.694	0.24
597.884	0.22
598.074	0.2
598.264	0.18
598.454	0.23
598.644	0.22
598.834	0.21
599.024	0.15
599.214	0.19
599.404	0.23
599.594	0.2
599.784	0.17
599.974	0.26
600.164	0.21
600.354	0.15
600.544	0.14
600.734	0.21
600.924	0.23
601.114	0.18
601.303	0.18
601.493	0.2
601.683	0.16
601.873	0.18
602.063	0.14
602.252	0.19
602.442	0.13
602.632	0.15
602.821	0.15
603.011	0.19
603.201	0.16
603.39	0.12
603.58	0.16
603.77	0.19
603.959	0.23
604.149	0.16
604.339	0.16
604.528	0.21
604.718	0.18
604.907	0.16
605.097	0.12
605.286	0.11
605.476	0.19
605.665	0.16
605.855	0.13
606.044	0.25
606.234	0.18
606.423	0.16
606.612	0.12
606.802	0.17
606.991	0.18
607.181	0.14
607.37	0.14
607.559	0.11
607.749	0.13
607.938	0.16
608.127	0.14
608.316	0.12
608.506	0.14
608.695	0.15
608.884	0.14
609.073	0.13
609.263	0.17
609.452	0.18
609.641	0.14
609.83	0.11
610.019	0.14
610.208	0.12
610.397	0.13
610.586	0.16
610.775	0.11
610.965	0.12
611.154	0.11
611.343	0.14
611.532	0.15
611.721	0.11
611.91	0.1
612.099	0.16
612.287	0.11
612.476	0.1
612.665	0.14
612.854	0.1
613.043	0.16
613.232	0.14
613.421	0.1
613.61	0.16
613.798	0.12
613.987	0.17
614.176	0.11
614.365	0.15
614.554	0.17
614.742	0.17
614.931	0.09
615.12	0.16
615.309	0.1
615.497	0.17
615.686	0.1
615.875	0.13
616.063	0.14
616.252	0.08
616.44	0.13
616.629	0.15
616.818	0.11
617.006	0.12
617.195	0.13
617.383	0.16
617.572	0.13
617.76	0.1
617.949	0.11
618.137	0.15
618.326	0.18
618.514	0.11
618.703	0.08
618.891	0.18
619.079	0.09
619.268	0.14
619.456	0.09
619.644	0.17
619.833	0.1
620.021	0.07
620.209	0.06
620.398	0.15
620.586	0.11
620.774	0.16
620.962	0.12
621.151	0.19
621.339	0.11
621.527	0.09
621.715	0.1
621.903	0.1
622.092	0.09
622.28	0.14
622.468	0.14
622.656	0.12
622.844	0.1
623.032	0.07
623.22	0.04
623.408	0.15
623.596	0.13
623.784	0.14
623.972	0.08
624.16	0.13
624.348	0.16
624.536	0.1
624.724	0.11
624.912	0.17
625.1	0.13
625.288	0.08
625.476	0.08
625.664	0.13
625.851	0.09
626.039	0.12
626.227	0.13
626.415	0.09
626.603	0.05
626.79	0.13
626.978	0.07
627.166	0.11
627.354	0.13
627.541	0.07
627.729	0.01
627.917	0.15
628.104	0.14
628.292	0.13
628.48	0.1
628.667	0.09
628.855	0.13
629.042	0.15
629.23	0.09
629.418	0.08
629.605	0.09
629.793	0.05
629.98	0.08
630.168	0.12
630.355	0.09
630.543	0.1
630.73	0.07
630.917	0.13
631.105	0.18
631.292	0.08
631.48	0.06
631.667	0.17
631.854	0.11
632.042	0.08
632.229	0.08
632.416	0.13
632.604	0.09
632.791	0.07
632.978	0.12
633.165	0.12
633.353	0.17
633.54	0.13
633.727	0.04
633.914	0.04
634.101	0.01
634.289	0.11
634.476	0.08
634.663	0.09
634.85	0.07
635.037	0.02
635.224	0.02
635.411	0.13
635.598	0.14
635.785	0.11
635.972	0.09
636.159	0.13
636.346	0.07
636.533	0.1
636.72	0.07
636.907	0.09
637.094	0.12
637.281	0.1
637.468	0.1
637.655	0.06
637.842	0.12
638.029	0.07
638.215	0.13
638.402	0.13
638.589	0.08
638.776	0.06
638.963	0.05
639.149	0.14
639.336	0.17
639.523	0.05
639.709	0.11
639.896	0.08
640.083	0.16
640.27	0.09
640.456	0.08
640.643	0.1
640.829	0.02
641.016	0.05
641.203	0.04
641.389	0.1
641.576	0.12
641.762	0.09
641.949	0.08
642.135	0.1
642.322	0.1
642.508	0.05
642.695	0.09
642.881	0.06
643.068	0.06
643.254	0.08
643.441	0.13
643.627	0.06
643.813	0.06
644	0.11
644.186	0.05
644.372	0
644.559	0.13
644.745	0.08
644.931	0.07
645.118	0.1
645.304	0.12
645.49	0.06
645.676	0.07
645.862	0.1
646.049	0.15
646.235	0.11
646.421	0.19
646.607	0.14
646.793	0.07
646.979	0.06
647.165	0.1
647.352	0.11
647.538	0.11
647.724	0.05
647.91	0.12
648.096	0.13
648.282	0.11
648.468	0.1
648.654	0.09
648.84	0.07
649.026	0.06
649.212	0.09
649.397	0.07
649.583	0.04
649.769	0.13
649.955	0.08
650.141	0.13
650.327	0.13
650.513	0.09
650.698	0.13
650.884	0.04
651.07	0.09
651.256	0.06
651.442	0.09
651.627	0.08
651.813	0.12
651.999	0.09
652.184	0.1
652.37	0.06
652.556	0.08
652.741	0.12
652.927	0.02
653.113	0.07
653.298	0.08
653.484	0.09
653.669	0.02
653.855	0.14
654.04	0.1
654.226	0.11
654.412	0.08
654.597	0.03
654.782	0.11
654.968	0.13
655.153	0.09
655.339	0.07
655.524	0.08
655.71	0.09
655.895	0.07
656.08	0.07
656.266	0.12
656.451	0.13
656.636	0.04
656.822	0.12
657.007	0.05
657.192	0.09
657.378	0.04
657.563	0.07
657.748	0.12
657.933	0.09
658.118	0.07
658.304	0.09
658.489	0.12
658.674	0.13
658.859	0.07
659.044	0.11
659.229	0.11
659.414	0.07
659.599	0.07
659.785	0.04
659.97	0.09
660.155	0.14
660.34	0.1
660.525	0.06
660.71	0.08
660.895	0.11
661.08	0.06
661.264	0.07
661.449	0.14
661.634	0.16
661.819	0.1
662.004	0.1
662.189	0.03
662.374	0.05
662.559	0.06
662.743	0.03
662.928	0.08
663.113	0.12
663.298	0.05
663.483	0.07
663.667	0.11
663.852	0.02
664.037	0.16
664.221	0.05
664.406	0.14
664.591	0.13
664.775	0.08
664.96	0.09
665.145	0.12
665.329	0.12
665.514	0.1
665.698	0.1
665.883	0.03
666.068	0.15
666.252	0.08
666.437	0.09
666.621	0.09
666.806	0.12
666.99	0.09
667.174	0.05
667.359	0.12
667.543	0.07
667.728	0.08
667.912	0.03
668.096	0.1
668.281	0.06
668.465	0.12
668.649	0.12
668.834	0.05
669.018	0.06
669.202	0.09
669.387	0.08
669.571	0.12
669.755	0.12
669.939	0.11
670.124	0.09
670.308	0.13
670.492	0.12
670.676	0.06
670.86	0.1
671.044	0.04
671.228	0.15
671.413	0.06
671.597	0.09
671.781	0.1
671.965	0.13
672.149	0.1
672.333	0.07
672.517	0.08
672.701	0.11
672.885	0.09
673.069	0.05
673.253	0.16
673.437	0.11
673.621	0.05
673.804	0.11
673.988	0.12
674.172	0.14
674.356	0.14
674.54	0.13
674.724	0.19
674.908	0.1
675.091	0.16
675.275	0.13
675.459	0.13
675.643	0.15
675.826	0.13
676.01	0.12
676.194	0.08
676.377	0.13
676.561	0.12
676.745	0.11
676.928	0.14
677.112	0.16
677.296	0.09
677.479	0.11
677.663	0.1
677.846	0.2
678.03	0.14
678.213	0.11
678.397	0.13
678.58	0.13
678.764	0.13
678.947	0.07
679.131	0.06
679.314	0.12
679.498	0.1
679.681	0.17
679.865	0.18
680.048	0.1
680.231	0.12
680.415	0.08
680.598	0.09
680.781	0.1
680.965	0.08
681.148	0.15
681.331	0.1
681.514	0.13
681.698	0.07
681.881	0.13
682.064	0.14
682.247	0.08
682.43	0.09
682.614	0.14
682.797	0.17
682.98	0.18
683.163	0.07
683.346	0.13
683.529	0.1
683.712	0.09
683.895	0.1
684.078	0.02
684.261	0.08
684.444	0.13
684.627	0.12
684.81	0.05
684.993	0.1
685.176	0.12
685.359	0.05
685.542	0.07
685.725	0.19
685.908	0.12
686.091	0.12
686.274	0.16
686.457	0.16
686.639	0.11
686.822	0.13
687.005	0.11
687.188	0.13
687.371	0.17
687.553	0.11
687.736	0.09
687.919	0.22
688.102	0.16
688.284	0.1
688.467	0.13
688.65	0.05
688.832	0.12
689.015	0.13
689.197	0.08
689.38	0.22
689.563	0.18
689.745	0.06
689.928	0.08
690.11	0.11
690.293	0.12
690.475	0.07
690.658	0.13
690.84	0.09
691.023	0.09
691.205	0.09
691.388	0.09
691.57	0.19
691.752	0.14
691.935	0.02
692.117	0.12
692.3	0.11
692.482	0.09
692.664	0.11
692.847	0.18
693.029	0.16
693.211	0.14
693.393	0.09
693.576	0.04
693.758	0.14
693.94	0.09
694.122	0.09
694.304	0.05
694.487	0.06
694.669	0.19
694.851	0.03
695.033	0.07
695.215	0.09
695.397	0.06
695.579	0.11
695.761	0.07
695.943	0.06
696.125	0.2
696.308	0.13
696.49	-0.01
696.671	0.21
696.853	0.07
697.035	0.23
697.217	0.11
697.399	0.13
697.581	0.06
697.763	0.1
697.945	0.06
698.127	0.08
698.309	0.17
698.491	0.16
698.672	0.16
698.854	0.22
699.036	0.15
699.218	0.14
699.399	0.19
699.581	0.16
699.763	0.16
699.945	0.1
700.126	0.1
700.308	0.1
700.49	0.09
700.671	0.01
700.853	0.08
701.035	0.1
701.216	0.07
701.398	0.07
701.579	0.06
701.761	0.21
701.943	0.06
702.124	0.09
702.306	0.08
702.487	0.24
702.669	0.08
702.85	0.11
703.031	0.08
703.213	0.19
703.394	0.22
703.576	0.05
703.757	0.22
703.938	0.2
704.12	0.22
704.301	0.08
704.483	0.14
704.664	0.13
704.845	0.23
705.026	0.19
705.208	0.1
705.389	0.11
705.57	0.13
705.751	0.05
705.933	0.13
706.114	0.2
706.295	0.16
706.476	0.03
706.657	0.18
706.838	0.13
707.02	0.14
707.201	0.06
707.382	0.06
707.563	0.15
707.744	0.08
707.925	0.06
708.106	0.06
708.287	0.15
708.468	0.16
708.649	0.13
708.83	0.18
709.011	0.07
709.192	0.09
709.373	0.04
709.554	0.11
709.734	0.17
709.915	0.14
710.096	0.13
710.277	0.06
710.458	0.06
710.639	0.15
710.819	0.03
711	0.09
711.181	0.17
711.362	0.18
711.542	0.11
711.723	0.16
711.904	0.13
712.085	0.17
712.265	0.2
712.446	0.09
712.627	0.05
712.807	0.07
712.988	0.12
713.168	0.1
713.349	0.14
713.53	-0
713.71	0.01
713.891	0.07
714.071	0.09
714.252	0.07
714.432	0.06
714.613	0.03
714.793	0.17
714.974	0.26
715.154	0.18
715.334	0.19
715.515	0.19
715.695	0.08
715.876	0.12
716.056	0.16
716.236	0.08
716.417	0.17
716.597	0.07
716.777	0.25
716.957	0.12
717.138	0.14
717.318	0.12
717.498	0.01
717.678	0.12
717.859	0.15
718.039	-0
718.219	0.07
718.399	0.11
718.579	0.01
718.759	0.06
718.939	0.15
719.12	0.12
719.3	0.12
719.48	-0.02
719.66	0.01
719.84	0.15
720.02	0.11
720.2	0.16
720.38	0.02
720.56	0.22
720.74	0.14
720.92	0.15
721.1	0.14
721.279	0.21
721.459	0.14
721.639	-0.03
721.819	0.15
721.999	0.12
722.179	0.17
722.359	0.06
722.538	0.18
722.718	0.1
722.898	0.08
723.078	0.09
723.257	0.11
723.437	0.09
723.617	0.08
723.797	0.15
723.976	0.1
724.156	0.12
724.336	0.17
724.515	0.31
724.695	0.01
724.874	0.13
725.054	0.25
725.234	0.05
725.413	0.13
725.593	0.03
725.772	0.13
725.952	0.06
726.131	0.13
726.311	0.14
726.49	0.09
726.67	0.07
726.849	0.05
727.028	0.12
727.208	0.13
727.387	0.21
727.567	0.03
727.746	0.16
727.925	0.06
728.105	0.11
728.284	0.1
728.463	0.05
728.643	0.2
728.822	-0
729.001	0.09
729.18	0.12
729.359	0.15
729.539	0.16
729.718	0.15
729.897	0.13
730.076	0.13
730.255	0.04
730.434	0.09
730.614	0.22
730.793	0.16
730.972	0.12
731.151	0.11
731.33	0.24
731.509	0.18
731.688	0.16
731.867	0.14
732.046	-0.01
732.225	0.27
732.404	0.1
732.583	0.02
732.762	0.16
732.941	0.19
733.12	0.13
733.298	0.03
733.477	0.22
733.656	0.14
733.835	0.07
734.014	0.26
734.193	0.12
734.371	0.17
734.55	0.16
734.729	0.02
734.908	0.09
735.086	0.14
735.265	0.13
735.444	0
735.623	0.06
735.801	0.08
735.98	0.09
736.159	0.09
736.337	0.22
736.516	0.12
736.694	0.19
736.873	0.13
737.052	0.26
737.23	0.25
737.409	0.04
737.587	0.19
737.766	-0.06
737.944	0.12
738.123	0.23
738.301	0.18
738.479	0.09
738.658	0.19
738.836	0.04
739.015	0.18
739.193	0.25
739.371	0.05
739.55	0.14
739.728	0.05
739.906	0.29
740.085	0.22
740.263	0.21
740.441	-0
740.62	0.3
740.798	0.17
740.976	0.09
741.154	-0
741.332	0.24
741.511	0.17
741.689	0.26
741.867	0.27
742.045	0.14
742.223	0.08
742.401	0.04
742.579	0.17
742.757	0.24
742.935	0.02
743.114	0.04
743.292	0.11
743.47	0.21
743.648	0.24
743.826	-0.06
744.004	0.15
744.181	0.26
744.359	0.02
744.537	0.08
744.715	0.1
744.893	0.05
745.071	-0.03
745.249	0.15
745.427	0.08
745.605	0.27
745.782	0.11
745.96	0.23
746.138	0.22
746.316	0.17
746.493	0.13
746.671	0.14
746.849	0.04
747.027	0.17
747.204	0.09
747.382	0.15
747.56	0.02
747.737	0.14
747.915	0.12
748.093	0.21
748.27	0.04
748.448	0.18
748.625	0.09
748.803	0.11
748.98	0.14
749.158	0.08
749.335	0.18
749.513	0.07
749.69	0.21
749.868	0.05
750.045	0.18
750.223	0.1
750.4	-0.11
750.578	0.31
750.755	0.06
750.932	-0
751.11	0.2
751.287	-0.01
751.464	0.28
751.642	-0.05
751.819	0.15
751.996	0.17
752.173	0.07
752.351	-0.02
752.528	0.15
752.705	0.1
752.882	0.05
753.06	0.19
753.237	0.11
753.414	0.31
753.591	0.18
753.768	0.08
753.945	0.04
754.122	0.01
754.299	0.14
754.476	0.07
754.654	0.07
754.831	0.13
755.008	0.09
755.185	-0.03
755.362	0.1
755.539	0.14
755.716	0.06
755.892	0.02
756.069	0.02
756.246	-0.02
756.423	0.14
756.6	0.27
756.777	0.07
756.954	0.24
757.131	0.01
757.307	0.05
757.484	-0.01
757.661	0.12
757.838	0.13
758.015	-0.04
758.191	0.17
758.368	0.38
758.545	0.31
758.721	0.11
758.898	0.02
759.075	0.09
759.251	0.25
759.428	0.19
759.605	-0.08
759.781	0.17
759.958	0.18
760.134	0.16
760.311	-0
760.488	0.28
760.664	0.16
760.841	0.13
761.017	-0.02
761.194	0.19
761.37	0.26
761.547	0.16
761.723	0.15
761.899	0.28
762.076	0.08
762.252	0.08
762.429	0.1
762.605	0.23
762.781	0.04
762.958	0.18
763.134	-0.03
763.31	0.11
763.486	0.13
763.663	-0.19
763.839	0.21
764.015	-0.03
764.191	0.03
764.368	0.04
764.544	0.07
764.72	0.09
764.896	0.06
765.072	0.11
765.248	0.17
765.425	0.09
765.601	0.09
765.777	0.09
765.953	-0.13
766.129	0.07
766.305	-0.01
766.481	0.3
766.657	0.12
766.833	0.24
767.009	-0.04
767.185	0.14
767.361	0.07
767.537	-0.1
767.713	0.31
767.889	0.03
768.065	0.1
768.24	0.05
768.416	0.28
768.592	0.09
768.768	0.25
768.944	0.13
769.12	0.15
769.295	-0.04
769.471	0.05
769.647	0.12
769.823	0.21
769.998	-0.05
770.174	0.06
770.35	0.43
770.525	0.3
770.701	0.07
770.877	0.19
771.052	0.05
771.228	0.05
771.403	0.16
771.579	0.23
771.755	0.36
771.93	0.06
772.106	-0.08
772.281	-0.05
772.457	0.07
772.632	0.26
772.808	-0.02
772.983	0.07
773.159	-0.13
773.334	0.24
773.509	0.06
773.685	0.04
773.86	0.48
774.036	0.33
774.211	0.23
774.386	0.08
774.562	0.16
774.737	0.34
774.912	-0.01
775.087	0.22
775.263	0.25
775.438	0.08
775.613	0.05
775.788	0.16
775.964	0.18
776.139	0.42
776.314	-0.2
776.489	0.06
776.664	0.16
776.839	0.08
777.014	0.14
777.19	0.15
777.365	0.28
777.54	0.35
777.715	0.01
777.89	0.11
778.065	0.18
778.24	0.04
778.415	0.21
778.59	0.08
778.765	0.15
778.94	0.13
779.115	-0.02
779.289	-0.02
779.464	0.09
779.639	-0.03
779.814	-0.02
779.989	0.09
780.164	0.21
780.339	0.24
780.513	0.15
780.688	0
780.863	0.19
781.038	0.25
781.212	-0.02
781.387	0.24
781.562	0.61
781.737	0.12
781.911	0.4
782.086	-0.13
782.261	0.12
782.435	0.43
782.61	0.02
782.784	0.12
782.959	0.23
783.134	0.21
783.308	-0.09
783.483	0.21
783.657	0.55
783.832	0.22
784.006	-0.18
784.181	0.24
784.355	0.38
784.53	0.06
784.704	0.07
784.878	0.35
785.053	0.17
785.227	0.5
785.402	0.5
785.576	-0.11
785.75	0.2
785.925	-0.02
786.099	-0.08
786.273	0.28
786.448	0.15
786.622	0.33
786.796	0.21
786.97	0.05
787.145	0.64
787.319	-0.28
787.493	-0.03
787.667	-0.13
787.841	0.23
788.015	0.2
788.19	0.14
788.364	0.13
788.538	0.48
788.712	0.24
788.886	0.17
789.06	0.13
789.234	0.32
789.408	-0.17
789.582	0.16
789.756	0.12
789.93	-0.02
790.104	0.14
790.278	0.13
790.452	-0.1
790.626	0.15
790.8	-0.09
790.973	0.12
791.147	0.15
791.321	0.36
791.495	0.15
791.669	0.12
791.843	0.25
792.016	0.28
792.19	0.72
792.364	-0.15
792.538	0.59
792.711	0.41
792.885	0.07
793.059	-0.01
793.233	-0.37
793.406	0.12
793.58	0.27
793.754	0.23
793.927	0.39
794.101	0.51
794.274	0.09
794.448	0.16
794.622	-0.07
794.795	0.66
794.969	-0.14
795.142	0.4
795.316	-0.05
795.489	0.1
795.663	0.55
795.836	0.09
796.009	-0.13
796.183	0.39
796.356	0.46
796.53	0.26
796.703	0.06
796.876	0.78
797.05	0.12
797.223	0.13
797.396	0.16
797.57	0.34
797.743	0.54
797.916	0.06
798.09	0.07
798.263	0.39
798.436	0.5
798.609	0.13
798.782	0.2
798.956	0.21
799.129	-0.03
799.302	0.22
799.475	0.13
799.648	-0.07
799.821	-0.08
799.994	0.29
800.167	-0.15
800.34	0.16
800.514	0.15
800.687	0.18
800.86	0.16
801.033	0.38
801.206	0.11
801.379	-0.01
801.551	0.34
801.724	0.73
801.897	0.49
802.07	0.16
802.243	-0.38
802.416	-0.05
802.589	0.06
802.762	0.16
802.935	0.29
803.107	0.25
803.28	0.52
803.453	0.62
803.626	0.34
803.798	-0.05
803.971	0.19
804.144	0.37
804.317	0.31
804.489	0.21
804.662	0.17
804.835	0.3
805.007	-0.04
805.18	0.57
805.353	-0.01
805.525	0.15
805.698	0.14
805.87	0.46
806.043	0.39
806.215	-0.01
806.388	0.24
806.56	0.58
806.733	0.42
806.905	0.41
807.078	0.16
807.25	-0.18
807.423	0.24
807.595	-0.2
807.768	0.26
807.94	0.12
808.112	0.09
808.285	0.03
808.457	0.18
808.629	-0.01
808.802	0.4
808.974	0.14
809.146	0.2
809.318	-0.26
809.491	0.25
809.663	0.37
809.835	0.01
810.007	0.46
810.18	0.18
810.352	-0.2
810.524	-0.01
810.696	0.05
810.868	0.78
811.04	0.16
811.212	-0.05
811.384	0.8
811.556	0.36
811.728	-0.12
811.901	0.92
812.073	0.27
812.245	0.62
812.417	0.11
812.589	-0.21
812.76	0.09
812.932	0.2
813.104	0.71
813.276	0.37
813.448	0.43
813.62	0.18
813.792	0.34
813.964	0.28
814.136	0.58
814.307	-0.2
814.479	0.14
814.651	0.19
814.823	0.86
814.995	-0.09
815.166	0.08
815.338	-0.22
815.51	-0.06
815.681	1.15
815.853	-0.14
816.025	-0
816.196	0.72
816.368	0.82
816.54	-0.3
816.711	-0.28
816.883	0.35
817.054	1.21
817.226	-0.37
817.398	0.69
817.569	0.16
817.741	0.26
817.912	0.17
818.084	-0.21
818.255	0.72
818.426	-0.21
818.598	0.4
818.769	-0.11
818.941	0.08
819.112	0.67
819.283	0.29
819.455	-0.62
819.626	0.11
819.798	0.71
819.969	0.11
820.14	-0.08
820.311	-0.1
820.483	0.18
820.654	0.83
820.825	0.08
820.996	-0.08
821.168	-0.33
821.339	0.34
821.51	-0.06
821.681	0.11
821.852	0.2
822.023	-0.26
822.195	-0.66
822.366	0.64
822.537	0.69
822.708	0.43
822.879	0.11
823.05	0.85
823.221	-0.17
823.392	0.21
823.563	-0.24
823.734	0.61
823.905	-0.14
824.076	0.06
824.247	-0.59
824.418	-0.16
824.589	1.19
824.759	0.21
824.93	0.23
825.101	-0.47
825.272	-0.11
825.443	0.91
825.614	0.54
825.784	-0.39
825.955	1.21
826.126	0.87
826.297	0.15
826.467	1.51
826.638	0.86
826.809	-0.85
826.98	0.46
827.15	0.9
827.321	0.51
827.492	1.21
827.662	0.39
827.833	1.55
828.003	0.8
828.174	-0.38
828.345	-0.15
828.515	0.87
828.686	-0.08
828.856	-0.16
829.027	0.14
829.197	0.8
829.368	0.53
829.538	0.48
829.709	-0.05
829.879	0.55
830.049	0.45
830.22	0.36
830.39	0.14
830.56	0.56
830.731	0.39
830.901	0.07
831.072	0.3
831.242	0.33
831.412	0.65
831.582	0.18
831.753	-0.5
831.923	0.69
832.093	0.21
832.263	-0.27
832.434	-0.16
832.604	0.1
832.774	0.55
832.944	-0.17
833.114	0.04
833.284	0.15
833.454	-0.3
833.624	-0.21
833.795	-0.43
833.965	0.65
834.135	1.04
834.305	-0.16
834.475	-0.35
834.645	0.44
834.815	-0.15
834.985	-0.58
835.155	-0.27
835.325	0.3
835.494	0.83
835.664	0.22
835.834	-0.36
836.004	0.55
836.174	0.54
836.344	0.34
836.514	-0.55
836.684	0.46
836.853	0.66
837.023	0.73
837.193	-0.32
837.363	1.15
837.532	0.27
837.702	0.55
837.872	0.3
838.041	0.67
838.211	1.84
838.381	0.27
838.55	0.8
838.72	1.9
838.89	0.78
839.059	-0.23
839.229	-0.79
839.398	1.55
839.568	0.28
839.738	0.24
839.907	0.82
840.077	0.21
840.246	-0.32
840.416	-0.24
840.585	0.29
840.755	1.91
840.924	1.64
841.093	-0.11
841.263	-0.02
841.432	0.01
841.602	-0.23
841.771	0.16
841.94	0.09
842.11	1.93
842.279	2
842.448	-0.54
842.617	-0.2
842.787	1.76
842.956	-0.07
843.125	1.05
843.294	0.42
843.464	1.95
843.633	0.81
843.802	-0.86
843.971	0.45
844.14	1.23
844.309	0.6
844.479	0.34
844.648	-0.7
844.817	-0.04
844.986	0.45
845.155	-0.4
845.324	-0.37
845.493	0.44
845.662	-0.3
845.831	0.87
846	0.87
846.169	-0.42
846.338	1.82
846.507	0.73
846.676	1.04
846.844	0.1
847.013	1.93
847.182	-0.36
847.351	0.22
847.52	0.56
847.689	0.43
847.858	0.1
848.026	-0.02
848.195	0.21
848.364	0.05
848.533	-0.43
848.701	0.03
848.87	0.57
849.039	0.84
849.207	1.04
849.376	1.66
849.545	2.18
849.713	-0.81
849.882	0.02
850.051	0.45
850.219	0.82
850.388	1.33
850.556	0.47
850.725	-0.22
850.893	0.57
851.062	-0.16
851.23	0.86
851.399	-0.64
851.567	-0.45
851.736	1.23
851.904	0.08
852.073	-0.74
852.241	0.69
852.41	1.14
852.578	0.02
852.746	-0.48
852.915	1.37
853.083	0.01
853.251	-1.19
853.42	0.15
853.588	0.81
853.756	1.22
853.924	-0.3
854.093	0.17
854.261	0.59
854.429	-0.61
854.597	0.67
854.765	-0.81
854.934	0.04
855.102	0.87
855.27	0.77
855.438	1.32
855.606	1.32
855.774	1.43
855.942	-1.34
856.11	-1.04
856.278	0.3
856.446	0.75
856.614	0.16
856.782	-0.21
856.95	1.05
857.118	0.81
857.286	0.69
857.454	0.38
857.622	1.44
857.79	-0.38
857.958	-1.47
858.126	-0.62
858.294	-1.16
858.462	0.34
858.629	-0.31
858.797	-0.2
858.965	1.17
859.133	-0.94
859.301	0
859.468	0.99
859.636	-0.27
859.804	3.58
859.971	2.84
860.139	-0.12
860.307	1.08
860.474	0.48
860.642	-0.2
860.81	0.03
860.977	-0.29
861.145	2.02
861.313	0.39
861.48	0.92
861.648	0.44
861.815	0.11
861.983	-0.78
862.15	0.83
862.318	0.08
862.485	1.17
862.653	-0.09
862.82	-0.69
862.988	1.71
863.155	-0.25
863.322	-0.36
863.49	-0.67
863.657	0.24
863.824	3.13
863.992	1
864.159	0.32
864.326	0.9
864.494	-1.65
864.661	3.34
864.828	-0.62
864.996	2.46
865.163	1.46
865.33	0.96
865.497	-2.5
865.664	-0.58
865.832	-1.56
865.999	-0.4
866.166	-0.73
866.333	0.54
866.5	-1.36
866.667	1.24
866.834	0.4
867.001	1.62
867.168	-0.86
867.335	1.22
867.502	-0.82
867.669	-0.79
867.836	3.42
868.003	-0.02
868.17	0.72
868.337	3.71
868.504	2.65
868.671	-1.77
868.838	0.28
869.005	1.09
869.172	1.1
869.339	0.13
869.505	0.94
869.672	0.59
869.839	2.29
870.006	1.08
870.173	-1.18
870.339	1.33
870.506	3.76
870.673	-0.8
870.84	1.4
871.006	1.5
871.173	0.13
871.34	-0.47
871.506	-0.73
871.673	1.4
871.839	-0.52
872.006	0.47
872.173	-0.88
872.339	2.07
872.506	2.76
872.672	-1.76
872.839	-1.67
873.005	0.67
873.172	4.66
873.338	1.86
873.505	0.59
873.671	0.36
873.838	1.16
874.004	-2.05
874.171	-0.03
874.337	-0.64
874.503	3.03
874.67	0.97
874.836	-0.46
875.002	2.29
875.169	2.93
875.335	1.26
875.501	0.22
875.668	1.17
875.834	-1.8
876	-0.54
876.166	1.12
876.332	0.37
876.499	4.16
876.665	-0.54
876.831	1.89
876.997	3.05
877.163	3.15
877.329	-0.03
877.495	0.87
877.662	1.88
877.828	0.39
877.994	0.93
878.16	-3.52
878.326	1.3
878.492	0.92
878.658	0.75
878.824	0.42
878.99	2
879.156	-0.77
879.322	4.34
879.487	0.05
879.653	1.3
879.819	0.57
879.985	0.49
880.151	0.85
880.317	2.1
880.483	-0.2
880.648	0.83
880.814	-1.95
880.98	-0.5
881.146	-3.43
881.312	-0.5
881.477	-0.84
881.643	0.03
881.809	2.02
881.974	2.62
882.14	-1.81
882.306	-0.73
882.471	3.85
882.637	-0.33
882.803	3.08
882.968	1.54
883.134	3.84
883.299	0.03
883.465	1.05
883.63	2.21
883.796	3.06
883.961	1.82
884.127	-0.27
884.292	-3.95
884.458	-0.42
884.623	-0.42
