Data from Apollo_Calib_20240827__AbsoluteIrradiance__282__03-51-01-720.txt Node

Date: Wed Aug 28 03:51:01 BST 2024
User: biology
Spectrometer: FLMT08252
Trigger mode: 0
Integration Time (sec): 5.000000E-1
Scans to average: 5
Electric dark correction enabled: true
Nonlinearity correction enabled: false
Boxcar width: 0
XAxis mode: Wavelengths
Number of Pixels in Spectrum: 3648
>>>>>Begin Spectral Data<<<<<
179.588	-0
179.809	-0
180.03	-0
180.251	-0
180.473	-0
180.694	0
180.915	0
181.136	-0
181.357	0
181.578	0
181.799	-0
182.02	-0
182.241	0
182.462	-0
182.683	0
182.904	-0
183.125	-0
183.346	0
183.567	0
183.788	0
184.009	-0
184.23	0
184.451	0
184.672	-0
184.892	-0
185.113	0
185.334	0
185.555	-0
185.776	-0
185.996	0
186.217	0
186.438	0
186.659	-0
186.879	0
187.1	-0
187.321	-0
187.541	0
187.762	0
187.983	0
188.203	0
188.424	0
188.644	-0
188.865	0
189.086	-0
189.306	0
189.527	0
189.747	0
189.968	-0
190.188	0
190.409	0
190.629	0
190.849	0
191.07	0
191.29	0
191.511	0
191.731	-0
191.951	-0
192.172	0
192.392	0
192.612	-0
192.833	0
193.053	0
193.273	0
193.493	0
193.714	-0
193.934	0
194.154	0
194.374	0
194.594	0
194.815	0
195.035	0
195.255	0
195.475	-0
195.695	0
195.915	0
196.135	0
196.355	0
196.575	0
196.795	0
197.015	-0
197.235	0
197.455	0
197.675	0
197.895	0
198.115	0
198.335	0
198.555	0
198.775	0
198.995	0
199.214	0
199.434	-0
199.654	-0
199.874	0
200.094	1.5
200.313	-0.12
200.533	-0.1
200.753	-0.54
200.973	1.48
201.192	1.42
201.412	-0.9
201.632	-0.09
201.851	1.23
202.071	0.19
202.291	0.03
202.51	-0.66
202.73	0.5
202.95	-0.13
203.169	-0.3
203.389	0.49
203.608	0.64
203.828	0.1
204.047	0.15
204.267	0.66
204.486	0.65
204.706	0.34
204.925	0.18
205.145	-0.03
205.364	0.73
205.583	0.87
205.803	0.04
206.022	-0.07
206.242	0.3
206.461	0.09
206.68	-0.11
206.9	0.26
207.119	1.06
207.338	0.91
207.557	-0.13
207.777	-0.04
207.996	0.11
208.215	0.46
208.434	0.01
208.654	-0.17
208.873	0.39
209.092	0.89
209.311	0.15
209.53	-0.05
209.749	-0.15
209.968	0.21
210.187	0.13
210.407	-0.14
210.626	0.14
210.845	0.29
211.064	0.32
211.283	-0.19
211.502	0.4
211.721	0.25
211.94	0.05
212.159	0.31
212.377	0.48
212.596	0.7
212.815	0.13
213.034	0.23
213.253	0.6
213.472	0.46
213.691	-0.03
213.91	-0.24
214.128	0
214.347	0.74
214.566	-0.14
214.785	-0.23
215.003	0.46
215.222	0.36
215.441	0.05
215.66	-0.18
215.878	0.23
216.097	0.51
216.316	-0.04
216.534	0.02
216.753	0.18
216.972	0.14
217.19	0.26
217.409	-0.03
217.627	-0.08
217.846	0.08
218.064	0.12
218.283	-0.04
218.501	0.44
218.72	0.41
218.938	0.05
219.157	0
219.375	0.31
219.594	0.36
219.812	-0.06
220.031	-0.04
220.249	0.53
220.467	0.59
220.686	0.13
220.904	-0.06
221.122	-0.05
221.341	0.6
221.559	0.09
221.777	-0.08
221.995	0.16
222.214	0.31
222.432	0.05
222.65	0.32
222.868	0.17
223.086	0.34
223.305	0.36
223.523	0.19
223.741	0.49
223.959	0.03
224.177	-0.15
224.395	0.06
224.613	0.21
224.831	0.28
225.049	-0.08
225.267	0.01
225.485	0.24
225.703	-0.01
225.921	0.09
226.139	-0.04
226.357	0.31
226.575	0.23
226.793	0.09
227.011	0.83
227.229	0.08
227.447	0.27
227.665	0.08
227.883	-0.11
228.1	0.17
228.318	0.21
228.536	-0.06
228.754	-0.06
228.972	0.23
229.189	0.26
229.407	0.15
229.625	0.08
229.843	0.33
230.06	0.2
230.278	-0.02
230.496	0.08
230.713	0.03
230.931	0.38
231.149	-0.03
231.366	-0.15
231.584	0.12
231.801	0.56
232.019	0.11
232.236	0.02
232.454	-0.11
232.671	0.16
232.889	0.07
233.106	0
233.324	0.12
233.541	0.07
233.759	0.07
233.976	-0.06
234.194	0.09
234.411	0.07
234.628	-0.04
234.846	0.1
235.063	0.14
235.28	0.16
235.498	0.14
235.715	0.01
235.932	0.24
236.149	0.14
236.367	-0.01
236.584	0.16
236.801	0.1
237.018	0.26
237.236	0.23
237.453	-0.09
237.67	0.3
237.887	0.05
238.104	0.02
238.321	-0.03
238.538	0.04
238.755	0.22
238.973	-0.06
239.19	0.08
239.407	0.1
239.624	0.11
239.841	-0.01
240.058	-0.01
240.275	0.11
240.492	0.01
240.709	0.09
240.925	0.01
241.142	0.02
241.359	-0.06
241.576	0.01
241.793	0.12
242.01	0.09
242.227	0.18
242.444	0.15
242.66	0.24
242.877	0.16
243.094	0.04
243.311	0.08
243.527	0.14
243.744	0.18
243.961	0.15
244.178	0
244.394	-0.01
244.611	0.19
244.828	0.4
245.044	-0.04
245.261	0.02
245.477	0.09
245.694	0.22
245.911	0.02
246.127	0.07
246.344	0.26
246.56	0.17
246.777	-0.02
246.993	-0
247.21	0.08
247.426	0.16
247.643	0.08
247.859	-0.02
248.076	0.04
248.292	0.27
248.508	0.03
248.725	0.09
248.941	0.19
249.157	0.22
249.374	0.04
249.59	0.05
249.806	0.06
250.023	0.15
250.239	-0.06
250.455	0.05
250.671	0.14
250.888	0.15
251.104	0.15
251.32	0.08
251.536	0.12
251.752	0.1
251.969	0.08
252.185	0.12
252.401	0.28
252.617	0.19
252.833	0.06
253.049	0.02
253.265	0.07
253.481	0.13
253.697	0.04
253.913	0.03
254.129	0.09
254.345	0.15
254.561	0.1
254.777	0.07
254.993	0.24
255.209	0.14
255.425	0.08
255.641	-0.01
255.857	0.22
256.073	0.13
256.288	-0.01
256.504	0.04
256.72	0.13
256.936	0.2
257.152	0.05
257.367	-0.03
257.583	0.12
257.799	0.16
258.015	-0.03
258.23	0.01
258.446	0.21
258.662	0.02
258.877	-0.02
259.093	0.01
259.309	0.1
259.524	0.12
259.74	0.08
259.955	-0.04
260.171	0.13
260.387	0.03
260.602	0.12
260.818	0.13
261.033	0.03
261.249	0.03
261.464	0.04
261.68	-0.04
261.895	0.14
262.11	0.14
262.326	0.05
262.541	-0.03
262.757	0.2
262.972	0.09
263.187	0.06
263.403	0.06
263.618	0.14
263.833	0.01
264.049	-0.01
264.264	0.06
264.479	0.07
264.694	0.18
264.91	0.05
265.125	0.06
265.34	0.16
265.555	0.19
265.77	0.1
265.986	0.02
266.201	0.11
266.416	0.22
266.631	0.05
266.846	0.07
267.061	0.12
267.276	0.09
267.491	-0.11
267.706	0.13
267.921	0.09
268.136	0.12
268.351	0.09
268.566	-0.01
268.781	0.11
268.996	0.16
269.211	0.03
269.426	-0.07
269.641	0.04
269.856	0.15
270.071	0.02
270.285	0.02
270.5	0.09
270.715	0.14
270.93	0.05
271.145	0.09
271.359	0.13
271.574	0.05
271.789	0.04
272.004	0.05
272.218	0.03
272.433	0.11
272.648	0
272.862	0.14
273.077	0.13
273.292	0.11
273.506	0.01
273.721	0.02
273.936	0.08
274.15	0.18
274.365	0.07
274.579	0.14
274.794	0.15
275.008	0.14
275.223	-0.03
275.437	0.11
275.652	0.14
275.866	0.13
276.081	0.06
276.295	0.14
276.509	0.06
276.724	0.07
276.938	0.1
277.153	0.06
277.367	0.13
277.581	0.06
277.796	0.03
278.01	0.05
278.224	0.17
278.438	0.13
278.653	-0.01
278.867	0.05
279.081	0.16
279.295	0.06
279.51	0.08
279.724	-0.05
279.938	0.08
280.152	0.1
280.366	-0.01
280.58	0
280.794	0.16
281.008	0.08
281.222	0.1
281.437	0.18
281.651	0.09
281.865	0.12
282.079	0.03
282.293	-0.09
282.507	0.01
282.721	0.04
282.935	0.09
283.148	-0.02
283.362	0.04
283.576	-0.01
283.79	0.02
284.004	0.02
284.218	0.12
284.432	0.04
284.646	0.06
284.859	-0.05
285.073	0.01
285.287	0.04
285.501	0.07
285.714	0.08
285.928	0.04
286.142	0.04
286.356	-0.05
286.569	-0.01
286.783	0.13
286.997	0.09
287.21	0.04
287.424	0.07
287.637	0.05
287.851	0.05
288.065	0.1
288.278	0.02
288.492	0.05
288.705	-0.02
288.919	0.09
289.132	0.02
289.346	0.11
289.559	0.01
289.773	-0.02
289.986	0.03
290.2	0.06
290.413	0.13
290.626	0.01
290.84	0.04
291.053	0.03
291.267	0.16
291.48	0.07
291.693	0.05
291.906	0.01
292.12	0.05
292.333	-0
292.546	0.03
292.76	0.12
292.973	0.06
293.186	0.06
293.399	0.02
293.612	0.11
293.826	0.05
294.039	0.08
294.252	0.06
294.465	0.07
294.678	0.1
294.891	0.05
295.104	-0.03
295.317	0.01
295.53	0.03
295.743	0.04
295.956	0.01
296.169	0.14
296.382	0.12
296.595	0.09
296.808	-0.01
297.021	0.1
297.234	0.11
297.447	0.01
297.66	0.07
297.873	0.1
298.086	0.08
298.299	-0
298.511	-0.04
298.724	0.05
298.937	0.02
299.15	0.03
299.363	0.04
299.575	0.09
299.788	0.07
300.001	0.03
300.213	0.04
300.426	0.06
300.639	0.03
300.852	0.01
301.064	0.09
301.277	0.12
301.489	0.09
301.702	0.11
301.915	0.08
302.127	0.06
302.34	0.09
302.552	0.1
302.765	0.03
302.977	0.09
303.19	0.02
303.402	0.02
303.615	0.07
303.827	0.03
304.04	0.05
304.252	0.1
304.464	0.06
304.677	0.19
304.889	0.14
305.102	0.06
305.314	0.04
305.526	0.1
305.739	0.07
305.951	-0.02
306.163	0.02
306.375	0.11
306.588	0.01
306.8	0.04
307.012	0.01
307.224	0.07
307.436	0.12
307.649	0.02
307.861	0.07
308.073	0.08
308.285	0.05
308.497	0.05
308.709	0.07
308.921	0.04
309.133	0.11
309.346	0.03
309.558	0.09
309.77	0.11
309.982	0.13
310.194	0.1
310.406	0.04
310.617	0.15
310.829	0.03
311.041	0.08
311.253	0.01
311.465	0.07
311.677	0.1
311.889	0.04
312.101	0.04
312.313	0.12
312.524	0.12
312.736	-0.02
312.948	0.03
313.16	0.15
313.372	0.08
313.583	0.04
313.795	0.06
314.007	0.06
314.218	0.12
314.43	0.04
314.642	0.03
314.853	-0.01
315.065	0.06
315.277	0.01
315.488	0.09
315.7	0.1
315.912	0.05
316.123	0.07
316.335	0.04
316.546	0.14
316.758	0.06
316.969	0.03
317.181	0.1
317.392	0.06
317.604	0.12
317.815	-0.02
318.026	0.04
318.238	0.03
318.449	0.08
318.661	-0.01
318.872	-0.03
319.083	0.02
319.295	0.07
319.506	-0
319.717	0.06
319.929	0.08
320.14	0.05
320.351	0.04
320.562	0.04
320.774	0.15
320.985	0.02
321.196	0.01
321.407	-0.02
321.618	0.08
321.829	0.07
322.041	0.08
322.252	0.05
322.463	0.14
322.674	0.12
322.885	0.02
323.096	0.02
323.307	0.01
323.518	0.06
323.729	0.04
323.94	0.07
324.151	0.02
324.362	0.13
324.573	0.07
324.784	0.03
324.995	0.14
325.206	0.08
325.417	0.03
325.628	0.01
325.838	0.08
326.049	0.09
326.26	0.11
326.471	0.06
326.682	0.12
326.892	0.09
327.103	0
327.314	-0
327.525	0.14
327.735	0.08
327.946	0.04
328.157	0.04
328.368	0.1
328.578	0.01
328.789	0.05
328.999	0.02
329.21	0.07
329.421	0.04
329.631	-0.01
329.842	-0
330.052	0.07
330.263	0.12
330.473	0.09
330.684	0.02
330.894	0.03
331.105	0.07
331.315	-0
331.526	-0
331.736	0.18
331.947	0.03
332.157	0.06
332.367	0.01
332.578	0.08
332.788	0.13
332.999	0.1
333.209	0.06
333.419	0.02
333.629	0.06
333.84	0.09
334.05	0.02
334.26	0.13
334.47	0.12
334.681	0.1
334.891	0.03
335.101	0.12
335.311	0.14
335.521	0.1
335.732	-0.01
335.942	0.17
336.152	0.12
336.362	0.06
336.572	0.08
336.782	0.09
336.992	0.03
337.202	0.02
337.412	0.05
337.622	0.05
337.832	0.06
338.042	0.04
338.252	0.03
338.462	0.07
338.672	0.05
338.882	0.03
339.092	0.01
339.302	0.12
339.511	0.09
339.721	0
339.931	0.01
340.141	0.12
340.351	0.16
340.561	0.02
340.77	0.06
340.98	0.06
341.19	0.13
341.4	0.08
341.609	0.03
341.819	0.04
342.029	0.01
342.238	0.09
342.448	0.03
342.658	0.09
342.867	0.07
343.077	0.07
343.286	0.08
343.496	0.07
343.706	0.1
343.915	0.01
344.125	0.03
344.334	0.08
344.544	0.01
344.753	0.08
344.963	0.05
345.172	0.07
345.381	0.03
345.591	0.04
345.8	0.03
346.01	0.14
346.219	0.1
346.428	-0.05
346.638	0.04
346.847	0.07
347.056	0.15
347.266	0.04
347.475	0.08
347.684	0.12
347.893	0.08
348.103	0.07
348.312	0.05
348.521	0.03
348.73	0.08
348.94	0.09
349.149	0.04
349.358	0.06
349.567	0.05
349.776	0.02
349.985	0.07
350.194	0.08
350.403	0.12
350.612	-0.01
350.821	0.03
351.03	0.05
351.239	-0.01
351.448	0.05
351.657	0.03
351.866	0.15
352.075	0.08
352.284	0.1
352.493	-0.03
352.702	0.13
352.911	0.1
353.12	0.06
353.329	0.06
353.538	0.06
353.746	0.08
353.955	0.07
354.164	0.07
354.373	0.06
354.582	0.08
354.79	0.08
354.999	0.07
355.208	0.08
355.416	0.15
355.625	0
355.834	0.04
356.042	0.1
356.251	0.05
356.46	0.04
356.668	0.1
356.877	0.14
357.085	0.12
357.294	-0.02
357.503	0.08
357.711	0.04
357.92	0.18
358.128	0.12
358.337	0.02
358.545	0.08
358.754	0.07
358.962	0.06
359.17	0.06
359.379	0.12
359.587	0.13
359.796	0.07
360.004	0.1
360.212	0.12
360.421	0.12
360.629	0.07
360.837	0.05
361.046	0.12
361.254	0.2
361.462	0.05
361.67	0.04
361.879	0.05
362.087	0.11
362.295	0.08
362.503	0.07
362.711	0.02
362.92	0.02
363.128	0.05
363.336	0.03
363.544	-0.01
363.752	0.05
363.96	0.01
364.168	0.05
364.376	0.08
364.584	0.11
364.792	0.09
365	0.08
365.208	0.08
365.416	0.11
365.624	0.12
365.832	0.07
366.04	0.17
366.248	0.12
366.456	0.09
366.664	0.09
366.872	0.07
367.079	0.05
367.287	0.11
367.495	0.11
367.703	0.06
367.911	0.08
368.118	0.08
368.326	0.03
368.534	0.03
368.742	0.11
368.949	0
369.157	0.06
369.365	0.1
369.572	0.05
369.78	0.07
369.988	0.15
370.195	0.11
370.403	0.11
370.61	0.06
370.818	0.09
371.026	0.14
371.233	0.05
371.441	0.1
371.648	0.06
371.856	0.13
372.063	0.12
372.271	0.06
372.478	0.05
372.685	0.07
372.893	0.12
373.1	0.11
373.308	0.03
373.515	0.18
373.722	0.15
373.93	0.06
374.137	0.14
374.344	0.16
374.552	0.12
374.759	0.12
374.966	0.04
375.173	0.06
375.381	0.13
375.588	0.07
375.795	0.04
376.002	0.1
376.209	0.06
376.417	0.08
376.624	0.08
376.831	0.11
377.038	0.09
377.245	0.03
377.452	0.06
377.659	0.08
377.866	0.09
378.073	0.06
378.28	0.08
378.487	0.14
378.694	0.13
378.901	0.07
379.108	0.12
379.315	0.14
379.522	0.22
379.729	0.06
379.936	0.13
380.143	0.1
380.35	0.09
380.557	0.08
380.763	0.13
380.97	0.08
381.177	0.11
381.384	0.13
381.591	0.11
381.797	0.09
382.004	0.12
382.211	0.14
382.418	0.08
382.624	0.14
382.831	0.14
383.038	0.08
383.244	0.11
383.451	0.1
383.658	0.14
383.864	0.1
384.071	0.05
384.277	0.18
384.484	0.08
384.69	0.15
384.897	0.08
385.103	0.11
385.31	0.08
385.516	0.07
385.723	0.05
385.929	0.12
386.136	0.12
386.342	0.11
386.549	0.1
386.755	0.19
386.961	0.13
387.168	0.1
387.374	0.12
387.58	0.16
387.787	0.18
387.993	0.16
388.199	0.11
388.406	0.1
388.612	0.15
388.818	0.11
389.024	0.09
389.231	0.14
389.437	0.22
389.643	0.2
389.849	0.13
390.055	0.17
390.261	0.18
390.467	0.15
390.674	0.1
390.88	0.12
391.086	0.16
391.292	0.12
391.498	0.24
391.704	0.19
391.91	0.18
392.116	0.17
392.322	0.11
392.528	0.19
392.734	0.18
392.94	0.19
393.146	0.21
393.352	0.22
393.557	0.18
393.763	0.23
393.969	0.26
394.175	0.18
394.381	0.23
394.587	0.21
394.792	0.25
394.998	0.31
395.204	0.33
395.41	0.21
395.615	0.29
395.821	0.31
396.027	0.34
396.233	0.27
396.438	0.3
396.644	0.42
396.85	0.35
397.055	0.36
397.261	0.4
397.466	0.44
397.672	0.41
397.878	0.41
398.083	0.46
398.289	0.43
398.494	0.53
398.7	0.47
398.905	0.4
399.111	0.59
399.316	0.47
399.522	0.55
399.727	0.56
399.932	0.56
400.138	0.56
400.343	0.65
400.549	0.62
400.754	0.65
400.959	0.73
401.165	0.75
401.37	0.77
401.575	0.9
401.78	0.79
401.986	0.83
402.191	0.88
402.396	0.96
402.601	1.05
402.807	1.06
403.012	1.02
403.217	1.2
403.422	1.15
403.627	1.26
403.832	1.29
404.037	1.36
404.243	1.47
404.448	1.43
404.653	1.5
404.858	1.64
405.063	1.68
405.268	1.71
405.473	1.72
405.678	1.86
405.883	2.12
406.088	2.1
406.293	2.06
406.498	2.22
406.703	2.3
406.907	2.39
407.112	2.48
407.317	2.68
407.522	2.83
407.727	2.91
407.932	3.01
408.136	3.32
408.341	3.24
408.546	3.39
408.751	3.54
408.956	3.72
409.16	3.99
409.365	4
409.57	4.13
409.774	4.23
409.979	4.45
410.184	4.64
410.388	4.73
410.593	5.03
410.798	5.19
411.002	5.47
411.207	5.68
411.411	5.94
411.616	5.98
411.82	6.36
412.025	6.49
412.229	6.75
412.434	7.06
412.638	7.24
412.843	7.47
413.047	7.62
413.252	7.86
413.456	8.39
413.66	8.49
413.865	8.67
414.069	8.85
414.273	9.31
414.478	9.49
414.682	9.81
414.886	10.12
415.091	10.23
415.295	10.54
415.499	11.12
415.703	11.17
415.908	11.8
416.112	11.78
416.316	12.37
416.52	12.8
416.724	12.89
416.929	13.34
417.133	14.03
417.337	13.88
417.541	14.5
417.745	14.84
417.949	14.96
418.153	15.6
418.357	15.76
418.561	16.45
418.765	16.57
418.969	16.86
419.173	17.72
419.377	17.8
419.581	18.38
419.785	18.78
419.989	18.97
420.193	19.7
420.397	19.8
420.601	20.11
420.804	20.5
421.008	20.54
421.212	20.83
421.416	20.46
421.62	20.62
421.823	20.75
422.027	20.53
422.231	20.42
422.435	20.21
422.638	20.04
422.842	20.32
423.046	20.58
423.249	20.81
423.453	20.47
423.657	20.58
423.86	20.75
424.064	20.81
424.268	20.59
424.471	20.35
424.675	20.55
424.878	20.32
425.082	20.45
425.285	20.96
425.489	19.98
425.692	19.97
425.896	19.42
426.099	19.41
426.303	19.44
426.506	19.25
426.71	19.02
426.913	19.05
427.116	18.73
427.32	18.26
427.523	17.81
427.726	18.04
427.93	17.68
428.133	17.66
428.336	17.43
428.54	17.31
428.743	16.93
428.946	16.78
429.149	16.2
429.353	15.53
429.556	15.32
429.759	14.69
429.962	14.46
430.165	14.08
430.368	12.94
430.571	12.62
430.775	12.2
430.978	11.64
431.181	11.34
431.384	11.03
431.587	10.68
431.79	10.71
431.993	10.39
432.196	10.25
432.399	10.33
432.602	9.98
432.805	9.78
433.008	9.94
433.211	9.52
433.414	9.46
433.616	9.2
433.819	8.73
434.022	8.6
434.225	8.45
434.428	8.12
434.631	8.17
434.833	7.75
435.036	7.65
435.239	7.68
435.442	7.34
435.645	7.27
435.847	7.14
436.05	6.94
436.253	6.97
436.455	6.65
436.658	6.33
436.861	6.43
437.063	6.19
437.266	5.92
437.468	5.95
437.671	6
437.874	5.72
438.076	5.36
438.279	5.42
438.481	5.35
438.684	5.34
438.886	5.08
439.089	4.98
439.291	4.81
439.494	4.86
439.696	4.66
439.899	4.71
440.101	4.67
440.303	4.55
440.506	4.63
440.708	4.4
440.91	4.34
441.113	4.15
441.315	4.14
441.517	3.89
441.72	3.93
441.922	3.65
442.124	3.57
442.326	3.53
442.529	3.45
442.731	3.35
442.933	3.33
443.135	3.13
443.337	2.95
443.539	2.95
443.742	2.82
443.944	2.92
444.146	2.64
444.348	2.69
444.55	2.54
444.752	2.54
444.954	2.35
445.156	2.36
445.358	2.29
445.56	2.39
445.762	2.21
445.964	2.21
446.166	2.12
446.368	2.01
446.57	2.08
446.772	2.02
446.974	1.77
447.175	1.89
447.377	1.77
447.579	1.78
447.781	1.65
447.983	1.75
448.184	1.61
448.386	1.64
448.588	1.4
448.79	1.49
448.991	1.51
449.193	1.53
449.395	1.4
449.597	1.42
449.798	1.34
450	1.32
450.202	1.27
450.403	1.28
450.605	1.32
450.806	1.23
451.008	1.15
451.21	1.2
451.411	1.09
451.613	1.06
451.814	1.05
452.016	1.12
452.217	1.03
452.419	1.09
452.62	0.98
452.821	1
453.023	1.04
453.224	1.01
453.426	0.99
453.627	0.91
453.828	0.89
454.03	0.83
454.231	0.92
454.432	0.86
454.634	0.92
454.835	0.83
455.036	0.8
455.238	0.87
455.439	0.78
455.64	0.74
455.841	0.67
456.042	0.88
456.244	0.75
456.445	0.66
456.646	0.62
456.847	0.67
457.048	0.72
457.249	0.7
457.45	0.91
457.651	0.58
457.852	0.69
458.054	0.59
458.255	0.53
458.456	0.64
458.657	0.59
458.858	0.47
459.058	0.56
459.259	0.56
459.46	0.54
459.661	0.46
459.862	0.66
460.063	0.49
460.264	0.54
460.465	0.45
460.666	0.58
460.866	0.47
461.067	0.43
461.268	0.46
461.469	0.36
461.67	0.41
461.87	0.39
462.071	0.38
462.272	0.4
462.473	0.41
462.673	0.43
462.874	0.33
463.075	0.44
463.275	0.36
463.476	0.4
463.676	0.42
463.877	0.36
464.078	0.38
464.278	0.41
464.479	0.34
464.679	0.34
464.88	0.37
465.08	0.4
465.281	0.34
465.481	0.28
465.682	0.31
465.882	0.34
466.083	0.39
466.283	0.33
466.483	0.3
466.684	0.26
466.884	0.22
467.085	0.28
467.285	0.36
467.485	0.27
467.686	0.28
467.886	0.25
468.086	0.28
468.286	0.26
468.487	0.25
468.687	0.23
468.887	0.27
469.087	0.28
469.287	0.23
469.488	0.17
469.688	0.28
469.888	0.28
470.088	0.29
470.288	0.28
470.488	0.26
470.688	0.15
470.888	0.2
471.088	0.17
471.288	0.28
471.488	0.23
471.688	0.24
471.888	0.22
472.088	0.26
472.288	0.27
472.488	0.16
472.688	0.22
472.888	0.18
473.088	0.19
473.288	0.2
473.488	0.19
473.688	0.26
473.887	0.16
474.087	0.14
474.287	0.22
474.487	0.15
474.687	0.21
474.886	0.2
475.086	0.22
475.286	0.19
475.486	0.2
475.685	0.17
475.885	0.15
476.085	0.18
476.284	0.19
476.484	0.21
476.684	0.17
476.883	0.26
477.083	0.18
477.282	0.14
477.482	0.23
477.681	0.24
477.881	0.14
478.08	0.13
478.28	0.12
478.479	0.17
478.679	0.23
478.878	0.11
479.078	0.11
479.277	0.12
479.477	0.14
479.676	0.15
479.875	0.13
480.075	0.06
480.274	0.13
480.473	0.13
480.673	0.12
480.872	0.15
481.071	0.14
481.271	0.13
481.47	0.11
481.669	0.1
481.868	0.08
482.067	0.09
482.267	0.07
482.466	0.07
482.665	0.1
482.864	0.09
483.063	0.08
483.262	0.14
483.461	0.14
483.661	0.13
483.86	0.11
484.059	0.11
484.258	0.13
484.457	0.11
484.656	0.12
484.855	0.14
485.054	0.07
485.253	0.07
485.452	0.08
485.651	0.08
485.849	0.1
486.048	0.03
486.247	0.08
486.446	0.12
486.645	0.04
486.844	0.07
487.043	0.07
487.241	0.12
487.44	0.05
487.639	0.06
487.838	0.1
488.037	0.09
488.235	0.15
488.434	0.08
488.633	0.06
488.831	0.08
489.03	0.12
489.229	0.08
489.427	0.08
489.626	0.14
489.825	0.12
490.023	0.1
490.222	0.04
490.42	0.1
490.619	0.1
490.817	0.07
491.016	0.06
491.214	0.1
491.413	0.06
491.611	0.06
491.81	0.09
492.008	0.11
492.207	0.12
492.405	0.08
492.604	0.03
492.802	0.05
493	0.07
493.199	0.06
493.397	0.08
493.595	0.08
493.794	0.06
493.992	0.11
494.19	0.06
494.388	0.08
494.587	0.07
494.785	0.09
494.983	0.01
495.181	0.08
495.379	0.05
495.578	0.07
495.776	0.08
495.974	0.08
496.172	0.08
496.37	0.04
496.568	0.04
496.766	0.03
496.964	0.09
497.162	0.08
497.36	0.03
497.558	0.08
497.756	0.09
497.954	0.05
498.152	0.05
498.35	0.06
498.548	0.06
498.746	0.05
498.944	0.02
499.142	0.07
499.34	0.02
499.538	0.04
499.736	0.02
499.933	0.09
500.131	0.07
500.329	0.06
500.527	0.09
500.725	0.1
500.922	0.08
501.12	0.05
501.318	0.05
501.516	0.02
501.713	0.05
501.911	0.04
502.109	0.03
502.306	0.08
502.504	0.04
502.701	0.03
502.899	0.08
503.097	0.11
503.294	0.06
503.492	0.05
503.689	0.07
503.887	0.06
504.084	0.11
504.282	0.06
504.479	0.03
504.677	0.07
504.874	0.04
505.072	0.05
505.269	0.05
505.466	0.07
505.664	0.04
505.861	0
506.059	0.04
506.256	0.07
506.453	0.02
506.651	0.08
506.848	0.07
507.045	0.06
507.242	0.06
507.44	0.04
507.637	0.04
507.834	0.05
508.031	0.11
508.229	0.03
508.426	0.05
508.623	0.09
508.82	0.03
509.017	0.01
509.214	0.06
509.411	0.06
509.608	0.02
509.805	0.05
510.003	0.03
510.2	0.02
510.397	0.08
510.594	0.02
510.791	0.05
510.988	0.04
511.184	0.08
511.381	0.07
511.578	0.02
511.775	0.07
511.972	0.02
512.169	0.06
512.366	0.04
512.563	0.07
512.76	0.02
512.956	0.07
513.153	0.01
513.35	0.04
513.547	0.02
513.744	0.03
513.94	0
514.137	0.06
514.334	0.08
514.53	0.04
514.727	0.05
514.924	0.09
515.12	0.03
515.317	0.02
515.514	0.02
515.71	0.02
515.907	0.05
516.103	0.05
516.3	0.03
516.497	0.07
516.693	0.08
516.89	0.04
517.086	0.01
517.283	0.04
517.479	0.03
517.676	0.04
517.872	0.03
518.068	0.03
518.265	0.04
518.461	0.02
518.658	0.01
518.854	0.05
519.05	0.02
519.247	0.02
519.443	0.05
519.639	0.03
519.836	0.04
520.032	0.04
520.228	0.03
520.424	0.08
520.621	0.06
520.817	0.03
521.013	0.07
521.209	0.03
521.405	0.08
521.601	0.04
521.798	0.06
521.994	0.08
522.19	0.02
522.386	0.02
522.582	0.03
522.778	0.05
522.974	0.02
523.17	0.05
523.366	0.06
523.562	0.1
523.758	0.02
523.954	0.01
524.15	0.02
524.346	0.06
524.542	0.02
524.738	-0
524.934	0.02
525.129	0.03
525.325	0.03
525.521	0.04
525.717	0.06
525.913	0.04
526.109	0.06
526.304	0.03
526.5	0.04
526.696	0.06
526.892	0.05
527.087	0.05
527.283	0.02
527.479	0.05
527.674	0.04
527.87	0.03
528.066	0.03
528.261	0.04
528.457	0.06
528.653	0.03
528.848	0.04
529.044	0.04
529.239	0.02
529.435	0.06
529.63	0.04
529.826	0.08
530.021	0.06
530.217	0.07
530.412	0.04
530.608	-0.01
530.803	0.02
530.999	0.03
531.194	-0
531.389	0.04
531.585	0
531.78	0.02
531.975	0.04
532.171	0.07
532.366	0.04
532.561	0.02
532.757	0
532.952	0.02
533.147	0.04
533.342	0.03
533.538	0.02
533.733	0.06
533.928	0.03
534.123	0.01
534.318	-0
534.513	0.01
534.709	0.04
534.904	0.01
535.099	0.02
535.294	0.03
535.489	0.02
535.684	0.01
535.879	0.02
536.074	0.05
536.269	0.01
536.464	0.04
536.659	0.04
536.854	0.02
537.049	0.02
537.244	0.01
537.439	0.02
537.634	0.04
537.828	0.04
538.023	0.01
538.218	-0
538.413	0.03
538.608	-0.01
538.803	0.06
538.997	-0
539.192	0.06
539.387	0.07
539.582	0.03
539.776	0.03
539.971	0.02
540.166	0.01
540.36	0
540.555	0.02
540.75	0.02
540.944	0.05
541.139	-0.01
541.334	0
541.528	0.05
541.723	0.04
541.917	0.02
542.112	-0.03
542.306	0.03
542.501	0.03
542.695	0.03
542.89	0
543.084	0.04
543.279	0.03
543.473	0.03
543.668	0.03
543.862	0.02
544.056	0.03
544.251	0
544.445	0.05
544.64	0.03
544.834	0.01
545.028	0.04
545.222	0.03
545.417	0.04
545.611	0.04
545.805	0.02
546	0.01
546.194	0.03
546.388	0.02
546.582	0.03
546.776	0.04
546.97	0.04
547.165	0.03
547.359	0.05
547.553	0.01
547.747	0.04
547.941	0.04
548.135	0.02
548.329	0.04
548.523	0.03
548.717	0.04
548.911	0.01
549.105	0.04
549.299	0.05
549.493	0.04
549.687	0.02
549.881	0.05
550.075	0.04
550.269	0
550.463	0.05
550.657	0.01
550.85	0.02
551.044	-0
551.238	0.03
551.432	0.01
551.626	0.01
551.82	0.05
552.013	-0
552.207	0.05
552.401	0.04
552.594	0.03
552.788	0.02
552.982	0.03
553.176	0.02
553.369	0.04
553.563	0.03
553.756	-0.03
553.95	0
554.144	0.01
554.337	0.07
554.531	0.04
554.724	0.03
554.918	0
555.111	0.05
555.305	0.02
555.498	0.07
555.692	0.05
555.885	0.03
556.079	0.02
556.272	-0
556.466	0.04
556.659	0.04
556.852	-0
557.046	0.01
557.239	0.04
557.432	-0.01
557.626	0.01
557.819	0.04
558.012	0.05
558.206	0.03
558.399	0.02
558.592	0.04
558.785	0.02
558.979	0.04
559.172	0.03
559.365	0.03
559.558	0.03
559.751	0.05
559.944	0.04
560.138	0.01
560.331	0.02
560.524	-0.02
560.717	0.01
560.91	0.01
561.103	0.05
561.296	0.04
561.489	0.04
561.682	0
561.875	0.06
562.068	0.04
562.261	0.04
562.454	0.06
562.647	0.06
562.84	0.06
563.032	-0.01
563.225	0.03
563.418	0.02
563.611	-0.01
563.804	0.04
563.997	-0
564.19	0
564.382	0.05
564.575	-0
564.768	0.02
564.961	0.01
565.153	0.04
565.346	0.04
565.539	0.05
565.731	0.03
565.924	0.05
566.117	0.06
566.309	0.02
566.502	0
566.695	0.02
566.887	0.04
567.08	-0.01
567.272	0.01
567.465	0.02
567.657	0.02
567.85	0.04
568.042	0.06
568.235	0.03
568.427	0.03
568.62	0.03
568.812	0.03
569.005	0.04
569.197	-0.02
569.389	0.03
569.582	0.03
569.774	0.04
569.966	-0.01
570.159	-0.01
570.351	0.04
570.543	0
570.736	0.04
570.928	0.01
571.12	0.04
571.312	0
571.505	-0.02
571.697	0.06
571.889	-0.01
572.081	-0.01
572.273	0
572.465	0.07
572.658	0.01
572.85	0.02
573.042	0.02
573.234	-0.02
573.426	0.07
573.618	-0.01
573.81	0.02
574.002	0.06
574.194	0.05
574.386	-0.01
574.578	-0.04
574.77	0.01
574.962	0.01
575.154	-0.01
575.346	0.01
575.538	0.02
575.729	-0.01
575.921	0
576.113	0.02
576.305	0.06
576.497	-0
576.689	0.01
576.88	-0
577.072	0.05
577.264	0.01
577.456	0.03
577.647	-0.05
577.839	0.02
578.031	0.07
578.223	-0.02
578.414	-0.01
578.606	0.04
578.798	-0
578.989	0.01
579.181	0.01
579.372	-0
579.564	-0.01
579.755	0.02
579.947	0.03
580.139	0.03
580.33	-0.04
580.522	0.01
580.713	-0.05
580.905	0.01
581.096	0.03
581.287	0.01
581.479	-0
581.67	0.03
581.862	0.04
582.053	0.01
582.244	-0.05
582.436	0.02
582.627	0.03
582.818	-0.01
583.01	-0.02
583.201	0.03
583.392	0.04
583.583	0.02
583.775	-0.01
583.966	0.01
584.157	0
584.348	-0.01
584.54	-0.01
584.731	0.03
584.922	0.04
585.113	-0.02
585.304	0.04
585.495	0.05
585.686	0.02
585.877	0.04
586.068	0.01
586.259	0.03
586.45	0.03
586.641	0.02
586.832	-0.05
587.023	0.02
587.214	-0.02
587.405	0.01
587.596	-0.02
587.787	0.04
587.978	-0.01
588.169	-0
588.36	-0.02
588.551	0.03
588.742	-0.01
588.932	0.04
589.123	0.01
589.314	0.04
589.505	0.02
589.696	0
589.886	-0
590.077	-0.03
590.268	0.02
590.458	0.01
590.649	-0.03
590.84	0.03
591.03	-0.02
591.221	-0.03
591.412	-0.01
591.602	0.04
591.793	0.06
591.984	-0.01
592.174	0.03
592.365	0.08
592.555	0
592.746	0.03
592.936	0.03
593.127	0.04
593.317	0.02
593.508	0
593.698	-0.01
593.889	0.01
594.079	0.04
594.269	0.01
594.46	0.02
594.65	0.03
594.84	0.01
595.031	-0.04
595.221	-0.01
595.411	-0.04
595.602	0.03
595.792	0
595.982	-0.01
596.172	0.05
596.363	0.01
596.553	0.02
596.743	0.01
596.933	-0
597.123	0.05
597.314	-0.03
597.504	0
597.694	0.06
597.884	0.04
598.074	0.02
598.264	-0.01
598.454	0.05
598.644	0.03
598.834	0.01
599.024	-0.05
599.214	-0.01
599.404	-0.01
599.594	0.01
599.784	-0.01
599.974	0.02
600.164	0.04
600.354	-0.02
600.544	-0.04
600.734	0.01
600.924	0.05
601.114	-0.01
601.303	0.04
601.493	0.02
601.683	0.01
601.873	0.01
602.063	-0.06
602.252	0.06
602.442	-0.03
602.632	-0.02
602.821	-0.02
603.011	0.03
603.201	0.01
603.39	-0.02
603.58	-0.03
603.77	0.02
603.959	0.04
604.149	0.03
604.339	0.01
604.528	0.02
604.718	0.03
604.907	-0.01
605.097	0.02
605.286	-0.02
605.476	0.04
605.665	0.04
605.855	0
606.044	0.04
606.234	0.04
606.423	-0
606.612	-0.04
606.802	0.01
606.991	0
607.181	0.02
607.37	-0.02
607.559	0.03
607.749	-0.03
607.938	0
608.127	0
608.316	-0.01
608.506	0.06
608.695	0.02
608.884	-0.01
609.073	0.03
609.263	0.05
609.452	0.04
609.641	0.03
609.83	0
610.019	0.01
610.208	-0.01
610.397	-0.03
610.586	0.05
610.775	-0.03
610.965	0.01
611.154	-0.02
611.343	0.03
611.532	0.02
611.721	-0.02
611.91	-0.01
612.099	0.05
612.287	0
612.476	-0.01
612.665	0.03
612.854	-0.01
613.043	0.04
613.232	-0.02
613.421	-0.03
613.61	-0.01
613.798	-0.02
613.987	0.05
614.176	-0.01
614.365	0.02
614.554	0
614.742	0.03
614.931	0
615.12	0.05
615.309	-0
615.497	0.03
615.686	-0.02
615.875	0.03
616.063	0.03
616.252	0.01
616.44	0.01
616.629	-0.01
616.818	0.06
617.006	-0.03
617.195	0
617.383	0.02
617.572	0.02
617.76	-0.01
617.949	0.01
618.137	0.05
618.326	0.1
618.514	-0.02
618.703	-0.04
618.891	0.05
619.079	-0.07
619.268	0.02
619.456	-0.02
619.644	0.06
619.833	-0.01
620.021	-0.03
620.209	-0.02
620.398	0.04
620.586	0.02
620.774	0.02
620.962	0.01
621.151	0.07
621.339	0.04
621.527	-0.04
621.715	-0.04
621.903	-0.05
622.092	-0.02
622.28	0.04
622.468	0.02
622.656	-0.01
622.844	0.03
623.032	-0.02
623.22	-0.04
623.408	0.01
623.596	0.02
623.784	0.02
623.972	-0.01
624.16	-0.01
624.348	0.06
624.536	0.01
624.724	-0.02
624.912	0.05
625.1	0.05
625.288	-0.05
625.476	-0.04
625.664	0.04
625.851	-0.01
626.039	0.03
626.227	0.01
626.415	-0.01
626.603	-0.07
626.79	0.04
626.978	0
627.166	0.03
627.354	0.03
627.541	-0.01
627.729	-0.06
627.917	0.05
628.104	0.04
628.292	0.02
628.48	-0.01
628.667	0.02
628.855	0.02
629.042	0
629.23	0.02
629.418	0.01
629.605	0
629.793	0.01
629.98	-0.03
630.168	0
630.355	0
630.543	0.01
630.73	-0.02
630.917	0.04
631.105	0.07
631.292	-0.04
631.48	0.01
631.667	0.08
631.854	0.02
632.042	0.01
632.229	-0.05
632.416	0.01
632.604	-0.01
632.791	-0.05
632.978	0.07
633.165	0.03
633.353	0.06
633.54	0.04
633.727	-0.08
633.914	-0.02
634.101	-0.07
634.289	0.04
634.476	-0.02
634.663	-0
634.85	-0
635.037	-0.05
635.224	-0.04
635.411	0.04
635.598	0.04
635.785	0.02
635.972	-0.02
636.159	0.04
636.346	-0.02
636.533	-0.01
636.72	0.01
636.907	-0.02
637.094	0.04
637.281	-0.01
637.468	0.06
637.655	-0.02
637.842	-0
638.029	-0.01
638.215	0.04
638.402	0.02
638.589	-0.02
638.776	-0
638.963	-0.02
639.149	0.02
639.336	0.06
639.523	-0.01
639.709	-0.03
639.896	0
640.083	0.09
640.27	0.03
640.456	-0.04
640.643	0.05
640.829	-0.05
641.016	-0
641.203	-0.04
641.389	0.05
641.576	0.04
641.762	-0.01
641.949	-0.03
642.135	0.01
642.322	0
642.508	-0.05
642.695	-0
642.881	-0
643.068	0.02
643.254	-0.01
643.441	0.06
643.627	0.01
643.813	-0.04
644	0.03
644.186	-0.01
644.372	0.01
644.559	0.05
644.745	-0.02
644.931	-0.03
645.118	-0.01
645.304	0
645.49	0.01
645.676	-0.02
645.862	0.01
646.049	0.04
646.235	0.01
646.421	0.06
646.607	0.09
646.793	-0.02
646.979	0.01
647.165	0.03
647.352	0.03
647.538	0.04
647.724	0.01
647.91	0.02
648.096	0.03
648.282	0.07
648.468	-0
648.654	0.01
648.84	0.03
649.026	0
649.212	-0
649.397	-0.03
649.583	-0.03
649.769	0.02
649.955	-0.01
650.141	0.02
650.327	0.05
650.513	0.01
650.698	0.06
650.884	-0.06
651.07	0.03
651.256	0.04
651.442	-0.01
651.627	-0.01
651.813	0.02
651.999	0
652.184	0.01
652.37	0
652.556	-0.02
652.741	0.05
652.927	-0.06
653.113	0.01
653.298	0.02
653.484	-0.03
653.669	-0.06
653.855	0.01
654.04	0.05
654.226	0.04
654.412	-0.03
654.597	-0.04
654.782	0.01
654.968	0.04
655.153	0.01
655.339	-0
655.524	-0.05
655.71	0.04
655.895	0.01
656.08	-0.02
656.266	0.04
656.451	0.01
656.636	-0.03
656.822	-0.03
657.007	0.01
657.192	-0.01
657.378	-0.08
657.563	0.02
657.748	0.04
657.933	-0
658.118	-0.02
658.304	-0.01
658.489	0.04
658.674	0.02
658.859	-0.02
659.044	0.03
659.229	0
659.414	-0.01
659.599	-0.01
659.785	-0.05
659.97	0.02
660.155	0.03
660.34	-0.01
660.525	-0.01
660.71	-0.02
660.895	0.04
661.08	0.02
661.264	-0.03
661.449	0.03
661.634	0.04
661.819	0.03
662.004	0.03
662.189	-0.09
662.374	0.01
662.559	-0.03
662.743	-0.04
662.928	-0.01
663.113	-0.01
663.298	-0.05
663.483	0.01
663.667	-0
663.852	-0.05
664.037	0.04
664.221	-0.01
664.406	0.04
664.591	0.02
664.775	0.02
664.96	0.01
665.145	0.03
665.329	0.06
665.514	-0.01
665.698	0
665.883	-0.06
666.068	0.06
666.252	-0.03
666.437	-0.08
666.621	0.01
666.806	0.05
666.99	-0.01
667.174	-0.03
667.359	0.05
667.543	-0.01
667.728	-0.02
667.912	-0.05
668.096	0.06
668.281	-0.01
668.465	0
668.649	-0.02
668.834	0
669.018	-0.01
669.202	-0.02
669.387	-0.01
669.571	0.04
669.755	-0.04
669.939	-0.01
670.124	0.01
670.308	0.06
670.492	0.05
670.676	0.02
670.86	0.03
671.044	-0.05
671.228	0.06
671.413	-0
671.597	-0.03
671.781	-0.03
671.965	0.04
672.149	-0.02
672.333	-0.03
672.517	-0.05
672.701	0.03
672.885	-0.02
673.069	-0.03
673.253	0.06
673.437	-0.01
673.621	-0.02
673.804	-0.01
673.988	0.05
674.172	0.05
674.356	-0.09
674.54	-0.03
674.724	0.1
674.908	0.02
675.091	0
675.275	-0.03
675.459	0.04
675.643	0.07
675.826	0.02
676.01	0.01
676.194	-0
676.377	0.04
676.561	0.02
676.745	-0.01
676.928	0.02
677.112	0.05
677.296	-0.02
677.479	-0.01
677.663	0
677.846	0.02
678.03	-0.01
678.213	-0.02
678.397	0.03
678.58	0.01
678.764	-0.02
678.947	-0.04
679.131	0.02
679.314	0.03
679.498	-0
679.681	0.05
679.865	0.07
680.048	-0.02
680.231	0.01
680.415	0.01
680.598	0.03
680.781	-0.03
680.965	-0.01
681.148	0.08
681.331	0.02
681.514	0.03
681.698	0
681.881	0.01
682.064	0.03
682.247	0.01
682.43	-0.06
682.614	0.01
682.797	0.05
682.98	0.04
683.163	-0.04
683.346	-0.01
683.529	-0.03
683.712	-0.03
683.895	0.02
684.078	-0.06
684.261	0.01
684.444	-0
684.627	0.02
684.81	-0.04
684.993	-0.03
685.176	-0.02
685.359	-0.04
685.542	-0.05
685.725	0.04
685.908	-0
686.091	-0.03
686.274	0.07
686.457	0.06
686.639	0.01
686.822	0.07
687.005	0.02
687.188	-0
687.371	0.14
687.553	0.01
687.736	0.06
687.919	0.1
688.102	0.1
688.284	-0.05
688.467	-0.01
688.65	-0.03
688.832	0.03
689.015	0.01
689.197	-0.02
689.38	0.1
689.563	0.07
689.745	-0.03
689.928	-0.03
690.11	-0.03
690.293	0.08
690.475	-0.07
690.658	-0.01
690.84	0.01
691.023	0.04
691.205	-0.02
691.388	0.01
691.57	0.07
691.752	0.04
691.935	-0.05
692.117	-0.03
692.3	0.04
692.482	0
692.664	-0.02
692.847	0.04
693.029	0.1
693.211	0.09
693.393	-0.02
693.576	-0.03
693.758	0.04
693.94	-0.01
694.122	-0.01
694.304	0.03
694.487	-0.05
694.669	0.06
694.851	-0.08
695.033	-0.02
695.215	-0.03
695.397	-0.02
695.579	0.02
695.761	-0.04
695.943	-0.02
696.125	0.06
696.308	0.06
696.49	-0.05
696.671	0.15
696.853	0.02
697.035	0.15
697.217	-0.04
697.399	0.07
697.581	-0
697.763	0.02
697.945	-0.02
698.127	0.07
698.309	0.05
698.491	0
698.672	0.01
698.854	0.09
699.036	0.08
699.218	-0.04
699.399	0.04
699.581	0.02
699.763	-0.02
699.945	-0.02
700.126	-0.05
700.308	0.01
700.49	-0
700.671	-0.07
700.853	-0.03
701.035	-0.04
701.216	0
701.398	-0.01
701.579	-0.05
701.761	0.09
701.943	0.02
702.124	-0.05
702.306	-0
702.487	0.13
702.669	0.02
702.85	0
703.031	-0.07
703.213	0.09
703.394	0.01
703.576	-0.01
703.757	0.11
703.938	0.08
704.12	0.14
704.301	-0.02
704.483	-0.01
704.664	-0.01
704.845	0.15
705.026	0.04
705.208	0.02
705.389	0.04
705.57	0
705.751	-0.09
705.933	-0.02
706.114	0.06
706.295	0.01
706.476	-0.03
706.657	0.13
706.838	0.04
707.02	0.06
707.201	-0.05
707.382	-0.07
707.563	0.03
707.744	0.04
707.925	-0.02
708.106	0.01
708.287	0.01
708.468	0.06
708.649	0
708.83	0.03
709.011	-0.02
709.192	-0
709.373	-0.11
709.554	0.01
709.734	-0.02
709.915	0.08
710.096	0.02
710.277	-0.02
710.458	0
710.639	0.06
710.819	-0.03
711	0
711.181	0.1
711.362	0.09
711.542	0.06
711.723	0.04
711.904	0.13
712.085	0.04
712.265	0.01
712.446	-0.06
712.627	-0.01
712.807	0.03
712.988	-0.03
713.168	-0.15
713.349	0.02
713.53	-0.14
713.71	-0.08
713.891	-0.07
714.071	-0.01
714.252	-0.01
714.432	-0.04
714.613	-0.13
714.793	-0.03
714.974	0.14
715.154	0.14
715.334	0.05
715.515	0.08
715.695	0.01
715.876	-0.03
716.056	-0.07
716.236	-0.01
716.417	0.01
716.597	-0.04
716.777	0.11
716.957	0
717.138	-0.03
717.318	-0
717.498	-0.05
717.678	0.08
717.859	0.04
718.039	-0.05
718.219	0.09
718.399	0.08
718.579	-0.05
718.759	-0.11
718.939	-0.02
719.12	0.09
719.3	0.02
719.48	-0.11
719.66	-0.11
719.84	0.09
720.02	0.01
720.2	-0.01
720.38	0
720.56	0.13
720.74	-0.07
720.92	-0
721.1	0.16
721.279	0.14
721.459	0.01
721.639	-0.04
721.819	-0.04
721.999	0.03
722.179	0.11
722.359	-0.1
722.538	-0.07
722.718	-0.01
722.898	-0.04
723.078	-0
723.257	-0.03
723.437	-0.01
723.617	-0.01
723.797	0.03
723.976	0.05
724.156	0.03
724.336	0.17
724.515	0.16
724.695	-0.11
724.874	-0.01
725.054	0.1
725.234	-0.1
725.413	-0.03
725.593	-0.01
725.772	-0.02
725.952	-0.01
726.131	-0.04
726.311	-0.03
726.49	-0.06
726.67	-0.07
726.849	-0.11
727.028	0.04
727.208	-0.02
727.387	-0.02
727.567	-0.02
727.746	-0.03
727.925	-0.06
728.105	-0.01
728.284	-0.05
728.463	-0.05
728.643	0.03
728.822	-0.16
729.001	-0
729.18	0.01
729.359	0.02
729.539	0.01
729.718	0.02
729.897	0.03
730.076	0.05
730.255	-0.09
730.434	0
730.614	0.05
730.793	0.19
730.972	-0.1
731.151	0.02
731.33	0.05
731.509	0.09
731.688	0.09
731.867	0.03
732.046	-0.15
732.225	0.22
732.404	-0.03
732.583	-0.11
732.762	0.05
732.941	-0
733.12	0.06
733.298	0.03
733.477	0.1
733.656	-0.08
733.835	-0.17
734.014	0.16
734.193	0.02
734.371	0.06
734.55	-0.04
734.729	-0.15
734.908	-0.01
735.086	-0.01
735.265	0.09
735.444	-0.16
735.623	-0.03
735.801	-0.11
735.98	0.02
736.159	0.07
736.337	0.1
736.516	-0.01
736.694	-0.05
736.873	-0.05
737.052	0.14
737.23	0.11
737.409	-0.09
737.587	0.17
737.766	-0.1
737.944	-0.07
738.123	0.02
738.301	0.09
738.479	0.01
738.658	0
738.836	-0.26
739.015	0.08
739.193	0.14
739.371	-0.09
739.55	0.02
739.728	-0.11
739.906	0.12
740.085	0.14
740.263	0.06
740.441	-0.07
740.62	0.23
740.798	0.1
740.976	-0.07
741.154	-0.06
741.332	0.13
741.511	-0.07
741.689	0.08
741.867	0.15
742.045	0.09
742.223	0.02
742.401	-0.1
742.579	-0.14
742.757	0.04
742.935	-0.06
743.114	-0.03
743.292	-0.01
743.47	-0.02
743.648	-0.03
743.826	-0.13
744.004	0.1
744.181	0.07
744.359	-0.07
744.537	0.02
744.715	-0.04
744.893	-0.05
745.071	-0.02
745.249	-0.01
745.427	-0.01
745.605	0.04
745.782	0.12
745.96	0.06
746.138	0.15
746.316	0.05
746.493	-0.02
746.671	0.06
746.849	0.07
747.027	0.21
747.204	-0.05
747.382	0.08
747.56	-0.11
747.737	-0.16
747.915	-0.08
748.093	0.09
748.27	-0.04
748.448	-0.13
748.625	-0.23
748.803	-0.13
748.98	0.05
749.158	0.07
749.335	0.08
749.513	-0.06
749.69	-0.07
749.868	-0.03
750.045	0.01
750.223	0.08
750.4	-0.26
750.578	0.15
750.755	-0.07
750.932	-0.19
751.11	0.06
751.287	-0.09
751.464	0.12
751.642	-0.13
751.819	0.04
751.996	0.14
752.173	0.09
752.351	-0.15
752.528	-0.03
752.705	-0.07
752.882	-0.06
753.06	0.02
753.237	0.07
753.414	0.19
753.591	0.18
753.768	0.02
753.945	-0.03
754.122	-0.12
754.299	0.1
754.476	-0.2
754.654	0
754.831	0.05
755.008	0.11
755.185	-0.04
755.362	-0.07
755.539	0.15
755.716	-0.08
755.892	-0.07
756.069	-0.03
756.246	-0.06
756.423	-0.11
756.6	0.2
756.777	0.02
756.954	0.17
757.131	0.01
757.307	-0.09
757.484	-0.16
757.661	0.06
757.838	0.07
758.015	-0.21
758.191	0.11
758.368	0.02
758.545	0.15
758.721	0.08
758.898	-0.23
759.075	-0.02
759.251	0.15
759.428	0.1
759.605	-0.02
759.781	-0.13
759.958	0.08
760.134	0.03
760.311	-0
760.488	0.23
760.664	0.1
760.841	-0.03
761.017	-0.05
761.194	0.09
761.37	0.15
761.547	0.17
761.723	-0.05
761.899	0.21
762.076	-0.15
762.252	-0.1
762.429	0.01
762.605	0
762.781	-0.02
762.958	0.13
763.134	-0.11
763.31	-0.01
763.486	0.07
763.663	-0.14
763.839	0.07
764.015	-0.18
764.191	-0.06
764.368	0.01
764.544	-0.03
764.72	0.04
764.896	0.08
765.072	0
765.248	-0.02
765.425	-0.09
765.601	0.03
765.777	0.07
765.953	-0.2
766.129	-0.06
766.305	-0.14
766.481	0.02
766.657	-0.01
766.833	0.18
767.009	-0.19
767.185	-0.06
767.361	0.11
767.537	-0.06
767.713	0.09
767.889	-0.16
768.065	-0.08
768.24	0.04
768.416	0.19
768.592	-0.1
768.768	0.01
768.944	0
769.12	-0.21
769.295	-0.08
769.471	0.03
769.647	0.04
769.823	0.14
769.998	-0.11
770.174	-0.08
770.35	0.28
770.525	0.27
770.701	0
770.877	-0.07
771.052	-0.06
771.228	-0.02
771.403	0.15
771.579	0.08
771.755	0.3
771.93	-0.15
772.106	-0.19
772.281	-0.19
772.457	0.06
772.632	0.14
772.808	-0.2
772.983	0.08
773.159	-0.29
773.334	0.31
773.509	0.01
773.685	-0.06
773.86	0.42
774.036	0.17
774.211	0.08
774.386	-0.06
774.562	0.02
774.737	0.18
774.912	-0.02
775.087	0.11
775.263	-0.01
775.438	-0.14
775.613	-0.04
775.788	-0.08
775.964	0.05
776.139	0.29
776.314	-0.18
776.489	-0.1
776.664	0.15
776.839	-0.1
777.014	0.13
777.19	0.03
777.365	0.27
777.54	0.1
777.715	-0.15
777.89	0.04
778.065	0
778.24	-0.12
778.415	0.04
778.59	-0.17
778.765	-0.17
778.94	0.1
779.115	-0.07
779.289	-0.05
779.464	0.06
779.639	0.08
779.814	-0.18
779.989	-0.24
780.164	0.16
780.339	0.13
780.513	-0.27
780.688	-0.31
780.863	0.11
781.038	0.14
781.212	-0.18
781.387	-0.05
781.562	0.45
781.737	-0.23
781.911	0.09
782.086	-0.02
782.261	-0.09
782.435	0.19
782.61	-0.08
782.784	0.11
782.959	0.19
783.134	-0.09
783.308	-0.09
783.483	0.03
783.657	0.41
783.832	0.28
784.006	-0.35
784.181	-0.01
784.355	0.08
784.53	-0.28
784.704	-0.18
784.878	0.19
785.053	-0.01
785.227	0.22
785.402	0.34
785.576	-0.13
785.75	-0.03
785.925	0.04
786.099	0.04
786.273	0.11
786.448	0.2
786.622	0.26
786.796	-0.01
786.97	-0.15
787.145	0.6
787.319	-0.26
787.493	-0.06
787.667	-0.34
787.841	-0.06
788.015	-0.05
788.19	0.01
788.364	-0.01
788.538	0.34
788.712	0.01
788.886	0.05
789.06	0.32
789.234	0.28
789.408	-0.24
789.582	-0.19
789.756	-0.16
789.93	-0.04
790.104	-0.07
790.278	-0.12
790.452	-0.34
790.626	0.17
790.8	-0.01
790.973	0.19
791.147	0.19
791.321	0.17
791.495	0.26
791.669	-0.06
791.843	0.37
792.016	0.27
792.19	0.5
792.364	-0.3
792.538	0.69
792.711	0.17
792.885	-0.06
793.059	-0.25
793.233	-0.63
793.406	0.3
793.58	-0.2
793.754	0.13
793.927	-0.04
794.101	0.42
794.274	-0.33
794.448	0.18
794.622	-0.06
794.795	0.27
794.969	-0.08
795.142	0.41
795.316	-0.12
795.489	-0.05
795.663	0.28
795.836	-0.06
796.009	-0.38
796.183	0.31
796.356	0.16
796.53	-0.16
796.703	-0.02
796.876	0.68
797.05	-0.07
797.223	-0.07
797.396	0.1
797.57	0.19
797.743	0.55
797.916	-0.08
798.09	-0.11
798.263	0.54
798.436	0.35
798.609	-0.12
798.782	-0.02
798.956	0.07
799.129	-0.17
799.302	-0.11
799.475	-0.12
799.648	-0.31
799.821	-0.02
799.994	0.2
800.167	-0.31
800.34	-0.1
800.514	0.17
800.687	-0.36
800.86	-0.21
801.033	0.04
801.206	-0.04
801.379	-0.38
801.551	0.02
801.724	0.17
801.897	0.6
802.07	-0.18
802.243	-0.34
802.416	-0.03
802.589	-0.1
802.762	-0.02
802.935	0.11
803.107	0.14
803.28	0.21
803.453	0.01
803.626	-0.16
803.798	0.2
803.971	-0.28
804.144	0.08
804.317	0.26
804.489	0.19
804.662	0
804.835	0.17
805.007	-0.3
805.18	0.53
805.353	0.15
805.525	-0.34
805.698	-0.29
805.87	0.17
806.043	0.03
806.215	-0.18
806.388	-0.27
806.56	-0.04
806.733	0.28
806.905	-0.03
807.078	-0.42
807.25	-0.24
807.423	0.05
807.595	-0.16
807.768	0.29
807.94	0.1
808.112	0.23
808.285	-0.15
808.457	-0.43
808.629	-0.19
808.802	0.18
808.974	-0.04
809.146	-0.1
809.318	-0.17
809.491	-0.18
809.663	0.24
809.835	0.03
810.007	0.15
810.18	0.13
810.352	-0.44
810.524	-0.39
810.696	0.05
810.868	0.43
811.04	0.18
811.212	-0.36
811.384	0.58
811.556	0.12
811.728	-0.05
811.901	0.94
812.073	-0.23
812.245	0.22
812.417	0.08
812.589	-0.66
812.76	0.16
812.932	0.2
813.104	0.35
813.276	-0.08
813.448	0.51
813.62	0.04
813.792	0.04
813.964	0.02
814.136	0.11
814.307	-0.23
814.479	-0.05
814.651	-0.05
814.823	0.96
814.995	0.23
815.166	0.07
815.338	-0.39
815.51	-0.32
815.681	0.64
815.853	0.01
816.025	-0.34
816.196	0.8
816.368	-0.06
816.54	-0.59
816.711	-0.55
816.883	-0.22
817.054	1.31
817.226	-0.61
817.398	0.25
817.569	0.17
817.741	-0.06
817.912	-0.07
818.084	-0.28
818.255	0.85
818.426	-0.28
818.598	-0.03
818.769	-0.15
818.941	0.25
819.112	0.52
819.283	0.26
819.455	-0.33
819.626	-0.1
819.798	0.15
819.969	0.17
820.14	-0.14
820.311	-0.39
820.483	0.14
820.654	0.39
820.825	-0.58
820.996	-0.31
821.168	-0.29
821.339	0.05
821.51	-0.3
821.681	-0.12
821.852	0.27
822.023	-0.83
822.195	-0.24
822.366	0.36
822.537	-0.08
822.708	-0.05
822.879	-0.26
823.05	0.04
823.221	0.05
823.392	0.3
823.563	0.1
823.734	0.17
823.905	0.02
824.076	-0.31
824.247	0.04
824.418	-0.66
824.589	0.78
824.759	-0.42
824.93	-0.37
825.101	-0.64
825.272	0.38
825.443	0.39
825.614	0.21
825.784	-0.75
825.955	1.38
826.126	0.27
826.297	-0.23
826.467	0.37
826.638	0.71
826.809	-0.82
826.98	-0.1
827.15	0.39
827.321	-0.28
827.492	0.1
827.662	0.24
827.833	0.86
828.003	0.84
828.174	-0.29
828.345	-0.45
828.515	0.68
828.686	-0.12
828.856	-0.15
829.027	0.14
829.197	0.13
829.368	0.44
829.538	-0.2
829.709	-0.61
829.879	-0.34
830.049	0.08
830.22	-0.62
830.39	0.06
830.56	0.19
830.731	-0.75
830.901	-1.06
831.072	0.26
831.242	0.65
831.412	0.25
831.582	0
831.753	-0.69
831.923	0.39
832.093	-0.38
832.263	0.05
832.434	-0.37
832.604	-0.72
832.774	0.05
832.944	-0.51
833.114	-0.65
833.284	0.55
833.454	-0.6
833.624	-0.04
833.795	0.15
833.965	0.42
834.135	0.81
834.305	-0.71
834.475	-0.45
834.645	0.42
834.815	-0.42
834.985	-0.77
835.155	-0.38
835.325	0.33
835.494	0.23
835.664	-0.31
835.834	-1.52
836.004	0.41
836.174	0.33
836.344	-0.03
836.514	-0.72
836.684	-0.29
836.853	-0.51
837.023	0.15
837.193	-0.49
837.363	0.69
837.532	0.59
837.702	-0.27
837.872	-0.34
838.041	0.23
838.211	0.8
838.381	-1.2
838.55	-1
838.72	1.37
838.89	0.89
839.059	0.38
839.229	-1.09
839.398	1
839.568	0.21
839.738	-0.2
839.907	0.47
840.077	0.24
840.246	-0.35
840.416	-0.43
840.585	-0.84
840.755	1.58
840.924	0.53
841.093	-0.74
841.263	-0.48
841.432	0.18
841.602	-1.08
841.771	-0.49
841.94	-0.35
842.11	1.75
842.279	1.66
842.448	-0.73
842.617	-0.04
842.787	1.15
842.956	-0.72
843.125	-0.19
843.294	-0.57
843.464	0.38
843.633	0.05
843.802	-1.62
843.971	-0.09
844.14	0.92
844.309	0.25
844.479	-0.85
844.648	-1.6
844.817	-0.77
844.986	-0.39
845.155	-0.67
845.324	-0.3
845.493	-0.95
845.662	-0.8
845.831	0.21
846	0.18
846.169	-0.33
846.338	0.97
846.507	0.28
846.676	0.61
846.844	0.16
847.013	1.17
847.182	-0.02
847.351	-0.32
847.52	1.18
847.689	-0.15
847.858	0.39
848.026	-0.99
848.195	-0.19
848.364	-0.39
848.533	-0.09
848.701	-0.11
848.87	-0.19
849.039	1
849.207	0.89
849.376	0.82
849.545	1.64
849.713	-0.89
849.882	-0.15
850.051	0.13
850.219	0.25
850.388	0.86
850.556	-1.26
850.725	-1.08
850.893	0.31
851.062	-0.27
851.23	0.16
851.399	-1.77
851.567	-0.25
851.736	-0.92
851.904	-0.61
852.073	-0.47
852.241	1.7
852.41	0.51
852.578	-0.6
852.746	-0.04
852.915	1.33
853.083	0.02
853.251	-1.49
853.42	-0.33
853.588	-0.36
853.756	2.65
853.924	-0.38
854.093	-0.3
854.261	0.2
854.429	-0.21
854.597	-0.32
854.765	-1.29
854.934	0.98
855.102	0.53
855.27	0.1
855.438	-0.2
855.606	0.73
855.774	0.77
855.942	-1.49
856.11	-1.7
856.278	0.72
856.446	0.68
856.614	-0.28
856.782	-0.2
856.95	0.75
857.118	0.48
857.286	1.01
857.454	-0.47
857.622	0.97
857.79	0.58
857.958	-0.44
858.126	-0.95
858.294	-1.53
858.462	-0.19
858.629	-0.55
858.797	-0.57
858.965	-0.06
859.133	0.28
859.301	0.23
859.468	1.74
859.636	-0.86
859.804	2.29
859.971	0.75
860.139	-1.36
860.307	0.42
860.474	0.61
860.642	-1.32
860.81	-0.75
860.977	-0.14
861.145	0.13
861.313	-1.94
861.48	-0.72
861.648	0.53
861.815	0.04
861.983	-1.37
862.15	-0.78
862.318	0.35
862.485	1.48
862.653	-1.22
862.82	-0.06
862.988	1.13
863.155	-2.68
863.322	-1.03
863.49	0.04
863.657	-0.67
863.824	2.13
863.992	0.08
864.159	0.15
864.326	3.86
864.494	-1.38
864.661	1.91
864.828	-1.71
864.996	1.82
865.163	2.03
865.33	-0.27
865.497	-2.09
865.664	-1.42
865.832	-1.79
865.999	-1.18
866.166	-0.16
866.333	-1
866.5	-0.67
866.667	0.48
866.834	-0.6
867.001	1.69
867.168	-1.17
867.335	0.56
867.502	-1.88
867.669	0.65
867.836	4.02
868.003	-0.28
868.17	0.64
868.337	-0.81
868.504	2.6
868.671	-2.62
868.838	-1.08
869.005	0.08
869.172	1.36
869.339	-0.31
869.505	-1.07
869.672	0.54
869.839	1.59
870.006	0
870.173	-1.09
870.339	0.82
870.506	2.15
870.673	0.78
870.84	1.55
871.006	-0.08
871.173	-0.75
871.34	-0.16
871.506	-2.5
871.673	1.38
871.839	-1.4
872.006	1.15
872.173	-0.87
872.339	1.21
872.506	1.33
872.672	-0.78
872.839	-0.91
873.005	0.6
873.172	4.47
873.338	1.17
873.505	-0.8
873.671	0.15
873.838	1.9
874.004	-2.14
874.171	-0.97
874.337	0.29
874.503	2.12
874.67	-2.24
874.836	-0.33
875.002	1.61
875.169	2.68
875.335	0.51
875.501	0.02
875.668	1.5
875.834	2.46
876	0
876.166	0.66
876.332	1.2
876.499	2.04
876.665	-0.96
876.831	-0.91
876.997	3.96
877.163	1.93
877.329	0.07
877.495	0.72
877.662	1.34
877.828	0.75
877.994	-1.36
878.16	-4.14
878.326	-1.07
878.492	0.17
878.658	-0.39
878.824	1.21
878.99	1.06
879.156	-1.28
879.322	3.4
879.487	-0.32
879.653	1.83
879.819	0.73
879.985	-0.95
880.151	0.34
880.317	0.69
880.483	0.38
880.648	1.79
880.814	-2.44
880.98	-1.29
881.146	-3.41
881.312	-0.58
881.477	-1.58
881.643	0.94
881.809	0.83
881.974	1.51
882.14	-2.18
882.306	-1.84
882.471	4.82
882.637	-1.6
882.803	0.77
882.968	3.18
883.134	2.71
883.299	-1.05
883.465	0.49
883.63	2.59
883.796	-1.96
883.961	2.43
884.127	1.9
884.292	-3.84
884.458	-2.34
884.623	-2.34
