Data from Apollo_Calib_20240827__AbsoluteIrradiance__360__05-09-03-142.txt Node

Date: Wed Aug 28 05:09:03 BST 2024
User: biology
Spectrometer: FLMT08252
Trigger mode: 0
Integration Time (sec): 5.000000E-1
Scans to average: 5
Electric dark correction enabled: true
Nonlinearity correction enabled: false
Boxcar width: 0
XAxis mode: Wavelengths
Number of Pixels in Spectrum: 3648
>>>>>Begin Spectral Data<<<<<
179.588	-0
179.809	-0
180.03	-0
180.251	-0
180.473	-0
180.694	0
180.915	0
181.136	-0
181.357	0
181.578	0
181.799	0
182.02	-0
182.241	0
182.462	-0
182.683	0
182.904	-0
183.125	-0
183.346	0
183.567	0
183.788	0
184.009	-0
184.23	0
184.451	0
184.672	0
184.892	-0
185.113	0
185.334	0
185.555	-0
185.776	0
185.996	0
186.217	0
186.438	0
186.659	-0
186.879	0
187.1	0
187.321	-0
187.541	0
187.762	0
187.983	0
188.203	0
188.424	0
188.644	0
188.865	0
189.086	0
189.306	0
189.527	0
189.747	0
189.968	0
190.188	0
190.409	0
190.629	0
190.849	0
191.07	0
191.29	0
191.511	0
191.731	-0
191.951	-0
192.172	0
192.392	0
192.612	0
192.833	0
193.053	0
193.273	0
193.493	0
193.714	-0
193.934	0
194.154	0
194.374	0
194.594	0
194.815	0
195.035	0
195.255	0
195.475	0
195.695	0
195.915	0
196.135	0
196.355	0
196.575	0
196.795	0
197.015	0
197.235	0
197.455	0
197.675	0
197.895	0
198.115	0
198.335	0
198.555	0
198.775	0
198.995	0
199.214	0
199.434	0
199.654	-0
199.874	0
200.094	1.45
200.313	0.96
200.533	0.61
200.753	-0.22
200.973	1.35
201.192	1.21
201.412	-0.04
201.632	0.47
201.851	1.35
202.071	-0.02
202.291	0.29
202.51	-0.23
202.73	0.91
202.95	0.24
203.169	-0.18
203.389	0.12
203.608	0.69
203.828	0.06
204.047	0.42
204.267	0.54
204.486	0.37
204.706	0.69
204.925	-0.04
205.145	0.26
205.364	0.86
205.583	1.35
205.803	0.07
206.022	-0.27
206.242	0.16
206.461	0.29
206.68	0.43
206.9	0.12
207.119	1.01
207.338	1.06
207.557	0.02
207.777	0.11
207.996	0.33
208.215	0.97
208.434	0.17
208.654	-0.1
208.873	0.44
209.092	0.87
209.311	0.24
209.53	0.3
209.749	0.14
209.968	0.19
210.187	0.16
210.407	-0.15
210.626	0.15
210.845	0.5
211.064	0.06
211.283	0.01
211.502	0.47
211.721	0.41
211.94	-0.01
212.159	0.5
212.377	0.4
212.596	0.45
212.815	0.16
213.034	0.25
213.253	0.38
213.472	0.3
213.691	0.29
213.91	-0.26
214.128	0.24
214.347	0.72
214.566	-0.14
214.785	-0.25
215.003	0.46
215.222	0.49
215.441	0.28
215.66	-0.13
215.878	0.21
216.097	0.33
216.316	-0.05
216.534	0.14
216.753	0.29
216.972	0.27
217.19	0.21
217.409	0.01
217.627	0.2
217.846	0.04
218.064	0.17
218.283	0.01
218.501	0.53
218.72	0.46
218.938	-0
219.157	0.04
219.375	0.55
219.594	0.39
219.812	-0.02
220.031	0.12
220.249	0.67
220.467	0.41
220.686	0.05
220.904	-0.21
221.122	-0.02
221.341	0.63
221.559	0.22
221.777	-0.02
221.995	0.31
222.214	0.26
222.432	0.01
222.65	0.21
222.868	0.17
223.086	0.2
223.305	0.27
223.523	0.13
223.741	0.38
223.959	0.27
224.177	-0.12
224.395	-0.02
224.613	0.13
224.831	0.19
225.049	-0.09
225.267	0.02
225.485	0.24
225.703	0.11
225.921	0.15
226.139	0.07
226.357	0.33
226.575	0.26
226.793	0.17
227.011	0.99
227.229	0.27
227.447	0.35
227.665	0.03
227.883	-0.01
228.1	0.27
228.318	0.38
228.536	-0.08
228.754	-0.02
228.972	0.19
229.189	0.24
229.407	0.08
229.625	0.13
229.843	0.32
230.06	0.34
230.278	-0.03
230.496	0.18
230.713	0.18
230.931	0.29
231.149	0.07
231.366	-0.08
231.584	0.14
231.801	0.45
232.019	0.05
232.236	-0
232.454	0.06
232.671	0.24
232.889	0.08
233.106	-0.02
233.324	0.26
233.541	0.06
233.759	0.12
233.976	0.08
234.194	0.11
234.411	0.12
234.628	0.05
234.846	0.07
235.063	0.19
235.28	0.05
235.498	0.21
235.715	-0.06
235.932	0.32
236.149	0.08
236.367	0.07
236.584	0.18
236.801	0.03
237.018	0.27
237.236	0.13
237.453	0.02
237.67	0.17
237.887	0.07
238.104	0.11
238.321	-0.02
238.538	-0.01
238.755	0.24
238.973	0.04
239.19	0.11
239.407	0.16
239.624	0.21
239.841	-0.01
240.058	0.05
240.275	0.16
240.492	0.17
240.709	0.2
240.925	0.04
241.142	0.09
241.359	-0.01
241.576	-0.06
241.793	0.15
242.01	0.12
242.227	0.31
242.444	0.19
242.66	0.23
242.877	0.13
243.094	0.05
243.311	0.17
243.527	0.08
243.744	0.2
243.961	0.24
244.178	-0
244.394	0.09
244.611	0.32
244.828	0.23
245.044	0.05
245.261	0.12
245.477	0.2
245.694	0.18
245.911	-0.03
246.127	0.18
246.344	0.27
246.56	0.23
246.777	0.06
246.993	0.2
247.21	0.11
247.426	0.3
247.643	-0.04
247.859	0.02
248.076	0.06
248.292	0.34
248.508	0.07
248.725	0.15
248.941	0.18
249.157	0.18
249.374	0.1
249.59	0.13
249.806	0.1
250.023	0.33
250.239	0.02
250.455	0.04
250.671	0.11
250.888	0.19
251.104	0.11
251.32	0.03
251.536	0.15
251.752	0.08
251.969	0.16
252.185	0.07
252.401	0.32
252.617	0.17
252.833	0.04
253.049	0.08
253.265	0.1
253.481	0.09
253.697	0.04
253.913	0.07
254.129	0.13
254.345	0.14
254.561	0.07
254.777	0.07
254.993	0.22
255.209	0.14
255.425	0.14
255.641	-0.02
255.857	0.21
256.073	0.13
256.288	-0.01
256.504	0.01
256.72	0.18
256.936	0.32
257.152	0.06
257.367	0.04
257.583	0.16
257.799	0.18
258.015	0.01
258.23	0.02
258.446	0.24
258.662	0.18
258.877	0.05
259.093	-0.01
259.309	0.11
259.524	0.16
259.74	0.04
259.955	0.07
260.171	0.13
260.387	0.09
260.602	0.17
260.818	0.18
261.033	0.04
261.249	0.06
261.464	0.09
261.68	-0
261.895	0.23
262.11	0.22
262.326	0.04
262.541	-0.01
262.757	0.22
262.972	0.18
263.187	0.14
263.403	0.15
263.618	0.21
263.833	0.1
264.049	0.07
264.264	0.06
264.479	0.18
264.694	0.18
264.91	0.03
265.125	0.07
265.34	0.21
265.555	0.26
265.77	0.14
265.986	0.03
266.201	0.2
266.416	0.28
266.631	0.11
266.846	0.12
267.061	0.21
267.276	0.18
267.491	0.01
267.706	0.15
267.921	0.23
268.136	0.16
268.351	0.09
268.566	0.01
268.781	0.23
268.996	0.13
269.211	0.11
269.426	0.03
269.641	0.06
269.856	0.22
270.071	0.03
270.285	0.07
270.5	0.14
270.715	0.18
270.93	0.15
271.145	0.13
271.359	0.18
271.574	0.08
271.789	0.07
272.004	0.08
272.218	0.06
272.433	0.18
272.648	0.06
272.862	0.15
273.077	0.13
273.292	0.12
273.506	0.05
273.721	0.03
273.936	0.17
274.15	0.19
274.365	0.05
274.579	0.16
274.794	0.13
275.008	0.18
275.223	0.01
275.437	0.09
275.652	0.21
275.866	0.14
276.081	0.08
276.295	0.19
276.509	0.07
276.724	0.1
276.938	0.08
277.153	0.08
277.367	0.15
277.581	0.08
277.796	0.06
278.01	0.08
278.224	0.18
278.438	0.25
278.653	0.03
278.867	0.03
279.081	-0.04
279.295	0.04
279.51	0.13
279.724	-0.01
279.938	0.19
280.152	0.13
280.366	0.06
280.58	0.14
280.794	0.16
281.008	0.12
281.222	0.14
281.437	0.23
281.651	0.15
281.865	0.2
282.079	0.08
282.293	0.01
282.507	0.03
282.721	0.08
282.935	0.1
283.148	-0.01
283.362	0.08
283.576	0.06
283.79	0.16
284.004	0.07
284.218	0.15
284.432	0.06
284.646	0.1
284.859	0.11
285.073	0.1
285.287	0.11
285.501	0.06
285.714	0.12
285.928	0.15
286.142	0.11
286.356	0.05
286.569	0.05
286.783	0.2
286.997	0.16
287.21	0.09
287.424	0.17
287.637	0.11
287.851	0.05
288.065	0.12
288.278	0.12
288.492	0.13
288.705	0.12
288.919	0.12
289.132	0.03
289.346	0.2
289.559	0.01
289.773	0.02
289.986	0.07
290.2	0.1
290.413	0.18
290.626	0.07
290.84	0.11
291.053	0.08
291.267	0.18
291.48	0.08
291.693	0.12
291.906	0.06
292.12	0.11
292.333	0.09
292.546	0.1
292.76	0.19
292.973	0.1
293.186	0.16
293.399	0.11
293.612	0.15
293.826	0.13
294.039	0.11
294.252	0.06
294.465	0.16
294.678	0.14
294.891	0.08
295.104	0.03
295.317	0.07
295.53	0.13
295.743	0.08
295.956	0.1
296.169	0.14
296.382	0.12
296.595	0.12
296.808	0.06
297.021	0.13
297.234	0.19
297.447	0.08
297.66	0.11
297.873	0.19
298.086	0.12
298.299	0.02
298.511	0.05
298.724	0.02
298.937	0.04
299.15	0.06
299.363	0.08
299.575	0.17
299.788	0.12
300.001	0.04
300.213	0.06
300.426	0.08
300.639	0.09
300.852	0.06
301.064	0.13
301.277	0.18
301.489	0.15
301.702	0.08
301.915	0.1
302.127	0.12
302.34	0.15
302.552	0.13
302.765	0.05
302.977	0.17
303.19	0.08
303.402	0.07
303.615	0.07
303.827	0.05
304.04	0.08
304.252	0.15
304.464	0.08
304.677	0.24
304.889	0.16
305.102	0.08
305.314	0.06
305.526	0.16
305.739	0.11
305.951	0.05
306.163	0.05
306.375	0.17
306.588	0.08
306.8	0.1
307.012	0.07
307.224	0.1
307.436	0.21
307.649	0.03
307.861	0.07
308.073	0.18
308.285	0.1
308.497	0.09
308.709	0.04
308.921	0.14
309.133	0.16
309.346	0.06
309.558	0.08
309.77	0.16
309.982	0.16
310.194	0.15
310.406	0.08
310.617	0.12
310.829	0.08
311.041	0.11
311.253	0.09
311.465	0.07
311.677	0.08
311.889	0.06
312.101	0.07
312.313	0.17
312.524	0.11
312.736	0.04
312.948	0.11
313.16	0.21
313.372	0.14
313.583	0.12
313.795	0.08
314.007	0.05
314.218	0.12
314.43	0.09
314.642	0.08
314.853	0.08
315.065	0.13
315.277	0.1
315.488	0.08
315.7	0.15
315.912	0.1
316.123	0.09
316.335	0.12
316.546	0.18
316.758	0.09
316.969	0.07
317.181	0.12
317.392	0.14
317.604	0.16
317.815	0.09
318.026	0.08
318.238	0.04
318.449	0.15
318.661	0.02
318.872	0.03
319.083	0.03
319.295	0.15
319.506	0.1
319.717	0.12
319.929	0.12
320.14	0.13
320.351	0.12
320.562	0.08
320.774	0.13
320.985	0.12
321.196	0.07
321.407	0.05
321.618	0.13
321.829	0.1
322.041	0.17
322.252	0.13
322.463	0.13
322.674	0.1
322.885	0.05
323.096	0.06
323.307	0.11
323.518	0.17
323.729	0.1
323.94	0.08
324.151	0.09
324.362	0.1
324.573	0.08
324.784	0.06
324.995	0.15
325.206	0.13
325.417	0.08
325.628	0.09
325.838	0.11
326.049	0.1
326.26	0.13
326.471	0.07
326.682	0.14
326.892	0.1
327.103	0
327.314	0.07
327.525	0.16
327.735	0.15
327.946	0.08
328.157	0.04
328.368	0.1
328.578	0.09
328.789	0.17
328.999	0.13
329.21	0.13
329.421	0.21
329.631	0.04
329.842	0.08
330.052	0.13
330.263	0.16
330.473	0.16
330.684	0.11
330.894	0.09
331.105	0.15
331.315	0.11
331.526	0.06
331.736	0.17
331.947	0.15
332.157	0.15
332.367	0.06
332.578	0.14
332.788	0.18
332.999	0.16
333.209	0.08
333.419	0.03
333.629	0.14
333.84	0.14
334.05	0.13
334.26	0.17
334.47	0.14
334.681	0.2
334.891	0.08
335.101	0.16
335.311	0.2
335.521	0.1
335.732	0.06
335.942	0.14
336.152	0.13
336.362	0.13
336.572	0.1
336.782	0.15
336.992	0.04
337.202	0.07
337.412	0.09
337.622	0.11
337.832	0.09
338.042	0.1
338.252	0.05
338.462	0.08
338.672	0.06
338.882	0.05
339.092	0.1
339.302	0.18
339.511	0.09
339.721	0.1
339.931	0.06
340.141	0.19
340.351	0.18
340.561	0.07
340.77	0.1
340.98	0.14
341.19	0.12
341.4	0.09
341.609	0.06
341.819	0.08
342.029	0.06
342.238	0.12
342.448	0.08
342.658	0.17
342.867	0.1
343.077	0.11
343.286	0.13
343.496	0.09
343.706	0.16
343.915	0.06
344.125	0.1
344.334	0.11
344.544	0.09
344.753	0.09
344.963	0.1
345.172	0.09
345.381	0.11
345.591	0.07
345.8	0.12
346.01	0.15
346.219	0.17
346.428	-0.04
346.638	0.1
346.847	0.1
347.056	0.22
347.266	0.1
347.475	0.11
347.684	0.11
347.893	0.11
348.103	0.09
348.312	0.07
348.521	0.11
348.73	0.14
348.94	0.12
349.149	0.08
349.358	0.07
349.567	0.09
349.776	0.05
349.985	0.08
350.194	0.13
350.403	0.15
350.612	0.02
350.821	0.12
351.03	0.07
351.239	0.07
351.448	0.14
351.657	0.09
351.866	0.19
352.075	0.08
352.284	0.13
352.493	0.06
352.702	0.16
352.911	0.13
353.12	0.11
353.329	0.07
353.538	0.11
353.746	0.13
353.955	0.08
354.164	0.12
354.373	0.09
354.582	0.12
354.79	0.09
354.999	0.12
355.208	0.11
355.416	0.15
355.625	0.04
355.834	0.11
356.042	0.13
356.251	0.09
356.46	0.07
356.668	0.1
356.877	0.2
357.085	0.14
357.294	0.05
357.503	0.11
357.711	0.11
357.92	0.24
358.128	0.09
358.337	0.08
358.545	0.12
358.754	0.06
358.962	0.12
359.17	0.1
359.379	0.13
359.587	0.12
359.796	0.15
360.004	0.19
360.212	0.18
360.421	0.15
360.629	0.1
360.837	0.11
361.046	0.17
361.254	0.23
361.462	0.1
361.67	0.08
361.879	0.12
362.087	0.16
362.295	0.08
362.503	0.08
362.711	0.03
362.92	0.05
363.128	0.1
363.336	0.09
363.544	0.04
363.752	0.06
363.96	0.1
364.168	0.08
364.376	0.12
364.584	0.13
364.792	0.13
365	0.13
365.208	0.11
365.416	0.09
365.624	0.15
365.832	0.05
366.04	0.2
366.248	0.14
366.456	0.08
366.664	0.09
366.872	0.12
367.079	0.07
367.287	0.11
367.495	0.11
367.703	0.08
367.911	0.12
368.118	0.09
368.326	0.09
368.534	0.05
368.742	0.15
368.949	0.06
369.157	0.07
369.365	0.13
369.572	0.09
369.78	0.08
369.988	0.13
370.195	0.15
370.403	0.15
370.61	0.08
370.818	0.12
371.026	0.19
371.233	0.05
371.441	0.13
371.648	0.1
371.856	0.15
372.063	0.14
372.271	0.1
372.478	0.07
372.685	0.12
372.893	0.15
373.1	0.08
373.308	0.11
373.515	0.18
373.722	0.14
373.93	0.09
374.137	0.1
374.344	0.18
374.552	0.15
374.759	0.15
374.966	0.1
375.173	0.1
375.381	0.15
375.588	0.09
375.795	0.05
376.002	0.07
376.209	0.1
376.417	0.08
376.624	0.11
376.831	0.14
377.038	0.12
377.245	0.04
377.452	0.12
377.659	0.11
377.866	0.1
378.073	0.13
378.28	0.11
378.487	0.13
378.694	0.15
378.901	0.1
379.108	0.1
379.315	0.14
379.522	0.22
379.729	0.14
379.936	0.13
380.143	0.13
380.35	0.13
380.557	0.08
380.763	0.11
380.97	0.11
381.177	0.16
381.384	0.16
381.591	0.13
381.797	0.14
382.004	0.16
382.211	0.16
382.418	0.12
382.624	0.18
382.831	0.18
383.038	0.09
383.244	0.13
383.451	0.1
383.658	0.15
383.864	0.12
384.071	0.09
384.277	0.2
384.484	0.09
384.69	0.12
384.897	0.09
385.103	0.11
385.31	0.1
385.516	0.12
385.723	0.11
385.929	0.16
386.136	0.07
386.342	0.18
386.549	0.11
386.755	0.18
386.961	0.16
387.168	0.11
387.374	0.14
387.58	0.15
387.787	0.12
387.993	0.13
388.199	0.09
388.406	0.07
388.612	0.11
388.818	0.09
389.024	0.08
389.231	0.15
389.437	0.22
389.643	0.15
389.849	0.12
390.055	0.15
390.261	0.13
390.467	0.16
390.674	0.06
390.88	0.13
391.086	0.17
391.292	0.08
391.498	0.17
391.704	0.19
391.91	0.11
392.116	0.13
392.322	0.07
392.528	0.15
392.734	0.11
392.94	0.15
393.146	0.12
393.352	0.16
393.557	0.13
393.763	0.15
393.969	0.15
394.175	0.15
394.381	0.15
394.587	0.11
394.792	0.13
394.998	0.19
395.204	0.18
395.41	0.13
395.615	0.17
395.821	0.16
396.027	0.18
396.233	0.11
396.438	0.16
396.644	0.22
396.85	0.21
397.055	0.13
397.261	0.19
397.466	0.16
397.672	0.17
397.878	0.2
398.083	0.15
398.289	0.11
398.494	0.17
398.7	0.21
398.905	0.11
399.111	0.25
399.316	0.12
399.522	0.14
399.727	0.16
399.932	0.15
400.138	0.14
400.343	0.24
400.549	0.16
400.754	0.15
400.959	0.21
401.165	0.17
401.37	0.18
401.575	0.27
401.78	0.17
401.986	0.14
402.191	0.17
402.396	0.22
402.601	0.17
402.807	0.16
403.012	0.19
403.217	0.26
403.422	0.14
403.627	0.22
403.832	0.18
404.037	0.23
404.243	0.24
404.448	0.2
404.653	0.2
404.858	0.22
405.063	0.25
405.268	0.17
405.473	0.16
405.678	0.22
405.883	0.34
406.088	0.25
406.293	0.16
406.498	0.21
406.703	0.3
406.907	0.22
407.112	0.2
407.317	0.22
407.522	0.27
407.727	0.22
407.932	0.26
408.136	0.35
408.341	0.25
408.546	0.22
408.751	0.33
408.956	0.28
409.16	0.37
409.365	0.32
409.57	0.27
409.774	0.37
409.979	0.33
410.184	0.35
410.388	0.32
410.593	0.4
410.798	0.36
411.002	0.35
411.207	0.41
411.411	0.43
411.616	0.34
411.82	0.41
412.025	0.46
412.229	0.45
412.434	0.46
412.638	0.44
412.843	0.46
413.047	0.46
413.252	0.46
413.456	0.48
413.66	0.58
413.865	0.54
414.069	0.65
414.273	0.54
414.478	0.56
414.682	0.59
414.886	0.65
415.091	0.61
415.295	0.62
415.499	0.77
415.703	0.7
415.908	0.76
416.112	0.73
416.316	0.86
416.52	0.88
416.724	0.83
416.929	0.92
417.133	1.08
417.337	0.93
417.541	1.02
417.745	1.09
417.949	1.14
418.153	1.09
418.357	1.14
418.561	1.34
418.765	1.33
418.969	1.41
419.173	1.41
419.377	1.42
419.581	1.6
419.785	1.61
419.989	1.55
420.193	1.75
420.397	1.81
420.601	1.85
420.804	1.98
421.008	1.98
421.212	2.05
421.416	2.11
421.62	2.1
421.823	2.12
422.027	2.38
422.231	2.35
422.435	2.33
422.638	2.36
422.842	2.51
423.046	2.55
423.249	2.76
423.453	2.73
423.657	2.95
423.86	3.02
424.064	3.16
424.268	3.28
424.471	3.31
424.675	3.42
424.878	3.56
425.082	3.72
425.285	3.93
425.489	3.9
425.692	3.95
425.896	4.04
426.099	4.29
426.303	4.42
426.506	4.49
426.71	4.8
426.913	5.03
427.116	5.11
427.32	5.2
427.523	5.4
427.726	5.63
427.93	5.76
428.133	6.03
428.336	6.1
428.54	6.29
428.743	6.63
428.946	6.88
429.149	6.85
429.353	6.97
429.556	7.08
429.759	7.16
429.962	7.35
430.165	7.64
430.368	7.31
430.571	7.36
430.775	7.49
430.978	7.53
431.181	7.59
431.384	7.76
431.587	7.79
431.79	8.16
431.993	8.2
432.196	8.48
432.399	9.03
432.602	9.04
432.805	9.24
433.008	9.9
433.211	9.74
433.414	10.18
433.616	10.13
433.819	10.16
434.022	10.41
434.225	10.6
434.428	10.65
434.631	11.08
434.833	11.03
435.036	11.39
435.239	11.64
435.442	11.65
435.645	11.9
435.847	12.08
436.05	12.4
436.253	12.79
436.455	12.85
436.658	12.82
436.861	13.24
437.063	13.49
437.266	13.46
437.468	13.95
437.671	14.33
437.874	14.48
438.076	14.45
438.279	15.2
438.481	15.21
438.684	16.08
438.886	15.83
439.089	16.38
439.291	16.5
439.494	17.15
439.696	17.41
439.899	18.33
440.101	18.82
440.303	19.13
440.506	20.29
440.708	20.1
440.91	20.63
441.113	20.93
441.315	21.57
441.517	21.37
441.72	22.31
441.922	21.97
442.124	22.02
442.326	22.94
442.529	23.2
442.731	23.61
442.933	23.87
443.135	23.93
443.337	24.11
443.539	25.12
443.742	24.84
443.944	26.11
444.146	25.78
444.348	25.87
444.55	26.09
444.752	26.51
444.954	26.83
445.156	26.87
445.358	27.52
445.56	28.09
445.762	28.1
445.964	28.61
446.166	28.6
446.368	28.73
446.57	28.83
446.772	28.4
446.974	28.15
447.175	28.76
447.377	28.65
447.579	29.24
447.781	28.99
447.983	28.68
448.184	28.04
448.386	28.72
448.588	28.17
448.79	28.07
448.991	28.77
449.193	28.89
449.395	27.77
449.597	27
449.798	27.24
450	26.43
450.202	26.36
450.403	26.31
450.605	26.2
450.806	25.66
451.008	25.42
451.21	24.85
451.411	24.26
451.613	23.1
451.814	23.53
452.016	23.47
452.217	22.19
452.419	22.2
452.62	21.58
452.821	21.03
453.023	20.91
453.224	20.2
453.426	19.43
453.627	18.07
453.828	18.41
454.03	18.35
454.231	18.43
454.432	18.14
454.634	17.59
454.835	17.14
455.036	17.08
455.238	16.26
455.439	15.86
455.64	15.23
455.841	15.01
456.042	15.09
456.244	14.77
456.445	14.25
456.646	13.74
456.847	13.62
457.048	13.36
457.249	13.31
457.45	12.78
457.651	12.17
457.852	11.85
458.054	11.4
458.255	11.31
458.456	11.31
458.657	11.22
458.858	10.53
459.058	10.2
459.259	10.29
459.46	9.98
459.661	9.88
459.862	9.78
460.063	9.75
460.264	9.53
460.465	9.08
460.666	9.12
460.866	8.76
461.067	8.26
461.268	8.4
461.469	8.26
461.67	8.07
461.87	7.76
462.071	7.75
462.272	7.66
462.473	7.56
462.673	7.72
462.874	7.58
463.075	7.47
463.275	7.34
463.476	7.41
463.676	7.23
463.877	7
464.078	7.02
464.278	7
464.479	6.72
464.679	6.55
464.88	6.45
465.08	6.43
465.281	6.16
465.481	5.82
465.682	5.58
465.882	5.56
466.083	5.44
466.283	5.3
466.483	5.03
466.684	4.8
466.884	4.62
467.085	4.74
467.285	4.72
467.485	4.54
467.686	4.31
467.886	4.24
468.086	4.04
468.286	4.02
468.487	4.01
468.687	3.81
468.887	3.72
469.087	3.91
469.287	3.66
469.488	3.43
469.688	3.52
469.888	3.51
470.088	3.44
470.288	3.28
470.488	3.16
470.688	2.95
470.888	2.96
471.088	2.74
471.288	2.83
471.488	2.77
471.688	2.72
471.888	2.62
472.088	2.73
472.288	2.52
472.488	2.46
472.688	2.4
472.888	2.41
473.088	2.34
473.288	2.24
473.488	2.23
473.688	2.33
473.887	2.14
474.087	2.05
474.287	2.03
474.487	1.96
474.687	2
474.886	1.89
475.086	1.9
475.286	1.84
475.486	1.74
475.685	1.7
475.885	1.65
476.085	1.72
476.284	1.67
476.484	1.64
476.684	1.61
476.883	1.61
477.083	1.55
477.282	1.46
477.482	1.47
477.681	1.4
477.881	1.35
478.08	1.31
478.28	1.29
478.479	1.33
478.679	1.33
478.878	1.24
479.078	1.19
479.277	1.21
479.477	1.15
479.676	1.18
479.875	1.13
480.075	1.06
480.274	1.1
480.473	1.1
480.673	1.04
480.872	1.06
481.071	1.01
481.271	1.03
481.47	0.93
481.669	0.95
481.868	0.92
482.067	0.88
482.267	0.85
482.466	0.83
482.665	0.8
482.864	0.76
483.063	0.81
483.262	0.83
483.461	0.8
483.661	0.78
483.86	0.75
484.059	0.73
484.258	0.75
484.457	0.67
484.656	0.68
484.855	0.71
485.054	0.6
485.253	0.61
485.452	0.59
485.651	0.62
485.849	0.6
486.048	0.53
486.247	0.52
486.446	0.56
486.645	0.52
486.844	0.51
487.043	0.52
487.241	0.53
487.44	0.48
487.639	0.49
487.838	0.49
488.037	0.45
488.235	0.53
488.434	0.45
488.633	0.38
488.831	0.43
489.03	0.47
489.229	0.39
489.427	0.39
489.626	0.44
489.825	0.46
490.023	0.37
490.222	0.39
490.42	0.37
490.619	0.38
490.817	0.35
491.016	0.32
491.214	0.36
491.413	0.33
491.611	0.33
491.81	0.3
492.008	0.32
492.207	0.32
492.405	0.28
492.604	0.25
492.802	0.27
493	0.31
493.199	0.26
493.397	0.28
493.595	0.27
493.794	0.24
493.992	0.31
494.19	0.27
494.388	0.29
494.587	0.23
494.785	0.23
494.983	0.18
495.181	0.22
495.379	0.21
495.578	0.23
495.776	0.24
495.974	0.24
496.172	0.2
496.37	0.22
496.568	0.19
496.766	0.18
496.964	0.24
497.162	0.21
497.36	0.15
497.558	0.21
497.756	0.21
497.954	0.18
498.152	0.16
498.35	0.19
498.548	0.17
498.746	0.18
498.944	0.14
499.142	0.16
499.34	0.11
499.538	0.17
499.736	0.14
499.933	0.19
500.131	0.18
500.329	0.18
500.527	0.2
500.725	0.18
500.922	0.21
501.12	0.17
501.318	0.15
501.516	0.11
501.713	0.15
501.911	0.12
502.109	0.11
502.306	0.16
502.504	0.13
502.701	0.1
502.899	0.13
503.097	0.18
503.294	0.14
503.492	0.12
503.689	0.11
503.887	0.14
504.084	0.17
504.282	0.15
504.479	0.08
504.677	0.13
504.874	0.11
505.072	0.1
505.269	0.12
505.466	0.13
505.664	0.15
505.861	0.09
506.059	0.11
506.256	0.12
506.453	0.1
506.651	0.16
506.848	0.13
507.045	0.13
507.242	0.13
507.44	0.11
507.637	0.11
507.834	0.1
508.031	0.13
508.229	0.09
508.426	0.11
508.623	0.12
508.82	0.09
509.017	0.07
509.214	0.08
509.411	0.11
509.608	0.07
509.805	0.08
510.003	0.06
510.2	0.08
510.397	0.11
510.594	0.08
510.791	0.08
510.988	0.08
511.184	0.11
511.381	0.08
511.578	0.07
511.775	0.11
511.972	0.06
512.169	0.07
512.366	0.09
512.563	0.14
512.76	0.05
512.956	0.09
513.153	0.06
513.35	0.08
513.547	0.06
513.744	0.05
513.94	0.04
514.137	0.11
514.334	0.1
514.53	0.05
514.727	0.09
514.924	0.14
515.12	0.07
515.317	0.05
515.514	0.05
515.71	0.06
515.907	0.08
516.103	0.07
516.3	0.09
516.497	0.1
516.693	0.12
516.89	0.09
517.086	0.05
517.283	0.12
517.479	0.08
517.676	0.06
517.872	0.07
518.068	0.07
518.265	0.05
518.461	0.05
518.658	0.04
518.854	0.09
519.05	0.07
519.247	0.05
519.443	0.1
519.639	0.08
519.836	0.08
520.032	0.07
520.228	0.07
520.424	0.12
520.621	0.08
520.817	0.06
521.013	0.09
521.209	0.08
521.405	0.11
521.601	0.07
521.798	0.06
521.994	0.12
522.19	0.05
522.386	0.03
522.582	0.06
522.778	0.07
522.974	0.06
523.17	0.07
523.366	0.07
523.562	0.09
523.758	0.07
523.954	0.03
524.15	0.04
524.346	0.09
524.542	0.06
524.738	0.03
524.934	0.06
525.129	0.04
525.325	0.07
525.521	0.06
525.717	0.09
525.913	0.07
526.109	0.06
526.304	0.05
526.5	0.08
526.696	0.08
526.892	0.04
527.087	0.03
527.283	0.04
527.479	0.07
527.674	0.04
527.87	0.05
528.066	0.06
528.261	0.07
528.457	0.1
528.653	0.04
528.848	0.04
529.044	0.08
529.239	0.06
529.435	0.08
529.63	0.04
529.826	0.09
530.021	0.06
530.217	0.08
530.412	0.04
530.608	0.05
530.803	0.05
530.999	0.05
531.194	0.03
531.389	0.05
531.585	0.01
531.78	0.04
531.975	0.07
532.171	0.08
532.366	0.06
532.561	0.05
532.757	0.05
532.952	0.03
533.147	0.07
533.342	0.05
533.538	0.03
533.733	0.07
533.928	0.05
534.123	0.05
534.318	0.02
534.513	0.07
534.709	0.04
534.904	0.04
535.099	0.03
535.294	0.05
535.489	0.06
535.684	0.05
535.879	0.01
536.074	0.06
536.269	0.01
536.464	0.06
536.659	0.06
536.854	0.05
537.049	0.07
537.244	0.06
537.439	0.05
537.634	0.08
537.828	0.05
538.023	0.06
538.218	0.03
538.413	0.04
538.608	0.01
538.803	0.07
538.997	0.02
539.192	0.07
539.387	0.08
539.582	0.06
539.776	0.05
539.971	0.05
540.166	0.04
540.36	-0
540.555	0.06
540.75	0.06
540.944	0.08
541.139	0.01
541.334	0.03
541.528	0.09
541.723	0.06
541.917	0.04
542.112	-0
542.306	0.04
542.501	0.04
542.695	0.06
542.89	0.02
543.084	0.07
543.279	0.04
543.473	0.04
543.668	0.03
543.862	0.06
544.056	0.06
544.251	0.05
544.445	0.08
544.64	0.02
544.834	0.01
545.028	0.06
545.222	0.07
545.417	0.06
545.611	0.05
545.805	0.05
546	0.01
546.194	0.03
546.388	0.02
546.582	0.06
546.776	0.06
546.97	0.08
547.165	0.06
547.359	0.06
547.553	0.02
547.747	0.06
547.941	0.03
548.135	0.04
548.329	0.08
548.523	0.06
548.717	0.04
548.911	0.02
549.105	0.04
549.299	0.07
549.493	0.08
549.687	0.06
549.881	0.04
550.075	0.06
550.269	0.03
550.463	0.07
550.657	0.03
550.85	0.04
551.044	0.05
551.238	0.04
551.432	0.02
551.626	0.02
551.82	0.05
552.013	0.03
552.207	0.04
552.401	0.05
552.594	0.05
552.788	0.04
552.982	0.05
553.176	0.02
553.369	0.06
553.563	0.05
553.756	0.02
553.95	0.04
554.144	0.04
554.337	0.07
554.531	0.06
554.724	0.05
554.918	0.01
555.111	0.08
555.305	0.04
555.498	0.09
555.692	0.05
555.885	0.05
556.079	0.04
556.272	0.04
556.466	0.07
556.659	0.06
556.852	0.03
557.046	0.02
557.239	0.08
557.432	0.01
557.626	0.04
557.819	0.04
558.012	0.07
558.206	0.06
558.399	0.04
558.592	0.04
558.785	0.03
558.979	0.05
559.172	0.03
559.365	0.04
559.558	0.04
559.751	0.03
559.944	0.04
560.138	0.03
560.331	0.04
560.524	0.01
560.717	0.04
560.91	0.03
561.103	0.04
561.296	0.07
561.489	0.04
561.682	0.05
561.875	0.06
562.068	0.06
562.261	0.04
562.454	0.09
562.647	0.07
562.84	0.05
563.032	0.03
563.225	0.06
563.418	0.05
563.611	0.04
563.804	0.06
563.997	0
564.19	0
564.382	0.05
564.575	0.05
564.768	0.02
564.961	0.02
565.153	0.03
565.346	0.06
565.539	0.06
565.731	0.08
565.924	0.09
566.117	0.05
566.309	0.05
566.502	0.01
566.695	0.03
566.887	0.05
567.08	0.02
567.272	0.02
567.465	0.03
567.657	0.03
567.85	0.05
568.042	0.07
568.235	0.08
568.427	0.04
568.62	0.05
568.812	0.06
569.005	0.03
569.197	0
569.389	0.04
569.582	0.06
569.774	0.05
569.966	0.02
570.159	-0.01
570.351	0.07
570.543	0.01
570.736	0.04
570.928	0
571.12	0.02
571.312	-0
571.505	0.01
571.697	0.08
571.889	0.02
572.081	0.04
572.273	0.02
572.465	0.07
572.658	0.02
572.85	0.06
573.042	0.05
573.234	0.03
573.426	0.07
573.618	0.03
573.81	0.05
574.002	0.07
574.194	0.07
574.386	-0.01
574.578	-0.04
574.77	-0
574.962	0.03
575.154	-0.02
575.346	0.03
575.538	0.05
575.729	-0.01
575.921	0.03
576.113	0.04
576.305	0.06
576.497	0.01
576.689	0.03
576.88	0.01
577.072	0.06
577.264	0.02
577.456	0.03
577.647	-0.02
577.839	0.01
578.031	0.06
578.223	0.01
578.414	0.01
578.606	0.05
578.798	0.04
578.989	0.01
579.181	0.03
579.372	0.03
579.564	0.01
579.755	0.03
579.947	0.04
580.139	0.05
580.33	0.01
580.522	0.02
580.713	-0.04
580.905	0.03
581.096	0.04
581.287	0.05
581.479	0.04
581.67	0.07
581.862	0.03
582.053	-0.02
582.244	-0
582.436	0.04
582.627	0.03
582.818	0.01
583.01	-0.01
583.201	0.07
583.392	0.05
583.583	0.04
583.775	0.03
583.966	0
584.157	0.03
584.348	0.01
584.54	0.01
584.731	0.03
584.922	0.03
585.113	0.01
585.304	0.06
585.495	0.06
585.686	0.04
585.877	0.06
586.068	0
586.259	0.05
586.45	0.05
586.641	-0
586.832	-0.03
587.023	0.02
587.214	0.03
587.405	0.05
587.596	0
587.787	0.07
587.978	0.03
588.169	-0.01
588.36	-0.01
588.551	0.04
588.742	0.02
588.932	0.04
589.123	0.02
589.314	0.06
589.505	0.02
589.696	0.06
589.886	-0.01
590.077	-0.01
590.268	0.03
590.458	-0.02
590.649	-0.02
590.84	0.05
591.03	0.01
591.221	0
591.412	-0
591.602	0.03
591.793	0.05
591.984	-0.02
592.174	0
592.365	0.11
592.555	0.02
592.746	0.05
592.936	0.04
593.127	0.04
593.317	0.02
593.508	0.03
593.698	-0
593.889	0.04
594.079	0.05
594.269	0.02
594.46	0.03
594.65	0.02
594.84	0.02
595.031	0
595.221	0.01
595.411	-0.02
595.602	0.05
595.792	0.04
595.982	0
596.172	0.08
596.363	0.03
596.553	0.04
596.743	0.01
596.933	0.04
597.123	0.09
597.314	0.02
597.504	0
597.694	0.06
597.884	0.04
598.074	0.01
598.264	0.03
598.454	0.05
598.644	0.03
598.834	0.04
599.024	-0.02
599.214	0.03
599.404	0.06
599.594	0.01
599.784	-0.01
599.974	0.07
600.164	0.04
600.354	0.01
600.544	-0.01
600.734	0.04
600.924	0.11
601.114	0.02
601.303	0.01
601.493	0.02
601.683	0
601.873	0.04
602.063	-0.05
602.252	0.06
602.442	-0.06
602.632	0.02
602.821	-0
603.011	0.04
603.201	0.01
603.39	-0
603.58	-0.01
603.77	0.04
603.959	0.03
604.149	0.02
604.339	0.01
604.528	0.06
604.718	0.06
604.907	0.02
605.097	0.02
605.286	-0.02
605.476	0.05
605.665	0.04
605.855	0.04
606.044	0.09
606.234	0.06
606.423	0.01
606.612	-0.02
606.802	0.05
606.991	0.05
607.181	0.03
607.37	-0.01
607.559	0.03
607.749	-0.01
607.938	0.04
608.127	0.01
608.316	0
608.506	0.05
608.695	0.03
608.884	0
609.073	0.03
609.263	0.05
609.452	0.03
609.641	0.03
609.83	0.01
610.019	0.04
610.208	0
610.397	0.05
610.586	0.09
610.775	0.03
610.965	0.01
611.154	0.01
611.343	0.05
611.532	0.03
611.721	-0.02
611.91	0.01
612.099	0.04
612.287	0.01
612.476	-0.02
612.665	0.04
612.854	-0.01
613.043	0.05
613.232	-0.01
613.421	-0.03
613.61	0.02
613.798	0.01
613.987	0.05
614.176	0
614.365	0.07
614.554	0.05
614.742	0.06
614.931	-0.01
615.12	0.06
615.309	0.01
615.497	0.04
615.686	0.01
615.875	0.02
616.063	0.02
616.252	-0.01
616.44	-0
616.629	0.02
616.818	0.04
617.006	0
617.195	-0
617.383	0.06
617.572	0.03
617.76	0.02
617.949	-0
618.137	0.02
618.326	0.06
618.514	0.01
618.703	0.02
618.891	0.09
619.079	-0.02
619.268	0.06
619.456	-0
619.644	0.09
619.833	0.02
620.021	-0
620.209	-0.03
620.398	0.06
620.586	0.02
620.774	0.06
620.962	0.01
621.151	0.08
621.339	0.02
621.527	-0.02
621.715	-0.04
621.903	-0.01
622.092	0.01
622.28	0.02
622.468	0.02
622.656	0.03
622.844	0.04
623.032	0.03
623.22	-0.03
623.408	0.06
623.596	0.02
623.784	0.03
623.972	-0
624.16	-0.01
624.348	0.08
624.536	-0
624.724	0.02
624.912	0.09
625.1	0.06
625.288	-0.01
625.476	-0.02
625.664	0.06
625.851	-0.01
626.039	0.01
626.227	0.05
626.415	0.01
626.603	-0.05
626.79	0
626.978	-0.01
627.166	0.03
627.354	0.03
627.541	-0.05
627.729	-0.05
627.917	0.02
628.104	0.11
628.292	0.06
628.48	0.03
628.667	0.01
628.855	0.01
629.042	0.05
629.23	-0.03
629.418	0.01
629.605	0
629.793	-0.01
629.98	-0
630.168	0.03
630.355	0.02
630.543	0.03
630.73	-0.01
630.917	0.03
631.105	0.07
631.292	-0.01
631.48	0.01
631.667	0.1
631.854	0.02
632.042	0.02
632.229	-0.05
632.416	0.02
632.604	-0
632.791	-0.02
632.978	0.04
633.165	0.04
633.353	0.1
633.54	0.06
633.727	-0.05
633.914	0.01
634.101	-0.06
634.289	0.06
634.476	-0.01
634.663	-0.01
634.85	0.03
635.037	-0.02
635.224	-0.01
635.411	0.05
635.598	0.08
635.785	0.01
635.972	0.01
636.159	0.04
636.346	-0.03
636.533	0.01
636.72	0.01
636.907	-0
637.094	0.07
637.281	0.03
637.468	0.03
637.655	0.03
637.842	0.01
638.029	-0
638.215	0.04
638.402	0.02
638.589	-0.01
638.776	-0.01
638.963	-0.02
639.149	0.07
639.336	0.1
639.523	0.03
639.709	0.01
639.896	-0.02
640.083	0.06
640.27	0.03
640.456	0.02
640.643	0.07
640.829	-0.02
641.016	0.05
641.203	-0.02
641.389	0.05
641.576	0.06
641.762	0.01
641.949	-0.02
642.135	0.03
642.322	0
642.508	-0.03
642.695	-0
642.881	0.03
643.068	0.04
643.254	0.04
643.441	0.04
643.627	0.01
643.813	-0
644	0.07
644.186	-0.02
644.372	0.04
644.559	0.05
644.745	0
644.931	-0.01
645.118	0.01
645.304	0.01
645.49	-0.01
645.676	0.03
645.862	0
646.049	0.07
646.235	0.03
646.421	0.12
646.607	0.08
646.793	-0.01
646.979	-0.01
647.165	0.04
647.352	0.05
647.538	0.09
647.724	0.01
647.91	0.04
648.096	0.04
648.282	0.05
648.468	0.01
648.654	0.05
648.84	0.04
649.026	0.03
649.212	0.05
649.397	-0.03
649.583	-0.02
649.769	0.03
649.955	0.02
650.141	0.03
650.327	0.08
650.513	-0.01
650.698	0.04
650.884	-0.05
651.07	0.06
651.256	0.02
651.442	0.01
651.627	0.03
651.813	0.04
651.999	0.02
652.184	0.01
652.37	0
652.556	-0.03
652.741	0.1
652.927	-0.06
653.113	0.02
653.298	0.04
653.484	-0.01
653.669	-0.04
653.855	0.02
654.04	0.07
654.226	0.03
654.412	0
654.597	-0.02
654.782	0.01
654.968	0.08
655.153	0.02
655.339	-0.02
655.524	-0.03
655.71	0.05
655.895	0.01
656.08	-0.02
656.266	0.04
656.451	0.03
656.636	-0.01
656.822	0.02
657.007	0.02
657.192	0.01
657.378	-0.05
657.563	0.03
657.748	0.05
657.933	0.06
658.118	0
658.304	0.02
658.489	0.04
658.674	0.05
658.859	-0
659.044	0.04
659.229	0.01
659.414	-0.01
659.599	0.01
659.785	-0.03
659.97	0.01
660.155	0.07
660.34	0.03
660.525	-0.01
660.71	-0.01
660.895	0.04
661.08	0.01
661.264	0.01
661.449	0.07
661.634	0.08
661.819	0.02
662.004	0.01
662.189	-0.07
662.374	-0
662.559	-0.01
662.743	-0.06
662.928	0.04
663.113	0.01
663.298	-0.04
663.483	-0
663.667	0.03
663.852	-0.02
664.037	0.07
664.221	0.01
664.406	0.01
664.591	0.05
664.775	0.05
664.96	0.01
665.145	0.03
665.329	0.04
665.514	0.02
665.698	0.01
665.883	-0.04
666.068	0.12
666.252	0.03
666.437	-0.05
666.621	0.01
666.806	0.06
666.99	0.04
667.174	-0.05
667.359	0.1
667.543	0.02
667.728	-0.01
667.912	-0.03
668.096	0.04
668.281	0.02
668.465	0.03
668.649	0.02
668.834	-0.01
669.018	0.01
669.202	-0.03
669.387	-0.02
669.571	0.07
669.755	-0.03
669.939	0.03
670.124	0.03
670.308	0.1
670.492	0.06
670.676	0.04
670.86	-0.01
671.044	-0.01
671.228	0.06
671.413	-0
671.597	-0.06
671.781	-0
671.965	0.06
672.149	0.02
672.333	0.03
672.517	-0.04
672.701	0.08
672.885	-0.01
673.069	-0.03
673.253	0.08
673.437	0.02
673.621	0
673.804	0.02
673.988	-0.01
674.172	-0
674.356	-0.03
674.54	-0.02
674.724	0.1
674.908	0.02
675.091	0.06
675.275	0.04
675.459	0.06
675.643	0.1
675.826	0.02
676.01	0.01
676.194	-0.02
676.377	0.08
676.561	0.06
676.745	0.03
676.928	0.05
677.112	0.07
677.296	-0.03
677.479	0
677.663	0.03
677.846	0.06
678.03	0.02
678.213	-0.02
678.397	0.03
678.58	-0.02
678.764	-0
678.947	-0.01
679.131	-0.02
679.314	0.03
679.498	0
679.681	0.06
679.865	0.08
680.048	0.02
680.231	0.03
680.415	0.02
680.598	-0.04
680.781	0.01
680.965	-0.02
681.148	0.04
681.331	-0.01
681.514	-0
681.698	0.03
681.881	0.05
682.064	0.07
682.247	0.03
682.43	-0.04
682.614	0.01
682.797	0.06
682.98	0.06
683.163	-0.02
683.346	0.02
683.529	-0.02
683.712	-0.02
683.895	0.03
684.078	-0.04
684.261	0.01
684.444	0.05
684.627	0.04
684.81	0
684.993	0.05
685.176	0.05
685.359	-0.03
685.542	0
685.725	0.06
685.908	0.03
686.091	-0
686.274	0.04
686.457	0.07
686.639	0.02
686.822	0.11
687.005	-0
687.188	0.08
687.371	0.09
687.553	0.05
687.736	0.05
687.919	0.09
688.102	0.09
688.284	-0.01
688.467	-0
688.65	0.02
688.832	-0.03
689.015	-0.01
689.197	-0.05
689.38	0.11
689.563	0.07
689.745	-0.02
689.928	-0.04
690.11	0.02
690.293	0.07
690.475	-0.01
690.658	0.03
690.84	0.03
691.023	0.02
691.205	-0.05
691.388	-0.01
691.57	0.06
691.752	0.03
691.935	-0.07
692.117	-0.04
692.3	0.08
692.482	0.01
692.664	0.03
692.847	0.05
693.029	0.12
693.211	0.05
693.393	0.02
693.576	0.03
693.758	0.01
693.94	-0.02
694.122	-0
694.304	0.01
694.487	-0.05
694.669	0.11
694.851	-0.06
695.033	0.05
695.215	0.02
695.397	-0.06
695.579	0.05
695.761	0.01
695.943	-0.02
696.125	0.11
696.308	0.04
696.49	-0.07
696.671	0.17
696.853	-0
697.035	0.17
697.217	0.07
697.399	0.07
697.581	-0.01
697.763	-0.02
697.945	-0.01
698.127	0.02
698.309	0.07
698.491	0.01
698.672	0.05
698.854	0.06
699.036	0.06
699.218	0.02
699.399	0.08
699.581	0.1
699.763	0.04
699.945	-0.02
700.126	-0.02
700.308	0.01
700.49	0.02
700.671	-0.06
700.853	0.02
701.035	-0.03
701.216	0.07
701.398	-0.02
701.579	-0.04
701.761	0.05
701.943	-0.02
702.124	-0.01
702.306	0.02
702.487	0.2
702.669	0.04
702.85	0.01
703.031	-0.04
703.213	0.15
703.394	0.1
703.576	0.01
703.757	0.1
703.938	0.06
704.12	0.17
704.301	0.02
704.483	0.04
704.664	0.02
704.845	0.1
705.026	0.06
705.208	0
705.389	0.06
705.57	0.05
705.751	0.02
705.933	0
706.114	0.11
706.295	-0.01
706.476	-0.05
706.657	0.11
706.838	0.1
707.02	0.1
707.201	-0.06
707.382	-0.01
707.563	0.11
707.744	-0.04
707.925	-0.05
708.106	-0.01
708.287	0.02
708.468	0.09
708.649	0.01
708.83	0.01
709.011	0.03
709.192	0.02
709.373	-0.09
709.554	-0.01
709.734	0.11
709.915	0.09
710.096	-0
710.277	-0.08
710.458	0.01
710.639	0.07
710.819	-0.08
711	0.01
711.181	0.06
711.362	0.09
711.542	0.04
711.723	0.03
711.904	0.07
712.085	0.06
712.265	0.08
712.446	-0.08
712.627	0.08
712.807	0.02
712.988	0.05
713.168	-0.04
713.349	0.06
713.53	-0.12
713.71	-0.03
713.891	-0.07
714.071	-0
714.252	-0.01
714.432	-0.05
714.613	-0.05
714.793	0.01
714.974	0.15
715.154	0.08
715.334	0.03
715.515	0.14
715.695	-0.04
715.876	0.07
716.056	-0.05
716.236	0
716.417	0.01
716.597	-0.04
716.777	0.17
716.957	0.05
717.138	0.02
717.318	0.06
717.498	-0.05
717.678	0.06
717.859	0.08
718.039	-0.04
718.219	0.07
718.399	0.09
718.579	-0.01
718.759	-0.04
718.939	-0
719.12	0.01
719.3	0.05
719.48	-0.12
719.66	-0.06
719.84	0.15
720.02	0.07
720.2	-0.06
720.38	0.02
720.56	0.13
720.74	-0
720.92	0.04
721.1	0.13
721.279	0.16
721.459	0.05
721.639	-0.07
721.819	0.04
721.999	0.02
722.179	0.03
722.359	-0.08
722.538	0.05
722.718	0.07
722.898	-0.02
723.078	0.01
723.257	-0
723.437	0.07
723.617	0.01
723.797	-0.05
723.976	-0
724.156	0.04
724.336	0.07
724.515	0.14
724.695	-0.12
724.874	0.02
725.054	0.12
725.234	-0.06
725.413	-0.01
725.593	-0.03
725.772	-0.04
725.952	0.02
726.131	0.01
726.311	0.05
726.49	0.06
726.67	-0.1
726.849	0.06
727.028	0.13
727.208	0.05
727.387	-0.01
727.567	-0.03
727.746	-0.03
727.925	-0.01
728.105	-0.07
728.284	0.01
728.463	0.03
728.643	0.08
728.822	-0.13
729.001	0.06
729.18	-0.06
729.359	0.08
729.539	-0.04
729.718	0.07
729.897	0.13
730.076	-0.03
730.255	-0.13
730.434	0.06
730.614	0.1
730.793	0.07
730.972	-0.05
731.151	0
731.33	0.11
731.509	0.01
731.688	0.03
731.867	0.05
732.046	-0.18
732.225	0.17
732.404	-0.09
732.583	-0.13
732.762	-0.07
732.941	0.07
733.12	0.05
733.298	0.04
733.477	0.11
733.656	0.05
733.835	0.01
734.014	0.07
734.193	0.08
734.371	0.02
734.55	0.02
734.729	-0.1
734.908	0.07
735.086	0
735.265	0.02
735.444	-0.05
735.623	-0.06
735.801	-0.02
735.98	0.07
736.159	-0.01
736.337	0.06
736.516	-0.01
736.694	0.03
736.873	0.03
737.052	0.06
737.23	0.21
737.409	-0.07
737.587	0.21
737.766	-0.1
737.944	0.02
738.123	0.05
738.301	0.07
738.479	0.04
738.658	0.09
738.836	-0.1
739.015	0.06
739.193	0.21
739.371	-0.06
739.55	0.03
739.728	-0.06
739.906	0.07
740.085	0.16
740.263	0.08
740.441	-0.03
740.62	0.23
740.798	0.21
740.976	-0.01
741.154	-0.04
741.332	0.22
741.511	-0.05
741.689	0.1
741.867	0.21
742.045	0.02
742.223	0.04
742.401	-0.12
742.579	-0.05
742.757	0.13
742.935	-0.07
743.114	0.03
743.292	0.04
743.47	-0.05
743.648	0.02
743.826	0.2
744.004	0.18
744.181	0.11
744.359	-0
744.537	0
744.715	-0.01
744.893	-0.06
745.071	0.01
745.249	-0.03
745.427	-0.02
745.605	0.12
745.782	0.08
745.96	0.1
746.138	0.03
746.316	0.2
746.493	0.08
746.671	0.02
746.849	0.07
747.027	0.13
747.204	-0.03
747.382	0.16
747.56	-0.09
747.737	0.13
747.915	-0.09
748.093	0.08
748.27	-0.09
748.448	0.11
748.625	-0.23
748.803	-0.11
748.98	0
749.158	0.12
749.335	0.1
749.513	0
749.69	0.03
749.868	0.01
750.045	0.05
750.223	-0.08
750.4	-0.12
750.578	0.2
750.755	0.05
750.932	-0.16
751.11	0.09
751.287	-0.11
751.464	0.18
751.642	-0.03
751.819	0.11
751.996	0.02
752.173	0.01
752.351	-0.08
752.528	0.16
752.705	-0.02
752.882	0.02
753.06	0.06
753.237	0.05
753.414	0.2
753.591	0.15
753.768	0.08
753.945	0
754.122	-0.11
754.299	0.12
754.476	0.03
754.654	0.02
754.831	0.12
755.008	0.1
755.185	-0.05
755.362	-0.13
755.539	0.05
755.716	-0.08
755.892	-0.05
756.069	-0.03
756.246	0.02
756.423	0.01
756.6	0.16
756.777	-0.01
756.954	0.11
757.131	0
757.307	-0.05
757.484	0.01
757.661	0.02
757.838	0.1
758.015	-0.07
758.191	0.16
758.368	0.15
758.545	0.32
758.721	0.06
758.898	-0.09
759.075	0.05
759.251	0.17
759.428	0.1
759.605	-0.11
759.781	-0.11
759.958	0.06
760.134	0.03
760.311	0.02
760.488	0.15
760.664	0.21
760.841	0.02
761.017	-0.22
761.194	0.14
761.37	0.11
761.547	0.1
761.723	-0.06
761.899	0.16
762.076	0.04
762.252	0.02
762.429	-0.09
762.605	0.19
762.781	0.15
762.958	0.08
763.134	0
763.31	0.02
763.486	0.17
763.663	-0.16
763.839	0.06
764.015	-0.05
764.191	0.03
764.368	0.04
764.544	-0.05
764.72	0.05
764.896	0.13
765.072	0.15
765.248	0.06
765.425	-0.06
765.601	0.09
765.777	0.05
765.953	-0.15
766.129	0.01
766.305	0.08
766.481	0.13
766.657	0.02
766.833	0.17
767.009	-0.02
767.185	-0.06
767.361	0.03
767.537	-0.02
767.713	0.25
767.889	-0.07
768.065	0.13
768.24	0.09
768.416	0.14
768.592	-0.1
768.768	-0.03
768.944	0.06
769.12	-0.18
769.295	0.08
769.471	0.06
769.647	0.13
769.823	0.22
769.998	-0.03
770.174	0.01
770.35	0.32
770.525	0.22
770.701	0.06
770.877	0.03
771.052	0.01
771.228	0.16
771.403	0.11
771.579	-0
771.755	0.21
771.93	-0.03
772.106	-0.22
772.281	-0.17
772.457	0.04
772.632	0.16
772.808	-0.13
772.983	-0.05
773.159	-0.18
773.334	0.21
773.509	0.02
773.685	-0.14
773.86	0.24
774.036	0.21
774.211	0.04
774.386	-0.13
774.562	0.11
774.737	0.17
774.912	0.01
775.087	0.22
775.263	0.09
775.438	0.06
775.613	-0.05
775.788	0.05
775.964	0.14
776.139	0.49
776.314	-0.1
776.489	0.16
776.664	0.19
776.839	-0.02
777.014	0.25
777.19	0.14
777.365	0.23
777.54	0.21
777.715	-0
777.89	0.19
778.065	0.02
778.24	0.03
778.415	0.19
778.59	-0.12
778.765	0.02
778.94	-0.09
779.115	0.03
779.289	-0.03
779.464	0.03
779.639	-0.06
779.814	-0.12
779.989	-0.17
780.164	0.25
780.339	0.12
780.513	0.02
780.688	-0.12
780.863	0.09
781.038	0.35
781.212	-0.06
781.387	-0.11
781.562	0.37
781.737	-0.15
781.911	0.14
782.086	0.03
782.261	0.03
782.435	0.33
782.61	-0.05
782.784	0.11
782.959	0.29
783.134	0.07
783.308	-0.12
783.483	-0.01
783.657	0.4
783.832	0.17
784.006	-0.29
784.181	0.16
784.355	0.14
784.53	-0.05
784.704	0.03
784.878	0.24
785.053	0.3
785.227	0.3
785.402	0.42
785.576	-0
785.75	-0.01
785.925	0.01
786.099	0.2
786.273	0.08
786.448	0.25
786.622	0.33
786.796	-0.02
786.97	0.12
787.145	0.75
787.319	-0.1
787.493	-0.21
787.667	-0.32
787.841	0.22
788.015	0.37
788.19	-0.01
788.364	-0
788.538	0.1
788.712	0.31
788.886	0.13
789.06	0.19
789.234	0.08
789.408	-0.11
789.582	-0.07
789.756	-0.07
789.93	0.09
790.104	-0.05
790.278	0.11
790.452	-0.14
790.626	0.13
790.8	-0.12
790.973	0.26
791.147	0.47
791.321	0.35
791.495	0.13
791.669	0.27
791.843	0.21
792.016	0.27
792.19	0.57
792.364	-0.07
792.538	0.53
792.711	0.35
792.885	-0.31
793.059	0.05
793.233	-0.2
793.406	0.23
793.58	0.11
793.754	0.2
793.927	0.04
794.101	0.64
794.274	0.12
794.448	0.33
794.622	-0.15
794.795	0.33
794.969	-0.11
795.142	0.39
795.316	-0.07
795.489	-0.02
795.663	0.56
795.836	0.24
796.009	-0.3
796.183	0.39
796.356	0.16
796.53	-0.05
796.703	0.05
796.876	0.54
797.05	-0.12
797.223	-0.29
797.396	0.15
797.57	0.09
797.743	0.41
797.916	0.03
798.09	0.11
798.263	0.47
798.436	0.19
798.609	-0.11
798.782	0.04
798.956	0.06
799.129	-0.08
799.302	0.23
799.475	-0.3
799.648	-0.23
799.821	0.02
799.994	-0.09
800.167	0.04
800.34	-0.15
800.514	-0.03
800.687	-0.14
800.86	-0.25
801.033	0.06
801.206	-0.02
801.379	-0.14
801.551	0.47
801.724	0.49
801.897	0.35
802.07	-0.21
802.243	-0.48
802.416	0.17
802.589	-0.22
802.762	0.15
802.935	-0.03
803.107	0.23
803.28	0.04
803.453	0.05
803.626	-0.07
803.798	0.15
803.971	0.08
804.144	-0.03
804.317	0.32
804.489	0.17
804.662	-0.08
804.835	0.24
805.007	0.03
805.18	0.34
805.353	0.19
805.525	-0.31
805.698	-0.04
805.87	-0.05
806.043	0.55
806.215	-0.33
806.388	-0.05
806.56	-0.05
806.733	0.52
806.905	-0.22
807.078	-0.08
807.25	-0.4
807.423	0.21
807.595	-0.25
807.768	0.1
807.94	0.59
808.112	0.36
808.285	0.03
808.457	-0.02
808.629	0.19
808.802	0.12
808.974	0.09
809.146	-0.26
809.318	-0.28
809.491	0.15
809.663	0.45
809.835	-0.04
810.007	0.03
810.18	0.3
810.352	-0.44
810.524	-0.09
810.696	0.34
810.868	0.68
811.04	0.11
811.212	-0.03
811.384	0.31
811.556	0.16
811.728	-0.29
811.901	0.83
812.073	0.16
812.245	0.32
812.417	0.24
812.589	-0.28
812.76	0.06
812.932	0.08
813.104	0.44
813.276	0.27
813.448	0.67
813.62	0.52
813.792	-0.35
813.964	-0.03
814.136	0.19
814.307	0.13
814.479	-0.32
814.651	0.01
814.823	0.82
814.995	0.11
815.166	0.04
815.338	0.07
815.51	-0.21
815.681	0.77
815.853	0.1
816.025	0
816.196	0.82
816.368	0.57
816.54	-0.15
816.711	-0.3
816.883	0.44
817.054	1.17
817.226	-0.45
817.398	0.51
817.569	-0.19
817.741	0.2
817.912	-0.29
818.084	0.32
818.255	0.4
818.426	-0.26
818.598	-0.53
818.769	-0.13
818.941	0.33
819.112	0.58
819.283	0.38
819.455	-0.26
819.626	0.15
819.798	0.48
819.969	-0.1
820.14	0.56
820.311	-0.03
820.483	0.28
820.654	0.32
820.825	0.29
820.996	-0.14
821.168	-0.19
821.339	0.21
821.51	-0.38
821.681	0.06
821.852	0.24
822.023	-0.5
822.195	-0.99
822.366	0.61
822.537	-0.23
822.708	0.36
822.879	-0.48
823.05	0.53
823.221	0.08
823.392	0.17
823.563	0.08
823.734	0.58
823.905	0.2
824.076	-0.19
824.247	-0.42
824.418	-0.16
824.589	0.31
824.759	0.12
824.93	-0.03
825.101	-0.94
825.272	0.69
825.443	0.6
825.614	0.75
825.784	-0.58
825.955	0.99
826.126	0.99
826.297	0.06
826.467	1.45
826.638	1.26
826.809	-0.64
826.98	-0.54
827.15	0.36
827.321	-0.07
827.492	0.83
827.662	-0.07
827.833	0.98
828.003	0.24
828.174	0.06
828.345	-0.82
828.515	1.22
828.686	-0.14
828.856	-0.15
829.027	-0.03
829.197	-0.23
829.368	0.61
829.538	-0.23
829.709	-0.4
829.879	0.17
830.049	-0.11
830.22	-0.59
830.39	0.15
830.56	0.88
830.731	-0.29
830.901	-0.7
831.072	0.08
831.242	0.66
831.412	0.57
831.582	0.29
831.753	-0.9
831.923	0.88
832.093	0.18
832.263	-0.26
832.434	-0.53
832.604	0.48
832.774	0.78
832.944	0.14
833.114	0.05
833.284	0.03
833.454	-0.28
833.624	-0.62
833.795	-0.5
833.965	0.49
834.135	0.59
834.305	-0.59
834.475	-0.59
834.645	0.48
834.815	-0.38
834.985	-0.4
835.155	0.08
835.325	0.35
835.494	1.07
835.664	0.07
835.834	-0.57
836.004	0.27
836.174	-0.05
836.344	0.1
836.514	-1
836.684	0.12
836.853	0.16
837.023	0.07
837.193	-0.71
837.363	1.29
837.532	0.26
837.702	0.05
837.872	-0.4
838.041	0.78
838.211	1.57
838.381	-0.42
838.55	0.09
838.72	2.53
838.89	0.91
839.059	-0.12
839.229	-0.68
839.398	1.18
839.568	0.39
839.738	-0.54
839.907	1.3
840.077	0.13
840.246	-0.63
840.416	-0.48
840.585	-0.47
840.755	1.35
840.924	0.71
841.093	-0.56
841.263	-0.3
841.432	-0.14
841.602	0.29
841.771	-1.47
841.94	-0.16
842.11	1.82
842.279	1.61
842.448	-0.66
842.617	-0.74
842.787	0.94
842.956	-0.65
843.125	-0.49
843.294	0.27
843.464	0.92
843.633	0.3
843.802	-0.68
843.971	-0.04
844.14	1.07
844.309	0.4
844.479	-0.36
844.648	-1.02
844.817	-0.58
844.986	0.1
845.155	-0.37
845.324	0.05
845.493	0.25
845.662	0.03
845.831	-0.22
846	-0.15
846.169	0.29
846.338	1.05
846.507	-0.5
846.676	0.37
846.844	-0.63
847.013	1.25
847.182	0.05
847.351	-0.47
847.52	-0.2
847.689	0.45
847.858	0.03
848.026	-0.28
848.195	-0.03
848.364	-0.46
848.533	-0.48
848.701	-0.77
848.87	0.51
849.039	1.06
849.207	1.02
849.376	1.55
849.545	0.85
849.713	-0.3
849.882	0.61
850.051	0.52
850.219	0.42
850.388	0.41
850.556	-0.16
850.725	0.16
850.893	0.6
851.062	-0.23
851.23	-0.1
851.399	-1.3
851.567	-0.37
851.736	-0.67
851.904	-1
852.073	0.08
852.241	1.17
852.41	0.37
852.578	-0.5
852.746	-1.06
852.915	0.82
853.083	-0.15
853.251	-1.16
853.42	-0.44
853.588	1.5
853.756	0.12
853.924	-0.6
854.093	-0.18
854.261	0.46
854.429	-0.87
854.597	0.69
854.765	-0.34
854.934	0.97
855.102	1.75
855.27	-1.55
855.438	0.39
855.606	2.07
855.774	2.5
855.942	-1.36
856.11	-1.99
856.278	0.14
856.446	0.86
856.614	-0.14
856.782	-0.42
856.95	0.86
857.118	0.5
857.286	1.19
857.454	-0.47
857.622	1.05
857.79	0.01
857.958	-0.52
858.126	0.2
858.294	-2.7
858.462	-0.06
858.629	-0.56
858.797	-0.97
858.965	-0.71
859.133	0.8
859.301	-1.1
859.468	0.26
859.636	-1.95
859.804	1.74
859.971	0.53
860.139	-0.87
860.307	2.45
860.474	0.34
860.642	-0.78
860.81	-0.41
860.977	0.33
861.145	1.16
861.313	-1.32
861.48	0.18
861.648	1.66
861.815	0.39
861.983	-2.02
862.15	-0.3
862.318	0.87
862.485	1.96
862.653	-1.01
862.82	-0.53
862.988	1.16
863.155	0.96
863.322	-0.92
863.49	-1.45
863.657	-0.96
863.824	1.52
863.992	0.81
864.159	-0.28
864.326	1.6
864.494	-0.23
864.661	3.58
864.828	-0.41
864.996	1.72
865.163	2.48
865.33	-1.64
865.497	-2.88
865.664	-0.75
865.832	0.2
865.999	-1.13
866.166	-1.07
866.333	-0.57
866.5	-0.18
866.667	0.82
866.834	-0.11
867.001	1.58
867.168	-1
867.335	-0.81
867.502	-1.8
867.669	0.38
867.836	1.77
868.003	0.37
868.17	1.74
868.337	-1.28
868.504	3.05
868.671	-2.78
868.838	-0.85
869.005	1.29
869.172	1.61
869.339	-1.38
869.505	-0.9
869.672	-0.01
869.839	0.88
870.006	-0.48
870.173	-1.66
870.339	0.86
870.506	2.73
870.673	-1.65
870.84	1.32
871.006	0.84
871.173	-1.3
871.34	0.01
871.506	-1.06
871.673	1.72
871.839	-0.12
872.006	0.86
872.173	0.72
872.339	1.97
872.506	2.78
872.672	0.28
872.839	-3.32
873.005	0.24
873.172	4.31
873.338	2.16
873.505	-0.84
873.671	-0.83
873.838	1.74
874.004	-2.2
874.171	-0.06
874.337	1.72
874.503	0.6
874.67	-0.14
874.836	-0.85
875.002	3.47
875.169	3
875.335	0.95
875.501	-0.36
875.668	1.74
875.834	-0.18
876	-1.84
876.166	2.59
876.332	0.34
876.499	3.69
876.665	-1.22
876.831	0.14
876.997	1.4
877.163	1.26
877.329	-1.4
877.495	0.09
877.662	2.58
877.828	2.41
877.994	-0.78
878.16	-1.82
878.326	-1.72
878.492	-0.75
878.658	1.77
878.824	1.53
878.99	1.26
879.156	-1.78
879.322	3.28
879.487	0.46
879.653	0.54
879.819	-0.23
879.985	-1.88
880.151	1.11
880.317	1.9
880.483	-0.59
880.648	2.83
880.814	-2.73
880.98	-0.64
881.146	-0.83
881.312	-1.54
881.477	0.26
881.643	2.08
881.809	2.16
881.974	0.69
882.14	-0.91
882.306	-0.01
882.471	3.38
882.637	-0.34
882.803	1.25
882.968	2.48
883.134	4.5
883.299	-0.16
883.465	1.82
883.63	1.78
883.796	0.46
883.961	-1.47
884.127	0.33
884.292	-4.61
884.458	-2.3
884.623	-2.29
