Data from Apollo_Calib_20240827__AbsoluteIrradiance__206__02-35-01-395.txt Node

Date: Wed Aug 28 02:35:01 BST 2024
User: biology
Spectrometer: FLMT08252
Trigger mode: 0
Integration Time (sec): 5.000000E-1
Scans to average: 5
Electric dark correction enabled: true
Nonlinearity correction enabled: false
Boxcar width: 0
XAxis mode: Wavelengths
Number of Pixels in Spectrum: 3648
>>>>>Begin Spectral Data<<<<<
179.588	-0
179.809	-0
180.03	-0
180.251	-0
180.473	-0
180.694	0
180.915	0
181.136	-0
181.357	0
181.578	-0
181.799	-0
182.02	-0
182.241	0
182.462	-0
182.683	0
182.904	-0
183.125	-0
183.346	0
183.567	0
183.788	0
184.009	-0
184.23	0
184.451	0
184.672	-0
184.892	-0
185.113	0
185.334	0
185.555	-0
185.776	-0
185.996	0
186.217	0
186.438	0
186.659	-0
186.879	0
187.1	-0
187.321	-0
187.541	-0
187.762	0
187.983	0
188.203	0
188.424	0
188.644	-0
188.865	0
189.086	-0
189.306	-0
189.527	-0
189.747	0
189.968	-0
190.188	0
190.409	0
190.629	0
190.849	-0
191.07	-0
191.29	0
191.511	0
191.731	-0
191.951	-0
192.172	0
192.392	0
192.612	0
192.833	0
193.053	0
193.273	0
193.493	0
193.714	0
193.934	0
194.154	0
194.374	0
194.594	0
194.815	0
195.035	0
195.255	0
195.475	-0
195.695	0
195.915	0
196.135	0
196.355	0
196.575	0
196.795	0
197.015	-0
197.235	-0
197.455	0
197.675	0
197.895	-0
198.115	-0
198.335	0
198.555	-0
198.775	0
198.995	0
199.214	0
199.434	0
199.654	-0
199.874	0
200.094	1.27
200.313	0.3
200.533	-0.32
200.753	-1.13
200.973	1.34
201.192	0.81
201.412	-0.11
201.632	-0.47
201.851	1.22
202.071	-0.18
202.291	-0.04
202.51	-0.55
202.73	0.29
202.95	-0
203.169	-0.29
203.389	0.17
203.608	0.14
203.828	-0.25
204.047	-0.35
204.267	0.69
204.486	0.35
204.706	0.53
204.925	0.09
205.145	-0.3
205.364	0.6
205.583	0.72
205.803	-0.33
206.022	-0.3
206.242	0.21
206.461	0.22
206.68	-0.52
206.9	0.33
207.119	0.93
207.338	1.03
207.557	-0.11
207.777	-0.07
207.996	0.02
208.215	0.4
208.434	-0.36
208.654	-0.28
208.873	0.15
209.092	0.7
209.311	0.08
209.53	-0.01
209.749	0.11
209.968	-0.12
210.187	0.18
210.407	-0.42
210.626	-0.13
210.845	0.28
211.064	0.1
211.283	-0.21
211.502	0.5
211.721	0.21
211.94	0.03
212.159	0.25
212.377	0.49
212.596	0.67
212.815	0.22
213.034	0.06
213.253	0.25
213.472	0.25
213.691	-0.09
213.91	-0.13
214.128	-0.13
214.347	0.41
214.566	-0.45
214.785	-0.39
215.003	0.35
215.222	0.34
215.441	0.08
215.66	-0.2
215.878	0.11
216.097	0.31
216.316	-0.14
216.534	-0.03
216.753	0.34
216.972	0.06
217.19	-0.02
217.409	-0.05
217.627	0.12
217.846	0.22
218.064	0.07
218.283	0.01
218.501	0.68
218.72	0.22
218.938	-0.13
219.157	-0.19
219.375	0.44
219.594	0.04
219.812	-0.06
220.031	-0.21
220.249	0.47
220.467	0.5
220.686	0.1
220.904	-0.28
221.122	0.06
221.341	0.43
221.559	0.13
221.777	-0.09
221.995	0.11
222.214	0.19
222.432	-0.09
222.65	0.24
222.868	0.31
223.086	0.12
223.305	0.43
223.523	0.06
223.741	0.4
223.959	0
224.177	-0.24
224.395	-0.05
224.613	0.03
224.831	0.1
225.049	-0.07
225.267	0.02
225.485	0.16
225.703	0.03
225.921	0.09
226.139	-0.15
226.357	0.12
226.575	0.05
226.793	-0
227.011	0.7
227.229	0.29
227.447	0.24
227.665	-0.02
227.883	-0.18
228.1	0.14
228.318	0
228.536	-0.18
228.754	0.03
228.972	0.26
229.189	0.2
229.407	-0.01
229.625	-0.06
229.843	0.21
230.06	0.11
230.278	-0.09
230.496	0.05
230.713	0.16
230.931	0.32
231.149	0.06
231.366	-0.21
231.584	0.1
231.801	0.45
232.019	0.03
232.236	-0.01
232.454	-0.09
232.671	0.17
232.889	-0.1
233.106	0.06
233.324	0.13
233.541	-0.03
233.759	0.02
233.976	-0
234.194	-0.04
234.411	-0.03
234.628	-0.02
234.846	-0.07
235.063	-0.02
235.28	0.09
235.498	0.08
235.715	0.04
235.932	0.16
236.149	0.03
236.367	-0.07
236.584	0.09
236.801	-0.04
237.018	0.23
237.236	0.14
237.453	-0.14
237.67	0.18
237.887	0.13
238.104	-0.08
238.321	-0.01
238.538	-0
238.755	0.12
238.973	-0.05
239.19	0.05
239.407	0.19
239.624	0.11
239.841	-0.17
240.058	-0.1
240.275	0.08
240.492	0.05
240.709	0.08
240.925	0.02
241.142	0.05
241.359	-0.13
241.576	-0.02
241.793	0.11
242.01	0.06
242.227	0.18
242.444	0.06
242.66	0.21
242.877	0.11
243.094	-0.04
243.311	0.08
243.527	0.07
243.744	0.06
243.961	0.13
244.178	0.02
244.394	0.01
244.611	0.12
244.828	0.28
245.044	-0
245.261	0.04
245.477	0.03
245.694	0.15
245.911	-0.01
246.127	0.04
246.344	0.2
246.56	0.19
246.777	0.01
246.993	-0.04
247.21	0.14
247.426	0.03
247.643	-0.02
247.859	-0.03
248.076	-0.1
248.292	0.23
248.508	0.01
248.725	0.08
248.941	0.04
249.157	0.21
249.374	-0.03
249.59	-0.02
249.806	0.06
250.023	0.13
250.239	-0.06
250.455	-0.08
250.671	0.07
250.888	0.08
251.104	0.11
251.32	0.03
251.536	0
251.752	0.05
251.969	0.04
252.185	0.16
252.401	0.24
252.617	0.08
252.833	0
253.049	0.08
253.265	0.12
253.481	0.07
253.697	-0.05
253.913	-0.03
254.129	0.04
254.345	0.08
254.561	-0.04
254.777	0.06
254.993	0.11
255.209	0.09
255.425	0.03
255.641	-0.02
255.857	0.07
256.073	0.04
256.288	-0.05
256.504	0.01
256.72	0.07
256.936	0.1
257.152	-0.01
257.367	-0.03
257.583	0.11
257.799	0.16
258.015	-0.02
258.23	-0.02
258.446	0.16
258.662	0.03
258.877	0
259.093	-0
259.309	0.12
259.524	0.08
259.74	-0.05
259.955	-0.04
260.171	0.09
260.387	0.03
260.602	0.13
260.818	0.04
261.033	-0.01
261.249	0.05
261.464	-0.02
261.68	-0.08
261.895	0.06
262.11	0.16
262.326	-0.01
262.541	-0.06
262.757	0.12
262.972	0.08
263.187	0
263.403	0.09
263.618	0.16
263.833	0.02
264.049	-0.01
264.264	0.02
264.479	0.12
264.694	0.17
264.91	-0.02
265.125	0.04
265.34	0.13
265.555	0.18
265.77	0.07
265.986	0.03
266.201	0.15
266.416	0.2
266.631	0.03
266.846	-0.01
267.061	0.06
267.276	0.15
267.491	-0.07
267.706	0.07
267.921	0.07
268.136	0.07
268.351	0.06
268.566	-0.06
268.781	0.13
268.996	0.1
269.211	0.03
269.426	-0.06
269.641	0.03
269.856	0.12
270.071	-0.05
270.285	-0.03
270.5	0.11
270.715	0.09
270.93	0.04
271.145	0.06
271.359	0.1
271.574	-0.03
271.789	0.02
272.004	0.03
272.218	0.08
272.433	0.07
272.648	-0.02
272.862	0.08
273.077	-0.01
273.292	-0.02
273.506	-0.06
273.721	0.03
273.936	0.05
274.15	0.11
274.365	0.01
274.579	0.09
274.794	0.1
275.008	0.08
275.223	-0.02
275.437	0.07
275.652	0.09
275.866	0.09
276.081	0.04
276.295	0.11
276.509	0.03
276.724	0.1
276.938	-0.03
277.153	0.02
277.367	0.11
277.581	-0.02
277.796	-0.01
278.01	0.01
278.224	0.09
278.438	0.19
278.653	0
278.867	-0.02
279.081	-0.11
279.295	-0.02
279.51	0.03
279.724	-0.03
279.938	0.09
280.152	0.09
280.366	0.06
280.58	0.04
280.794	0.15
281.008	0.06
281.222	0.09
281.437	0.17
281.651	0.06
281.865	0.08
282.079	0.03
282.293	-0.08
282.507	-0.01
282.721	0.07
282.935	0.02
283.148	-0.06
283.362	-0
283.576	0
283.79	0.01
284.004	-0.02
284.218	0.08
284.432	0.06
284.646	0.06
284.859	0.02
285.073	0.06
285.287	0.09
285.501	0.07
285.714	0.03
285.928	0.02
286.142	0.05
286.356	-0.02
286.569	0.02
286.783	0.09
286.997	0.15
287.21	0.07
287.424	0.04
287.637	0.05
287.851	-0
288.065	0.09
288.278	0.03
288.492	0.03
288.705	0.03
288.919	0.06
289.132	-0.02
289.346	0.09
289.559	-0.06
289.773	-0.04
289.986	0
290.2	0.02
290.413	0.08
290.626	-0.03
290.84	-0.01
291.053	0.04
291.267	0.11
291.48	0.04
291.693	0.04
291.906	0.01
292.12	0.04
292.333	0.03
292.546	0.03
292.76	0.1
292.973	0.03
293.186	0.05
293.399	0.01
293.612	0.13
293.826	0.03
294.039	0.04
294.252	0.02
294.465	0.11
294.678	0.08
294.891	0.07
295.104	-0.01
295.317	0.04
295.53	0.04
295.743	0.04
295.956	0.01
296.169	0.14
296.382	0.14
296.595	0.03
296.808	0.01
297.021	0.15
297.234	0.11
297.447	0.05
297.66	0.06
297.873	0.11
298.086	0.04
298.299	0.02
298.511	-0.03
298.724	0.02
298.937	0.01
299.15	-0
299.363	0.04
299.575	0.11
299.788	0.09
300.001	0.05
300.213	-0.04
300.426	0.04
300.639	0.03
300.852	0.04
301.064	0.1
301.277	0.15
301.489	0.09
301.702	0.09
301.915	0.08
302.127	0.04
302.34	0.07
302.552	0.06
302.765	0.04
302.977	0.08
303.19	0.01
303.402	0.04
303.615	0.06
303.827	0.03
304.04	0.04
304.252	0.09
304.464	0.02
304.677	0.14
304.889	0.05
305.102	-0.02
305.314	-0.01
305.526	0.09
305.739	0.08
305.951	-0
306.163	0
306.375	0.1
306.588	0.03
306.8	0.03
307.012	-0
307.224	0.1
307.436	0.08
307.649	-0.04
307.861	0.06
308.073	0.09
308.285	0.03
308.497	-0
308.709	0.02
308.921	0.04
309.133	0.1
309.346	0.06
309.558	0.03
309.77	0.08
309.982	0.13
310.194	0.1
310.406	0.02
310.617	0.11
310.829	0.07
311.041	0.05
311.253	0.01
311.465	0.03
311.677	0.04
311.889	0.03
312.101	0.01
312.313	0.1
312.524	0.07
312.736	0.01
312.948	0.06
313.16	0.16
313.372	0.09
313.583	0.04
313.795	0.06
314.007	0
314.218	0.05
314.43	0.08
314.642	0.03
314.853	-0.02
315.065	0.1
315.277	0.02
315.488	0.07
315.7	0.07
315.912	0.08
316.123	0.04
316.335	0.04
316.546	0.16
316.758	0.06
316.969	0.08
317.181	0.05
317.392	0.07
317.604	0.1
317.815	0.01
318.026	0.02
318.238	0.05
318.449	0.08
318.661	-0
318.872	-0.01
319.083	-0
319.295	0.05
319.506	-0.01
319.717	0.05
319.929	0.06
320.14	0.04
320.351	0.05
320.562	0.02
320.774	0.08
320.985	0.07
321.196	0.01
321.407	-0.03
321.618	0.07
321.829	0.11
322.041	0.09
322.252	0.08
322.463	0.06
322.674	0.13
322.885	0.02
323.096	0.03
323.307	0.04
323.518	0.06
323.729	0.02
323.94	0.01
324.151	0.08
324.362	0.05
324.573	0.09
324.784	0.02
324.995	0.11
325.206	0.04
325.417	0.04
325.628	0.05
325.838	0.07
326.049	0.09
326.26	0.08
326.471	0.05
326.682	0.07
326.892	0.02
327.103	-0.03
327.314	-0.02
327.525	0.08
327.735	0.06
327.946	0.04
328.157	0.02
328.368	0.06
328.578	0.07
328.789	0.05
328.999	0.08
329.21	0.05
329.421	0.09
329.631	-0.01
329.842	0.03
330.052	0.09
330.263	0.05
330.473	0.1
330.684	0.06
330.894	0.08
331.105	0.08
331.315	0.03
331.526	0.02
331.736	0.14
331.947	0.1
332.157	0.06
332.367	-0.04
332.578	0.1
332.788	0.17
332.999	0.05
333.209	0.07
333.419	-0.01
333.629	0.09
333.84	0.06
334.05	0.03
334.26	0.14
334.47	0.05
334.681	0.1
334.891	0.01
335.101	0.12
335.311	0.17
335.521	0.04
335.732	-0.01
335.942	0.11
336.152	0.13
336.362	0.08
336.572	0.07
336.782	0.1
336.992	0.03
337.202	-0.01
337.412	0.02
337.622	0.09
337.832	0.03
338.042	0.1
338.252	0
338.462	0.01
338.672	0.05
338.882	0.03
339.092	0.05
339.302	0.12
339.511	0.12
339.721	-0.01
339.931	0.03
340.141	0.1
340.351	0.13
340.561	0.06
340.77	0.05
340.98	0.09
341.19	0.03
341.4	0.03
341.609	0.03
341.819	0.04
342.029	0.02
342.238	0.05
342.448	0.02
342.658	0.09
342.867	0.05
343.077	0.07
343.286	0.05
343.496	0.07
343.706	0.14
343.915	0.03
344.125	0.04
344.334	0.06
344.544	0.01
344.753	0.05
344.963	0.03
345.172	0.05
345.381	0.02
345.591	-0.01
345.8	0.03
346.01	0.11
346.219	0.11
346.428	-0.07
346.638	0.08
346.847	0.08
347.056	0.13
347.266	0.03
347.475	0.06
347.684	0.08
347.893	0.06
348.103	0.09
348.312	0.05
348.521	0.03
348.73	0.09
348.94	0.04
349.149	0.07
349.358	0.03
349.567	-0
349.776	0.01
349.985	0.02
350.194	0.09
350.403	0.12
350.612	0
350.821	0.04
351.03	0.05
351.239	0
351.448	0.07
351.657	0.06
351.866	0.11
352.075	0.06
352.284	0.02
352.493	0.01
352.702	0.11
352.911	0.06
353.12	0.06
353.329	0.03
353.538	0.11
353.746	0.05
353.955	0.03
354.164	0.09
354.373	0.05
354.582	0.1
354.79	0.07
354.999	0.13
355.208	0.05
355.416	0.1
355.625	0.01
355.834	0.02
356.042	0.08
356.251	0.02
356.46	0.03
356.668	0.07
356.877	0.17
357.085	0.1
357.294	-0.03
357.503	0.05
357.711	0.08
357.92	0.24
358.128	0.06
358.337	0.06
358.545	0.08
358.754	0.04
358.962	0.11
359.17	0.07
359.379	0.06
359.587	0.06
359.796	0.07
360.004	0.07
360.212	0.08
360.421	0.11
360.629	0.07
360.837	0.05
361.046	0.08
361.254	0.2
361.462	0.09
361.67	0.06
361.879	0.06
362.087	0.15
362.295	0.07
362.503	0.06
362.711	0.02
362.92	0.03
363.128	0.06
363.336	0.01
363.544	-0.01
363.752	0.13
363.96	0.06
364.168	0.02
364.376	0.07
364.584	0.06
364.792	0.1
365	0.1
365.208	0.11
365.416	0.11
365.624	0.13
365.832	0.03
366.04	0.14
366.248	0.12
366.456	0.08
366.664	0.11
366.872	0.1
367.079	0.05
367.287	0.08
367.495	0.11
367.703	0.09
367.911	0.06
368.118	0.06
368.326	0.1
368.534	0.04
368.742	0.15
368.949	0.07
369.157	0.04
369.365	0.07
369.572	0.04
369.78	0.04
369.988	0.1
370.195	0.13
370.403	0.12
370.61	0.11
370.818	0.07
371.026	0.16
371.233	0.05
371.441	0.09
371.648	0.04
371.856	0.09
372.063	0.13
372.271	0.09
372.478	0.12
372.685	0.07
372.893	0.15
373.1	0.08
373.308	0.06
373.515	0.19
373.722	0.14
373.93	0.09
374.137	0.11
374.344	0.17
374.552	0.15
374.759	0.13
374.966	0.12
375.173	0.1
375.381	0.14
375.588	0.11
375.795	0.04
376.002	0.08
376.209	0.08
376.417	0.13
376.624	0.13
376.831	0.11
377.038	0.09
377.245	0.07
377.452	0.08
377.659	0.11
377.866	0.08
378.073	0.09
378.28	0.15
378.487	0.19
378.694	0.14
378.901	0.12
379.108	0.1
379.315	0.15
379.522	0.24
379.729	0.18
379.936	0.11
380.143	0.16
380.35	0.14
380.557	0.11
380.763	0.14
380.97	0.14
381.177	0.14
381.384	0.18
381.591	0.15
381.797	0.16
382.004	0.22
382.211	0.22
382.418	0.11
382.624	0.23
382.831	0.22
383.038	0.18
383.244	0.23
383.451	0.19
383.658	0.19
383.864	0.18
384.071	0.2
384.277	0.34
384.484	0.25
384.69	0.31
384.897	0.19
385.103	0.29
385.31	0.24
385.516	0.26
385.723	0.25
385.929	0.29
386.136	0.29
386.342	0.36
386.549	0.28
386.755	0.36
386.961	0.4
387.168	0.4
387.374	0.42
387.58	0.46
387.787	0.45
387.993	0.43
388.199	0.46
388.406	0.49
388.612	0.49
388.818	0.52
389.024	0.49
389.231	0.56
389.437	0.67
389.643	0.66
389.849	0.68
390.055	0.72
390.261	0.65
390.467	0.81
390.674	0.73
390.88	0.89
391.086	0.93
391.292	0.9
391.498	1.01
391.704	1.09
391.91	1.1
392.116	1.1
392.322	1.13
392.528	1.27
392.734	1.28
392.94	1.41
393.146	1.42
393.352	1.5
393.557	1.51
393.763	1.61
393.969	1.69
394.175	1.78
394.381	1.92
394.587	1.97
394.792	2.06
394.998	2.25
395.204	2.38
395.41	2.32
395.615	2.55
395.821	2.66
396.027	2.8
396.233	2.93
396.438	3.11
396.644	3.43
396.85	3.49
397.055	3.63
397.261	3.81
397.466	3.93
397.672	4.15
397.878	4.35
398.083	4.4
398.289	4.56
398.494	4.71
398.7	4.92
398.905	5.01
399.111	5.4
399.316	5.41
399.522	5.67
399.727	5.94
399.932	6.25
400.138	6.35
400.343	6.77
400.549	6.83
400.754	7.37
400.959	7.51
401.165	7.91
401.37	8.16
401.575	8.89
401.78	8.86
401.986	9.19
402.191	9.43
402.396	9.99
402.601	10.34
402.807	10.68
403.012	10.97
403.217	11.71
403.422	11.75
403.627	12.29
403.832	12.86
404.037	13.14
404.243	13.11
404.448	13.72
404.653	14.05
404.858	14.39
405.063	14.21
405.268	14.84
405.473	15
405.678	15.35
405.883	15.99
406.088	16.1
406.293	16.27
406.498	16.67
406.703	16.56
406.907	17.02
407.112	17.57
407.317	18.02
407.522	18.44
407.727	18.57
407.932	18.68
408.136	19.17
408.341	18.63
408.546	18.77
408.751	18.8
408.956	18.64
409.16	19.29
409.365	18.95
409.57	18.5
409.774	18.45
409.979	18.37
410.184	18.03
410.388	18.03
410.593	18.18
410.798	18.03
411.002	18
411.207	17.59
411.411	17.54
411.616	17.07
411.82	17.1
412.025	16.42
412.229	16.28
412.434	15.87
412.638	15.45
412.843	15.17
413.047	14.59
413.252	14.2
413.456	14.47
413.66	13.84
413.865	13.33
414.069	12.87
414.273	12.77
414.478	12.41
414.682	12.13
414.886	11.82
415.091	11.37
415.295	11.19
415.499	10.98
415.703	10.39
415.908	10.34
416.112	10
416.316	9.87
416.52	9.62
416.724	9.31
416.929	9.09
417.133	9.14
417.337	8.67
417.541	8.51
417.745	8.29
417.949	8.12
418.153	8
418.357	7.87
418.561	7.91
418.765	7.41
418.969	7.34
419.173	7.34
419.377	6.98
419.581	7.07
419.785	6.93
419.989	6.56
420.193	6.58
420.397	6.45
420.601	6.4
420.804	6.2
421.008	5.87
421.212	5.89
421.416	5.63
421.62	5.46
421.823	5.26
422.027	5.15
422.231	4.97
422.435	4.82
422.638	4.64
422.842	4.56
423.046	4.32
423.249	4.33
423.453	4.2
423.657	4.19
423.86	3.91
424.064	3.94
424.268	3.83
424.471	3.65
424.675	3.66
424.878	3.52
425.082	3.51
425.285	3.53
425.489	3.22
425.692	3.18
425.896	3.02
426.099	3.09
426.303	2.97
426.506	2.92
426.71	2.9
426.913	2.84
427.116	2.8
427.32	2.64
427.523	2.55
427.726	2.67
427.93	2.49
428.133	2.46
428.336	2.46
428.54	2.34
428.743	2.32
428.946	2.35
429.149	2.26
429.353	2.24
429.556	2.11
429.759	2.03
429.962	1.98
430.165	2.01
430.368	1.85
430.571	1.8
430.775	1.75
430.978	1.71
431.181	1.62
431.384	1.63
431.587	1.58
431.79	1.62
431.993	1.6
432.196	1.54
432.399	1.54
432.602	1.57
432.805	1.46
433.008	1.55
433.211	1.38
433.414	1.53
433.616	1.51
433.819	1.35
434.022	1.3
434.225	1.45
434.428	1.38
434.631	1.46
434.833	1.24
435.036	1.31
435.239	1.26
435.442	1.26
435.645	1.15
435.847	1.19
436.05	1.26
436.253	1.17
436.455	1.11
436.658	1.09
436.861	1.24
437.063	1.06
437.266	1.02
437.468	1.06
437.671	1.2
437.874	1
438.076	0.9
438.279	0.93
438.481	0.91
438.684	0.94
438.886	0.92
439.089	0.89
439.291	0.92
439.494	0.91
439.696	0.81
439.899	0.85
440.101	0.87
440.303	0.78
440.506	0.91
440.708	0.82
440.91	0.87
441.113	0.81
441.315	0.83
441.517	0.74
441.72	0.75
441.922	0.68
442.124	0.65
442.326	0.74
442.529	0.78
442.731	0.6
442.933	0.73
443.135	0.62
443.337	0.58
443.539	0.63
443.742	0.56
443.944	0.64
444.146	0.56
444.348	0.59
444.55	0.56
444.752	0.54
444.954	0.46
445.156	0.55
445.358	0.58
445.56	0.57
445.762	0.52
445.964	0.47
446.166	0.49
446.368	0.51
446.57	0.56
446.772	0.44
446.974	0.45
447.175	0.5
447.377	0.42
447.579	0.45
447.781	0.36
447.983	0.52
448.184	0.4
448.386	0.47
448.588	0.31
448.79	0.37
448.991	0.35
449.193	0.43
449.395	0.36
449.597	0.45
449.798	0.37
450	0.37
450.202	0.37
450.403	0.36
450.605	0.39
450.806	0.34
451.008	0.23
451.21	0.34
451.411	0.38
451.613	0.32
451.814	0.34
452.016	0.41
452.217	0.33
452.419	0.38
452.62	0.37
452.821	0.32
453.023	0.36
453.224	0.34
453.426	0.32
453.627	0.33
453.828	0.31
454.03	0.27
454.231	0.33
454.432	0.3
454.634	0.4
454.835	0.31
455.036	0.27
455.238	0.33
455.439	0.44
455.64	0.26
455.841	0.25
456.042	0.42
456.244	0.32
456.445	0.31
456.646	0.24
456.847	0.27
457.048	0.31
457.249	0.36
457.45	0.56
457.651	0.25
457.852	0.35
458.054	0.29
458.255	0.21
458.456	0.31
458.657	0.31
458.858	0.23
459.058	0.25
459.259	0.38
459.46	0.26
459.661	0.27
459.862	0.39
460.063	0.26
460.264	0.43
460.465	0.23
460.666	0.37
460.866	0.27
461.067	0.23
461.268	0.27
461.469	0.27
461.67	0.28
461.87	0.24
462.071	0.26
462.272	0.23
462.473	0.31
462.673	0.28
462.874	0.21
463.075	0.28
463.275	0.27
463.476	0.31
463.676	0.29
463.877	0.3
464.078	0.26
464.278	0.32
464.479	0.22
464.679	0.24
464.88	0.23
465.08	0.34
465.281	0.2
465.481	0.24
465.682	0.25
465.882	0.29
466.083	0.27
466.283	0.3
466.483	0.32
466.684	0.19
466.884	0.19
467.085	0.2
467.285	0.3
467.485	0.21
467.686	0.26
467.886	0.23
468.086	0.22
468.286	0.25
468.487	0.26
468.687	0.19
468.887	0.18
469.087	0.28
469.287	0.23
469.488	0.15
469.688	0.26
469.888	0.28
470.088	0.23
470.288	0.29
470.488	0.27
470.688	0.17
470.888	0.2
471.088	0.14
471.288	0.25
471.488	0.25
471.688	0.24
471.888	0.15
472.088	0.3
472.288	0.27
472.488	0.17
472.688	0.16
472.888	0.18
473.088	0.16
473.288	0.19
473.488	0.17
473.688	0.28
473.887	0.19
474.087	0.16
474.287	0.23
474.487	0.16
474.687	0.23
474.886	0.15
475.086	0.17
475.286	0.19
475.486	0.22
475.685	0.2
475.885	0.16
476.085	0.2
476.284	0.19
476.484	0.17
476.684	0.22
476.883	0.21
477.083	0.17
477.282	0.12
477.482	0.23
477.681	0.18
477.881	0.16
478.08	0.13
478.28	0.14
478.479	0.19
478.679	0.24
478.878	0.14
479.078	0.16
479.277	0.12
479.477	0.11
479.676	0.16
479.875	0.17
480.075	0.07
480.274	0.15
480.473	0.18
480.673	0.12
480.872	0.18
481.071	0.14
481.271	0.13
481.47	0.1
481.669	0.13
481.868	0.09
482.067	0.12
482.267	0.12
482.466	0.11
482.665	0.1
482.864	0.08
483.063	0.1
483.262	0.15
483.461	0.15
483.661	0.15
483.86	0.13
484.059	0.14
484.258	0.13
484.457	0.1
484.656	0.13
484.855	0.14
485.054	0.09
485.253	0.07
485.452	0.07
485.651	0.13
485.849	0.12
486.048	0.1
486.247	0.07
486.446	0.09
486.645	0.05
486.844	0.08
487.043	0.11
487.241	0.12
487.44	0.09
487.639	0.08
487.838	0.12
488.037	0.11
488.235	0.17
488.434	0.11
488.633	0.08
488.831	0.12
489.03	0.11
489.229	0.1
489.427	0.09
489.626	0.16
489.825	0.15
490.023	0.09
490.222	0.09
490.42	0.13
490.619	0.15
490.817	0.1
491.016	0.08
491.214	0.14
491.413	0.09
491.611	0.08
491.81	0.09
492.008	0.12
492.207	0.11
492.405	0.11
492.604	0.05
492.802	0.09
493	0.1
493.199	0.08
493.397	0.11
493.595	0.11
493.794	0.1
493.992	0.12
494.19	0.08
494.388	0.09
494.587	0.09
494.785	0.09
494.983	0.04
495.181	0.1
495.379	0.09
495.578	0.08
495.776	0.09
495.974	0.07
496.172	0.07
496.37	0.08
496.568	0.06
496.766	0.06
496.964	0.09
497.162	0.07
497.36	0.06
497.558	0.09
497.756	0.1
497.954	0.09
498.152	0.05
498.35	0.09
498.548	0.09
498.746	0.08
498.944	0.04
499.142	0.08
499.34	0.07
499.538	0.07
499.736	0.04
499.933	0.12
500.131	0.11
500.329	0.07
500.527	0.11
500.725	0.13
500.922	0.1
501.12	0.09
501.318	0.08
501.516	0.05
501.713	0.1
501.911	0.05
502.109	0.04
502.306	0.08
502.504	0.09
502.701	0.05
502.899	0.06
503.097	0.11
503.294	0.08
503.492	0.08
503.689	0.07
503.887	0.09
504.084	0.11
504.282	0.07
504.479	0.03
504.677	0.07
504.874	0.05
505.072	0.05
505.269	0.09
505.466	0.09
505.664	0.1
505.861	0.07
506.059	0.05
506.256	0.1
506.453	0.06
506.651	0.09
506.848	0.08
507.045	0.08
507.242	0.08
507.44	0.04
507.637	0.07
507.834	0.04
508.031	0.07
508.229	0.03
508.426	0.08
508.623	0.08
508.82	0.03
509.017	0.04
509.214	0.05
509.411	0.08
509.608	0.02
509.805	0.08
510.003	0.03
510.2	0.05
510.397	0.07
510.594	0.04
510.791	0.03
510.988	0.06
511.184	0.09
511.381	0.05
511.578	0.04
511.775	0.07
511.972	0.03
512.169	0.05
512.366	0.06
512.563	0.07
512.76	0.03
512.956	0.08
513.153	0.04
513.35	0.05
513.547	0.03
513.744	0.05
513.94	0.02
514.137	0.04
514.334	0.05
514.53	0.06
514.727	0.05
514.924	0.11
515.12	0.02
515.317	0.02
515.514	0.03
515.71	0.04
515.907	0.04
516.103	0.04
516.3	0.06
516.497	0.06
516.693	0.06
516.89	0.05
517.086	0.02
517.283	0.06
517.479	0.05
517.676	0.04
517.872	0.04
518.068	0.05
518.265	0.03
518.461	0.04
518.658	0.02
518.854	0.06
519.05	0.04
519.247	0.02
519.443	0.07
519.639	0.06
519.836	0.05
520.032	0.03
520.228	0.05
520.424	0.07
520.621	0.05
520.817	0.04
521.013	0.04
521.209	0.05
521.405	0.08
521.601	0.06
521.798	0.05
521.994	0.1
522.19	0.02
522.386	0.01
522.582	0.04
522.778	0.04
522.974	0.03
523.17	0.02
523.366	0.06
523.562	0.07
523.758	0.04
523.954	0.03
524.15	0.03
524.346	0.06
524.542	0.03
524.738	0.03
524.934	0.04
525.129	0.04
525.325	0.05
525.521	0.05
525.717	0.06
525.913	0.06
526.109	0.04
526.304	0.03
526.5	0.03
526.696	0.05
526.892	0.03
527.087	0.05
527.283	0.02
527.479	0.04
527.674	0.01
527.87	0.05
528.066	0.02
528.261	0.08
528.457	0.05
528.653	0.03
528.848	0.03
529.044	0.05
529.239	0.03
529.435	0.04
529.63	0.04
529.826	0.09
530.021	0.05
530.217	0.07
530.412	0.03
530.608	0.02
530.803	0.04
530.999	0.03
531.194	-0.02
531.389	0.02
531.585	0
531.78	0.02
531.975	0.05
532.171	0.06
532.366	0.05
532.561	0.03
532.757	0.01
532.952	0.03
533.147	0.03
533.342	0.03
533.538	0.02
533.733	0.06
533.928	0.04
534.123	0.03
534.318	0
534.513	0.03
534.709	0.03
534.904	0.03
535.099	0.04
535.294	0.02
535.489	0.03
535.684	0.04
535.879	0.01
536.074	0.05
536.269	0.01
536.464	0.03
536.659	0.03
536.854	0.01
537.049	0.05
537.244	0.04
537.439	0.05
537.634	0.06
537.828	0.04
538.023	0.03
538.218	0.03
538.413	0.03
538.608	0.01
538.803	0.05
538.997	-0
539.192	0.06
539.387	0.04
539.582	0.03
539.776	0.05
539.971	0.02
540.166	0.03
540.36	0.01
540.555	0.03
540.75	0.03
540.944	0.04
541.139	-0.02
541.334	0.02
541.528	0.06
541.723	0.07
541.917	0.03
542.112	-0.01
542.306	0
542.501	0.01
542.695	0.04
542.89	0.01
543.084	0.05
543.279	0.01
543.473	0.03
543.668	0.03
543.862	0.02
544.056	0.04
544.251	0.02
544.445	0.03
544.64	0.03
544.834	-0.01
545.028	0.01
545.222	0.04
545.417	0.05
545.611	0.06
545.805	0.03
546	0
546.194	0.01
546.388	0.03
546.582	0.04
546.776	0.04
546.97	0.04
547.165	0.03
547.359	0.06
547.553	0.02
547.747	0.02
547.941	0.06
548.135	0.03
548.329	0.04
548.523	0.04
548.717	0.03
548.911	-0
549.105	0.02
549.299	0.02
549.493	0.05
549.687	0.05
549.881	0.04
550.075	0.03
550.269	-0.01
550.463	0.04
550.657	-0
550.85	0.03
551.044	-0
551.238	0.05
551.432	-0.01
551.626	0.02
551.82	0.03
552.013	0.01
552.207	0.02
552.401	0.02
552.594	0.02
552.788	0.02
552.982	0.05
553.176	-0.01
553.369	0.05
553.563	0.04
553.756	-0.03
553.95	0.01
554.144	0.04
554.337	0.06
554.531	0.03
554.724	0.02
554.918	0.01
555.111	0.04
555.305	0.01
555.498	0.08
555.692	0.07
555.885	0.01
556.079	0.05
556.272	-0
556.466	0.06
556.659	0.02
556.852	0.02
557.046	0.01
557.239	0.04
557.432	0
557.626	0.02
557.819	0.04
558.012	0.05
558.206	0.02
558.399	0.02
558.592	0.04
558.785	0.03
558.979	0.06
559.172	0.03
559.365	0.03
559.558	0.05
559.751	0.03
559.944	0.02
560.138	-0.01
560.331	0.01
560.524	0.02
560.717	0.01
560.91	0.01
561.103	0.02
561.296	0.04
561.489	0.03
561.682	0.02
561.875	0.05
562.068	0.03
562.261	0.03
562.454	0.06
562.647	0.03
562.84	0.01
563.032	0.02
563.225	0.03
563.418	0.01
563.611	0.01
563.804	0.01
563.997	-0.01
564.19	-0.01
564.382	0.03
564.575	0
564.768	0.01
564.961	-0.01
565.153	0.04
565.346	0.04
565.539	0.06
565.731	0.04
565.924	0.05
566.117	0.03
566.309	0.02
566.502	-0
566.695	0.01
566.887	0.04
567.08	0.01
567.272	0.01
567.465	0
567.657	0.02
567.85	0.04
568.042	0.06
568.235	0.07
568.427	0.01
568.62	0.03
568.812	0.03
569.005	0.01
569.197	-0.03
569.389	0.03
569.582	0.02
569.774	0.03
569.966	-0.02
570.159	0.01
570.351	0.04
570.543	0.01
570.736	0.04
570.928	-0.02
571.12	0.01
571.312	0
571.505	-0.03
571.697	0.07
571.889	-0.01
572.081	0.02
572.273	-0.01
572.465	0.05
572.658	0.01
572.85	0.04
573.042	0
573.234	0.01
573.426	0.05
573.618	-0.02
573.81	0.01
574.002	0.07
574.194	0.05
574.386	-0
574.578	-0.06
574.77	-0.02
574.962	0.01
575.154	-0.02
575.346	0
575.538	0.04
575.729	-0.02
575.921	-0
576.113	0.01
576.305	0.04
576.497	0.01
576.689	0
576.88	0.01
577.072	0.05
577.264	0.03
577.456	0.01
577.647	-0.05
577.839	0.01
578.031	0.04
578.223	-0.03
578.414	-0.04
578.606	0.03
578.798	0.02
578.989	-0.01
579.181	0
579.372	0.02
579.564	-0.01
579.755	0.01
579.947	0
580.139	0.02
580.33	-0.05
580.522	-0
580.713	-0.05
580.905	0
581.096	0.02
581.287	0.02
581.479	0.02
581.67	0.06
581.862	0.01
582.053	-0.02
582.244	-0.02
582.436	0.02
582.627	0.02
582.818	0.03
583.01	-0.01
583.201	0.04
583.392	0.04
583.583	0.01
583.775	-0.01
583.966	0
584.157	0
584.348	-0.01
584.54	-0.01
584.731	0.02
584.922	0.03
585.113	-0.01
585.304	0.05
585.495	0.03
585.686	0.02
585.877	0.04
586.068	0.01
586.259	0.05
586.45	0.03
586.641	-0.01
586.832	-0.05
587.023	0.04
587.214	0
587.405	0.02
587.596	-0.02
587.787	0.06
587.978	0.01
588.169	-0.01
588.36	-0.02
588.551	0.02
588.742	0
588.932	0.02
589.123	-0
589.314	0.01
589.505	0.05
589.696	0.03
589.886	-0.03
590.077	-0.04
590.268	0.03
590.458	-0.03
590.649	-0.02
590.84	0.04
591.03	-0.01
591.221	-0.02
591.412	-0.01
591.602	0.02
591.793	0.05
591.984	-0.02
592.174	-0.01
592.365	0.12
592.555	-0.01
592.746	0.03
592.936	0.02
593.127	0.02
593.317	0.05
593.508	-0.02
593.698	-0.01
593.889	0.03
594.079	0.02
594.269	-0
594.46	0
594.65	0
594.84	0
595.031	-0.02
595.221	-0.02
595.411	-0.02
595.602	0.01
595.792	0.01
595.982	-0.01
596.172	0.06
596.363	0.03
596.553	0.03
596.743	0
596.933	0.01
597.123	0.05
597.314	-0.02
597.504	0
597.694	0.06
597.884	0.06
598.074	0
598.264	-0.02
598.454	0.02
598.644	0.02
598.834	0
599.024	-0.06
599.214	-0
599.404	0.06
599.594	-0.01
599.784	-0.02
599.974	0.05
600.164	0.04
600.354	-0.05
600.544	-0.05
600.734	0.01
600.924	0.05
601.114	-0.01
601.303	-0.02
601.493	0
601.683	0.01
601.873	0.01
602.063	-0.03
602.252	0.07
602.442	-0.06
602.632	-0
602.821	-0.03
603.011	0.03
603.201	-0.03
603.39	-0.01
603.58	-0.01
603.77	0.01
603.959	0.05
604.149	0.04
604.339	-0.01
604.528	0.06
604.718	0.02
604.907	-0
605.097	-0.03
605.286	-0.04
605.476	0.02
605.665	0.02
605.855	0.01
606.044	0.05
606.234	0.05
606.423	0
606.612	0
606.802	0.01
606.991	0.04
607.181	0.02
607.37	-0.02
607.559	0.01
607.749	-0.03
607.938	-0
608.127	0
608.316	-0.01
608.506	0.02
608.695	0.01
608.884	-0.03
609.073	-0.01
609.263	0.01
609.452	0.04
609.641	-0
609.83	-0.02
610.019	0.03
610.208	-0.02
610.397	0.02
610.586	0.01
610.775	-0.03
610.965	-0.01
611.154	-0.02
611.343	0.03
611.532	0.01
611.721	-0.01
611.91	-0.03
612.099	0.06
612.287	0
612.476	-0.03
612.665	0.02
612.854	0.01
613.043	0.05
613.232	0.02
613.421	-0
613.61	0.01
613.798	-0.02
613.987	0.01
614.176	0.01
614.365	0.04
614.554	-0
614.742	0.05
614.931	-0.02
615.12	0.03
615.309	-0
615.497	0.03
615.686	-0.01
615.875	0.01
616.063	0.01
616.252	-0.02
616.44	0
616.629	0.02
616.818	0.04
617.006	-0
617.195	-0.01
617.383	0.02
617.572	0.01
617.76	-0.02
617.949	-0.01
618.137	0.02
618.326	0.09
618.514	-0.02
618.703	-0.02
618.891	0.06
619.079	-0.05
619.268	0.01
619.456	-0.02
619.644	0.04
619.833	0.01
620.021	-0.03
620.209	-0.02
620.398	0.02
620.586	0.01
620.774	0.01
620.962	-0.02
621.151	0.03
621.339	0.02
621.527	-0.05
621.715	-0.03
621.903	-0.02
622.092	-0.04
622.28	0
622.468	-0.01
622.656	0
622.844	0.02
623.032	0.01
623.22	-0.05
623.408	0.05
623.596	0.01
623.784	0.03
623.972	-0.03
624.16	-0.01
624.348	0.09
624.536	-0.02
624.724	0.01
624.912	0.04
625.1	0.03
625.288	-0.04
625.476	-0.04
625.664	0.02
625.851	0.01
626.039	-0.01
626.227	-0.01
626.415	0.02
626.603	-0.07
626.79	0.02
626.978	0.01
627.166	0.01
627.354	0
627.541	-0.03
627.729	-0.05
627.917	0.01
628.104	0.08
628.292	0.02
628.48	-0.02
628.667	-0
628.855	0.05
629.042	0.02
629.23	-0.02
629.418	-0
629.605	0.01
629.793	-0.01
629.98	-0.04
630.168	-0
630.355	0.04
630.543	0.04
630.73	-0.03
630.917	0.01
631.105	0.06
631.292	0.01
631.48	-0
631.667	0.1
631.854	0.02
632.042	-0
632.229	-0.05
632.416	-0
632.604	0.02
632.791	-0.04
632.978	0
633.165	0.02
633.353	0.09
633.54	0.03
633.727	-0.05
633.914	0.01
634.101	-0.07
634.289	0.05
634.476	-0.04
634.663	-0.01
634.85	0.04
635.037	-0.05
635.224	-0.07
635.411	0.03
635.598	0.01
635.785	-0.02
635.972	0.01
636.159	0.03
636.346	-0.04
636.533	-0.02
636.72	0.02
636.907	-0.01
637.094	0.03
637.281	0.01
637.468	0.03
637.655	0.03
637.842	0.02
638.029	-0.06
638.215	0.03
638.402	0.01
638.589	-0.03
638.776	-0.01
638.963	-0.01
639.149	0.04
639.336	0.1
639.523	-0.01
639.709	0.02
639.896	-0.03
640.083	0.07
640.27	0.01
640.456	-0.02
640.643	0.01
640.829	-0.04
641.016	0.02
641.203	-0.01
641.389	0.02
641.576	0.02
641.762	-0.01
641.949	-0.04
642.135	0.03
642.322	0.04
642.508	-0.04
642.695	0.01
642.881	-0.02
643.068	0
643.254	-0.01
643.441	0.03
643.627	-0.01
643.813	-0.04
644	0.03
644.186	-0.04
644.372	0.01
644.559	0.06
644.745	-0.02
644.931	-0.01
645.118	-0.02
645.304	0.02
645.49	-0.03
645.676	-0.03
645.862	0.02
646.049	0.03
646.235	0.01
646.421	0.09
646.607	0.07
646.793	0.01
646.979	-0.03
647.165	-0.02
647.352	0.01
647.538	0.04
647.724	0.01
647.91	0.03
648.096	0.03
648.282	0.06
648.468	0
648.654	0.01
648.84	0.03
649.026	0.01
649.212	-0.06
649.397	-0.03
649.583	-0.05
649.769	0.02
649.955	-0
650.141	0.01
650.327	0.06
650.513	0
650.698	0.02
650.884	-0.06
651.07	0.02
651.256	0.01
651.442	-0.03
651.627	-0.02
651.813	0.01
651.999	-0
652.184	0.04
652.37	0.01
652.556	-0
652.741	0.06
652.927	-0.07
653.113	0.01
653.298	0.03
653.484	0.01
653.669	-0.04
653.855	-0.02
654.04	0.05
654.226	0.04
654.412	-0.03
654.597	-0.04
654.782	0.01
654.968	0.06
655.153	-0
655.339	-0.03
655.524	-0.06
655.71	0.02
655.895	-0.03
656.08	-0.02
656.266	0.07
656.451	0.03
656.636	-0.05
656.822	0
657.007	-0.02
657.192	-0.02
657.378	-0.05
657.563	-0.01
657.748	0.02
657.933	-0.01
658.118	-0.03
658.304	-0.02
658.489	0.05
658.674	0.01
658.859	-0.03
659.044	0.01
659.229	0
659.414	-0.02
659.599	0.01
659.785	-0.07
659.97	0.02
660.155	0.02
660.34	0
660.525	-0.02
660.71	-0.01
660.895	0.03
661.08	-0.03
661.264	-0.01
661.449	0.06
661.634	0.05
661.819	-0
662.004	0.04
662.189	-0.08
662.374	0
662.559	-0.05
662.743	-0.06
662.928	0
663.113	-0.01
663.298	-0.06
663.483	-0.03
663.667	-0
663.852	-0.07
664.037	0.03
664.221	-0.05
664.406	0.04
664.591	0.02
664.775	0
664.96	0.01
665.145	0.02
665.329	0.03
665.514	-0
665.698	-0.01
665.883	-0.04
666.068	0.04
666.252	0.02
666.437	-0.06
666.621	0
666.806	0.02
666.99	0.01
667.174	-0.03
667.359	0.07
667.543	-0.01
667.728	-0.03
667.912	-0.08
668.096	0.07
668.281	-0.01
668.465	0
668.649	-0.02
668.834	-0.01
669.018	-0.01
669.202	-0.02
669.387	-0.03
669.571	0.05
669.755	-0.04
669.939	-0.03
670.124	-0.02
670.308	0.04
670.492	0.03
670.676	-0.03
670.86	0.04
671.044	-0.05
671.228	0.06
671.413	-0.03
671.597	0.01
671.781	-0.05
671.965	0.04
672.149	-0.02
672.333	0.01
672.517	-0.03
672.701	0.01
672.885	-0.02
673.069	-0.06
673.253	0.05
673.437	-0.01
673.621	-0.03
673.804	-0.01
673.988	-0.02
674.172	0.02
674.356	-0.08
674.54	-0.03
674.724	0.08
674.908	-0.03
675.091	0.05
675.275	0.01
675.459	0.03
675.643	-0.01
675.826	0.01
676.01	-0.01
676.194	-0.02
676.377	0.02
676.561	0.01
676.745	-0.01
676.928	0.02
677.112	0.02
677.296	-0.03
677.479	0
677.663	-0.02
677.846	0.04
678.03	0.01
678.213	-0.03
678.397	0.06
678.58	0.01
678.764	-0.04
678.947	0
679.131	-0.05
679.314	0.03
679.498	0
679.681	-0.02
679.865	0.05
680.048	-0.01
680.231	-0.03
680.415	-0.01
680.598	-0.01
680.781	-0.05
680.965	-0.03
681.148	0.01
681.331	-0.06
681.514	-0
681.698	-0.04
681.881	0.03
682.064	0.03
682.247	-0.01
682.43	-0.05
682.614	0.03
682.797	0.11
682.98	0.03
683.163	-0.02
683.346	0.08
683.529	-0.01
683.712	-0.03
683.895	0.02
684.078	-0.06
684.261	-0.03
684.444	-0.01
684.627	-0.01
684.81	-0.04
684.993	0.02
685.176	0.04
685.359	-0.05
685.542	-0.04
685.725	0.02
685.908	-0.02
686.091	-0.03
686.274	0.04
686.457	0.03
686.639	-0.01
686.822	0.04
687.005	0.04
687.188	-0
687.371	0.15
687.553	0.01
687.736	0.05
687.919	0.08
688.102	0.05
688.284	-0.05
688.467	0
688.65	-0.01
688.832	-0.05
689.015	0.01
689.197	-0
689.38	0.1
689.563	0.12
689.745	-0.06
689.928	-0.07
690.11	0
690.293	0.03
690.475	-0.03
690.658	0.03
690.84	0.01
691.023	-0.01
691.205	-0
691.388	0.04
691.57	0.03
691.752	0.06
691.935	-0.08
692.117	-0.03
692.3	0.01
692.482	0.03
692.664	-0.02
692.847	0.08
693.029	0.07
693.211	0.01
693.393	0.02
693.576	-0
693.758	0.05
693.94	-0.02
694.122	-0.07
694.304	-0.05
694.487	-0.03
694.669	0.09
694.851	-0.09
695.033	-0
695.215	-0.03
695.397	-0.06
695.579	0.02
695.761	-0.05
695.943	-0.06
696.125	0.09
696.308	0.01
696.49	-0.13
696.671	0.16
696.853	0
697.035	0.14
697.217	-0.03
697.399	0.01
697.581	-0.05
697.763	0.01
697.945	-0.06
698.127	0.01
698.309	0.05
698.491	0
698.672	0.07
698.854	0.02
699.036	0.06
699.218	-0
699.399	0.07
699.581	0.07
699.763	0.02
699.945	-0.02
700.126	-0.02
700.308	-0.01
700.49	-0.03
700.671	-0.11
700.853	0.07
701.035	-0.02
701.216	0.01
701.398	-0.06
701.579	-0
701.761	0.09
701.943	-0.04
702.124	-0.02
702.306	0
702.487	0.13
702.669	-0.03
702.85	-0.03
703.031	-0.07
703.213	0.09
703.394	0.07
703.576	-0.09
703.757	0.09
703.938	-0.02
704.12	0.15
704.301	-0.07
704.483	-0.05
704.664	0.04
704.845	0.1
705.026	0.04
705.208	0
705.389	-0.03
705.57	0.02
705.751	-0.01
705.933	-0.02
706.114	0.1
706.295	0.02
706.476	-0.03
706.657	0.14
706.838	0.09
707.02	0.14
707.201	-0.01
707.382	-0.08
707.563	0.06
707.744	-0.04
707.925	-0.09
708.106	-0.01
708.287	0.02
708.468	0.06
708.649	0.01
708.83	-0.01
709.011	-0.06
709.192	0.1
709.373	-0.12
709.554	-0.04
709.734	0.01
709.915	0.03
710.096	-0
710.277	-0.11
710.458	0
710.639	0.05
710.819	-0.12
711	-0.02
711.181	0.04
711.362	0.07
711.542	0.02
711.723	-0.01
711.904	0.07
712.085	-0.04
712.265	0.02
712.446	-0.07
712.627	0.03
712.807	-0.02
712.988	0.01
713.168	-0.14
713.349	0.04
713.53	-0.12
713.71	-0.12
713.891	-0.08
714.071	0.03
714.252	0.02
714.432	-0.01
714.613	-0.08
714.793	-0.02
714.974	0.11
715.154	-0
715.334	0.07
715.515	0.11
715.695	-0.06
715.876	-0.02
716.056	0.03
716.236	-0.06
716.417	0.01
716.597	-0.05
716.777	0.13
716.957	-0.01
717.138	0.08
717.318	0.03
717.498	-0.13
717.678	0.06
717.859	-0.01
718.039	-0.09
718.219	0.03
718.399	0
718.579	-0.06
718.759	-0.11
718.939	0.03
719.12	0.02
719.3	-0
719.48	-0.2
719.66	-0.15
719.84	0.17
720.02	-0.02
720.2	-0.06
720.38	-0.01
720.56	0.11
720.74	0.02
720.92	0.02
721.1	0.12
721.279	0.12
721.459	0.01
721.639	-0.03
721.819	0.04
721.999	0.02
722.179	-0.01
722.359	-0.09
722.538	0.02
722.718	0.03
722.898	-0.03
723.078	-0.01
723.257	-0.07
723.437	0.02
723.617	0.03
723.797	0
723.976	-0.02
724.156	0.1
724.336	0.14
724.515	0.16
724.695	-0.17
724.874	-0
725.054	0.08
725.234	-0.03
725.413	-0
725.593	-0.03
725.772	-0.09
725.952	0
726.131	-0.04
726.311	-0.02
726.49	-0.05
726.67	-0.07
726.849	-0.04
727.028	-0
727.208	-0.05
727.387	-0
727.567	-0.05
727.746	0
727.925	-0.1
728.105	-0.04
728.284	0.01
728.463	-0.02
728.643	0.03
728.822	-0.14
729.001	-0.01
729.18	0.02
729.359	0.06
729.539	-0.09
729.718	0.03
729.897	0.09
730.076	0.02
730.255	-0.13
730.434	0.01
730.614	0.02
730.793	0.06
730.972	-0.11
731.151	0.02
731.33	0.04
731.509	0
731.688	0.01
731.867	-0.02
732.046	-0.15
732.225	0.14
732.404	-0.04
732.583	-0.17
732.762	-0.07
732.941	-0.01
733.12	0.06
733.298	-0.03
733.477	0.06
733.656	-0.06
733.835	-0.1
734.014	0.06
734.193	-0.09
734.371	0.1
734.55	-0.02
734.729	-0.13
734.908	0.08
735.086	-0.01
735.265	0.03
735.444	-0.18
735.623	-0.05
735.801	-0.03
735.98	-0.02
736.159	0.06
736.337	0.01
736.516	0.03
736.694	-0.05
736.873	-0.09
737.052	0.12
737.23	0.16
737.409	-0.12
737.587	0.13
737.766	-0.19
737.944	-0.12
738.123	0.04
738.301	0.01
738.479	-0.03
738.658	-0.03
738.836	-0.18
739.015	-0.06
739.193	0.06
739.371	-0.05
739.55	-0.05
739.728	-0.22
739.906	0.12
740.085	0.16
740.263	-0.06
740.441	-0.2
740.62	0.17
740.798	0.04
740.976	-0.02
741.154	-0.03
741.332	0.21
741.511	-0.08
741.689	0.02
741.867	0.1
742.045	-0.01
742.223	-0.01
742.401	-0.05
742.579	-0.02
742.757	0.01
742.935	-0.11
743.114	-0.08
743.292	-0.08
743.47	0.07
743.648	-0.01
743.826	-0.15
744.004	0.07
744.181	0.02
744.359	-0.11
744.537	0.09
744.715	0.02
744.893	-0.02
745.071	-0.01
745.249	0.03
745.427	0.05
745.605	-0.04
745.782	0.11
745.96	0.07
746.138	-0.05
746.316	0.07
746.493	-0.07
746.671	-0.03
746.849	0.04
747.027	0.05
747.204	-0.11
747.382	-0.04
747.56	-0.15
747.737	0.03
747.915	-0.02
748.093	0.1
748.27	-0.07
748.448	-0.01
748.625	-0.18
748.803	-0.14
748.98	-0.06
749.158	-0.01
749.335	0.14
749.513	0.01
749.69	-0.05
749.868	0.02
750.045	0.07
750.223	-0.1
750.4	-0.25
750.578	0.24
750.755	-0.07
750.932	-0.14
751.11	0.14
751.287	-0.17
751.464	0.14
751.642	-0.06
751.819	0.06
751.996	-0.03
752.173	-0.04
752.351	-0.1
752.528	0.08
752.705	-0.07
752.882	0.05
753.06	0.06
753.237	0.03
753.414	0.11
753.591	0.17
753.768	-0.04
753.945	-0
754.122	-0.08
754.299	0.14
754.476	-0.08
754.654	-0.01
754.831	0.04
755.008	-0.02
755.185	0.02
755.362	-0.15
755.539	-0.02
755.716	0.05
755.892	-0.05
756.069	-0
756.246	0.06
756.423	0.04
756.6	0.19
756.777	0.01
756.954	0.09
757.131	-0.08
757.307	-0.12
757.484	-0.11
757.661	0.02
757.838	0.1
758.015	-0.18
758.191	0.04
758.368	-0.05
758.545	0.2
758.721	-0.01
758.898	-0.14
759.075	0.05
759.251	0.03
759.428	-0.07
759.605	-0.22
759.781	-0.1
759.958	0.06
760.134	-0.02
760.311	-0.07
760.488	0.14
760.664	0.16
760.841	-0.01
761.017	-0.11
761.194	0.07
761.37	0.12
761.547	-0.05
761.723	-0.04
761.899	0.14
762.076	-0.03
762.252	-0.09
762.429	-0.11
762.605	0.14
762.781	0.05
762.958	0.13
763.134	-0.08
763.31	0.02
763.486	0.18
763.663	-0.09
763.839	0.08
764.015	-0.23
764.191	-0.2
764.368	-0.02
764.544	-0.14
764.72	0.01
764.896	0.21
765.072	0.03
765.248	0.02
765.425	0.01
765.601	-0.04
765.777	0.07
765.953	-0.18
766.129	-0.05
766.305	-0.09
766.481	0.08
766.657	0.11
766.833	0.25
767.009	-0.16
767.185	-0.09
767.361	-0.07
767.537	-0.1
767.713	0.11
767.889	0.03
768.065	0.08
768.24	0.12
768.416	0.02
768.592	-0.12
768.768	0
768.944	0.01
769.12	-0.22
769.295	-0.1
769.471	-0.12
769.647	-0.11
769.823	0.13
769.998	-0.04
770.174	-0.04
770.35	0.38
770.525	0.22
770.701	0.04
770.877	0.07
771.052	-0.13
771.228	0.12
771.403	0.05
771.579	0.17
771.755	0.45
771.93	-0.01
772.106	-0.2
772.281	-0.12
772.457	0.03
772.632	0.09
772.808	-0.21
772.983	-0.06
773.159	-0.12
773.334	0.17
773.509	0.08
773.685	-0.08
773.86	0.41
774.036	0.13
774.211	0.09
774.386	-0.17
774.562	-0.01
774.737	0.02
774.912	0
775.087	0.09
775.263	-0.09
775.438	0.03
775.613	-0.11
775.788	0.01
775.964	0.11
776.139	0.48
776.314	-0.16
776.489	-0.05
776.664	-0.05
776.839	-0.17
777.014	0.15
777.19	0.21
777.365	0.32
777.54	0.23
777.715	-0.04
777.89	-0.03
778.065	-0.1
778.24	-0.01
778.415	0.1
778.59	-0.25
778.765	-0.03
778.94	0.14
779.115	-0.08
779.289	-0.14
779.464	0.04
779.639	-0.09
779.814	-0.12
779.989	-0.11
780.164	0.16
780.339	0.12
780.513	0.01
780.688	-0.21
780.863	0.03
781.038	0.06
781.212	-0.16
781.387	0.09
781.562	0.35
781.737	0.04
781.911	0.26
782.086	0
782.261	0.01
782.435	0.14
782.61	-0.06
782.784	0.03
782.959	0.12
783.134	-0.05
783.308	0.05
783.483	-0.12
783.657	0.39
783.832	0.25
784.006	-0.28
784.181	-0.09
784.355	0.21
784.53	-0.12
784.704	-0.19
784.878	0.36
785.053	-0.12
785.227	0.22
785.402	0.38
785.576	-0.35
785.75	-0.3
785.925	0.01
786.099	0.02
786.273	-0.01
786.448	0.33
786.622	0.04
786.796	0.01
786.97	-0.15
787.145	0.4
787.319	-0.46
787.493	-0.23
787.667	-0.44
787.841	-0.05
788.015	0.12
788.19	0.07
788.364	0.22
788.538	0.14
788.712	0.01
788.886	-0.08
789.06	0.14
789.234	0.21
789.408	-0.27
789.582	-0.24
789.756	-0.09
789.93	-0.21
790.104	-0.04
790.278	0.01
790.452	-0.11
790.626	0.11
790.8	-0.07
790.973	0.19
791.147	0.16
791.321	0.27
791.495	0.28
791.669	0.02
791.843	0.01
792.016	-0.03
792.19	0.48
792.364	-0.18
792.538	0.65
792.711	0.15
792.885	-0.18
793.059	-0.12
793.233	-0.76
793.406	0.26
793.58	0.14
793.754	0.1
793.927	-0.02
794.101	0.09
794.274	0.22
794.448	0.15
794.622	-0.2
794.795	0.33
794.969	-0.13
795.142	0.35
795.316	-0.01
795.489	-0.23
795.663	0.44
795.836	-0.19
796.009	-0.15
796.183	0.48
796.356	0.06
796.53	0.14
796.703	0.07
796.876	0.74
797.05	-0.32
797.223	0.08
797.396	0.08
797.57	0.12
797.743	0.55
797.916	0.35
798.09	0.06
798.263	0.33
798.436	0.22
798.609	-0.04
798.782	-0.17
798.956	0.09
799.129	-0.03
799.302	-0.12
799.475	-0.1
799.648	-0.39
799.821	-0.26
799.994	-0.16
800.167	-0.52
800.34	0.02
800.514	0.21
800.687	-0.05
800.86	-0.05
801.033	0.03
801.206	0.16
801.379	-0.47
801.551	0.23
801.724	0.19
801.897	0.24
802.07	0.02
802.243	-0.44
802.416	-0.22
802.589	-0.07
802.762	0.03
802.935	-0.22
803.107	0.42
803.28	0.01
803.453	0.29
803.626	-0.27
803.798	0.17
803.971	-0.15
804.144	0.26
804.317	0.05
804.489	0.19
804.662	-0.02
804.835	0
805.007	-0.19
805.18	0.36
805.353	-0.26
805.525	-0.56
805.698	-0.23
805.87	0.47
806.043	0.07
806.215	-0.32
806.388	-0.3
806.56	-0.12
806.733	0.34
806.905	0.22
807.078	-0.3
807.25	-0.41
807.423	0.22
807.595	0.02
807.768	-0.05
807.94	-0
808.112	0.12
808.285	0.02
808.457	-0.19
808.629	0.03
808.802	-0.13
808.974	0.08
809.146	-0.14
809.318	-0.36
809.491	-0.38
809.663	0.24
809.835	0.02
810.007	0.2
810.18	0.02
810.352	-0.49
810.524	-0.34
810.696	0.31
810.868	0.35
811.04	-0.02
811.212	-0.06
811.384	0.74
811.556	0.03
811.728	-0.01
811.901	0.71
812.073	-0.24
812.245	0.16
812.417	-0.11
812.589	-0.78
812.76	0.31
812.932	0.21
813.104	0.6
813.276	-0.48
813.448	-0
813.62	0.25
813.792	0.18
813.964	0.04
814.136	0.44
814.307	-0
814.479	-0.52
814.651	-0.16
814.823	1.15
814.995	0.34
815.166	0.29
815.338	-0.54
815.51	-0.5
815.681	1.18
815.853	-0.1
816.025	-0.04
816.196	0.59
816.368	0.24
816.54	-0.43
816.711	-0.69
816.883	0.54
817.054	1.05
817.226	-0.46
817.398	0.27
817.569	0.14
817.741	-0.06
817.912	-0.11
818.084	0.08
818.255	0.03
818.426	-0.32
818.598	-0.44
818.769	-0.12
818.941	0.74
819.112	0.79
819.283	-0.01
819.455	-0.25
819.626	0.04
819.798	0
819.969	0.12
820.14	-0.11
820.311	-0.36
820.483	0.41
820.654	0.26
820.825	-0.03
820.996	0.41
821.168	-0.54
821.339	0.08
821.51	-0.52
821.681	-0.4
821.852	0.18
822.023	0.13
822.195	-0.39
822.366	0.28
822.537	0.17
822.708	0.34
822.879	-0.35
823.05	0.62
823.221	0.16
823.392	0.18
823.563	-0.29
823.734	-0.3
823.905	-0.43
824.076	-0.52
824.247	-0.32
824.418	-0.54
824.589	0.59
824.759	0.67
824.93	-0.28
825.101	-0.45
825.272	0.79
825.443	0.42
825.614	0.35
825.784	-0.8
825.955	1.05
826.126	1
826.297	-0.15
826.467	0.58
826.638	0.75
826.809	-0.72
826.98	0.33
827.15	0.37
827.321	0.22
827.492	0.39
827.662	-0.06
827.833	0.98
828.003	0.66
828.174	-0.8
828.345	-0.81
828.515	0.56
828.686	0.41
828.856	-0.38
829.027	0.6
829.197	-0.08
829.368	0.89
829.538	-0.3
829.709	-0.05
829.879	0.09
830.049	-0.06
830.22	0.08
830.39	-0.08
830.56	0.55
830.731	0.08
830.901	-0.33
831.072	-0.08
831.242	0.29
831.412	0.34
831.582	-0.22
831.753	-0.65
831.923	0.94
832.093	0.1
832.263	0.27
832.434	-0.17
832.604	-0.45
832.774	0.24
832.944	-0.23
833.114	-0.01
833.284	0.22
833.454	-0.31
833.624	-0.69
833.795	-0.66
833.965	0.77
834.135	0.93
834.305	-1.44
834.475	-0.84
834.645	-0.14
834.815	-0.22
834.985	-0.18
835.155	-0.44
835.325	0.97
835.494	0.64
835.664	-0.17
835.834	-0.97
836.004	0.09
836.174	0.12
836.344	-0.05
836.514	-1.09
836.684	-0.6
836.853	-0.28
837.023	0.61
837.193	-0.55
837.363	1.59
837.532	0.42
837.702	-0.15
837.872	0.07
838.041	0.57
838.211	1.66
838.381	-0.57
838.55	0.39
838.72	2.1
838.89	1
839.059	-0.41
839.229	-0.87
839.398	1.76
839.568	-0.23
839.738	-0.08
839.907	0.89
840.077	0.55
840.246	-0.48
840.416	-0.35
840.585	-0.99
840.755	1.45
840.924	1.09
841.093	-0.91
841.263	-0.33
841.432	0.59
841.602	-0.96
841.771	-1.12
841.94	-0.26
842.11	1.34
842.279	1.55
842.448	-0.92
842.617	-0.82
842.787	1.29
842.956	-0.67
843.125	-0.41
843.294	-0.23
843.464	0.62
843.633	0.71
843.802	-1.13
843.971	-0.34
844.14	0.56
844.309	0.41
844.479	-0.44
844.648	-0.45
844.817	-0.19
844.986	-0.08
845.155	-0.22
845.324	-0.25
845.493	-0.13
845.662	-0.77
845.831	0.85
846	0.56
846.169	-0.02
846.338	0.82
846.507	0.3
846.676	-0.13
846.844	-0.25
847.013	1.48
847.182	-0.14
847.351	-0.44
847.52	-0.29
847.689	0.92
847.858	0.06
848.026	-0.54
848.195	0.18
848.364	-1.09
848.533	-1.43
848.701	-0.51
848.87	0.24
849.039	0.29
849.207	0.82
849.376	1.04
849.545	0.56
849.713	-1.03
849.882	-0.3
850.051	-0.26
850.219	0.16
850.388	0.25
850.556	-0.31
850.725	-1.04
850.893	0.53
851.062	-0.7
851.23	0.52
851.399	-0.65
851.567	-0.06
851.736	-0.07
851.904	-0.99
852.073	-0.4
852.241	0.84
852.41	-0.36
852.578	-0.87
852.746	-1.1
852.915	0.95
853.083	-0.14
853.251	-1.24
853.42	0.03
853.588	0.18
853.756	-0.07
853.924	0.11
854.093	-0.7
854.261	-1.69
854.429	-1.83
854.597	-0.2
854.765	-0.79
854.934	0.47
855.102	0.77
855.27	0.09
855.438	0.56
855.606	1.25
855.774	0.69
855.942	-1.87
856.11	-2.49
856.278	0.15
856.446	0.78
856.614	-0.58
856.782	-0.69
856.95	0.36
857.118	0.8
857.286	1.54
857.454	-1.05
857.622	1.05
857.79	0.22
857.958	-1.04
858.126	0.18
858.294	-1.78
858.462	-0.32
858.629	-0.37
858.797	-1.43
858.965	-0.63
859.133	0.52
859.301	0.16
859.468	-0.86
859.636	0.42
859.804	1.53
859.971	0.11
860.139	-1.1
860.307	1.82
860.474	-0.8
860.642	-0.12
860.81	0.13
860.977	-0.73
861.145	1.19
861.313	-1.46
861.48	-0.53
861.648	-0.03
861.815	-0.43
861.983	-1.61
862.15	0.09
862.318	0.55
862.485	0.78
862.653	-1.27
862.82	-0.36
862.988	1.83
863.155	1
863.322	-0.46
863.49	-2.06
863.657	-1.42
863.824	1.62
863.992	1.53
864.159	0.23
864.326	2.31
864.494	-0.9
864.661	3.08
864.828	-0.57
864.996	1.38
865.163	1.01
865.33	-2.09
865.497	-2.72
865.664	0.2
865.832	-1.42
865.999	-0.68
866.166	-2.34
866.333	-1.36
866.5	-0.95
866.667	-0.17
866.834	-0.89
867.001	1.76
867.168	-2.73
867.335	0.26
867.502	-1.23
867.669	0.95
867.836	1.87
868.003	-0.15
868.17	0.31
868.337	-1.63
868.504	2.27
868.671	-2.05
868.838	-1.53
869.005	3.16
869.172	-0.87
869.339	-0.9
869.505	0.19
869.672	0.8
869.839	3.03
870.006	0.03
870.173	-1.01
870.339	0.82
870.506	2.82
870.673	0.12
870.84	1.53
871.006	-0.83
871.173	-1.09
871.34	0.06
871.506	-2.27
871.673	-0.3
871.839	-3.14
872.006	-1.48
872.173	-1.52
872.339	-0.18
872.506	0.53
872.672	0.75
872.839	-2.8
873.005	1.03
873.172	2.9
873.338	1.63
873.505	0.78
873.671	-0.96
873.838	1.35
874.004	-2.42
874.171	-1.68
874.337	1.62
874.503	-0.11
874.67	0.62
874.836	-0.09
875.002	2.73
875.169	2.46
875.335	-0.13
875.501	-0.23
875.668	1.86
875.834	-0.55
876	-0.82
876.166	0.77
876.332	-0.22
876.499	4.8
876.665	-1.22
876.831	0.65
876.997	4.37
877.163	0.25
877.329	0.58
877.495	0.45
877.662	1.72
877.828	-0.11
877.994	-0.7
878.16	-3.31
878.326	-2.02
878.492	-0.65
878.658	-0.5
878.824	0.65
878.99	1.28
879.156	-0.41
879.322	2.07
879.487	-1.67
879.653	0.89
879.819	-0.04
879.985	-0.34
880.151	0.35
880.317	-0.47
880.483	-0.43
880.648	0.26
880.814	-3.06
880.98	2.94
881.146	-5.61
881.312	-0.96
881.477	-0.77
881.643	1.43
881.809	0.49
881.974	3.49
882.14	-2.75
882.306	-0.93
882.471	3.56
882.637	-1.45
882.803	1.98
882.968	-0.02
883.134	5.29
883.299	1.29
883.465	0.82
883.63	0.18
883.796	0.63
883.961	1.24
884.127	1.26
884.292	-4.16
884.458	-2.14
884.623	-2.14
