Data from Apollo_Calib_20240827__AbsoluteIrradiance__422__06-11-01-400.txt Node

Date: Wed Aug 28 06:11:01 BST 2024
User: biology
Spectrometer: FLMT08252
Trigger mode: 0
Integration Time (sec): 5.000000E-1
Scans to average: 5
Electric dark correction enabled: true
Nonlinearity correction enabled: false
Boxcar width: 0
XAxis mode: Wavelengths
Number of Pixels in Spectrum: 3648
>>>>>Begin Spectral Data<<<<<
179.588	-0
179.809	-0
180.03	-0
180.251	-0
180.473	-0
180.694	0
180.915	0
181.136	-0
181.357	0
181.578	-0
181.799	-0
182.02	-0
182.241	-0
182.462	-0
182.683	0
182.904	-0
183.125	-0
183.346	0
183.567	0
183.788	0
184.009	-0
184.23	0
184.451	0
184.672	-0
184.892	0
185.113	0
185.334	0
185.555	0
185.776	0
185.996	0
186.217	0
186.438	0
186.659	0
186.879	0
187.1	0
187.321	0
187.541	0
187.762	0
187.983	0
188.203	0
188.424	0
188.644	0
188.865	0
189.086	0
189.306	0
189.527	0
189.747	0
189.968	0
190.188	0
190.409	0
190.629	0
190.849	0
191.07	0
191.29	0
191.511	0
191.731	0
191.951	0
192.172	0
192.392	0
192.612	0
192.833	0
193.053	0
193.273	0
193.493	0
193.714	0
193.934	0
194.154	0
194.374	0
194.594	0
194.815	0
195.035	0
195.255	0
195.475	0
195.695	0
195.915	0
196.135	0
196.355	0
196.575	0
196.795	0
197.015	0
197.235	0
197.455	0
197.675	0
197.895	0
198.115	0
198.335	0
198.555	0
198.775	0
198.995	0
199.214	0
199.434	0
199.654	0
199.874	0
200.094	1.89
200.313	1.13
200.533	0.69
200.753	0.12
200.973	2
201.192	1.63
201.412	-0
201.632	0.36
201.851	1.53
202.071	0.32
202.291	0.54
202.51	0.11
202.73	1.04
202.95	0.51
203.169	0.24
203.389	0.72
203.608	0.94
203.828	0.04
204.047	0.45
204.267	1.02
204.486	0.59
204.706	0.54
204.925	0.83
205.145	0.27
205.364	1.11
205.583	1.09
205.803	0.25
206.022	0
206.242	0.24
206.461	0.47
206.68	0.32
206.9	0.37
207.119	0.77
207.338	1.14
207.557	0.16
207.777	0.48
207.996	0.54
208.215	0.99
208.434	0.2
208.654	0.2
208.873	0.32
209.092	1.23
209.311	0.14
209.53	0.38
209.749	0.29
209.968	0.37
210.187	0.21
210.407	-0.05
210.626	0.38
210.845	0.57
211.064	0.57
211.283	0.09
211.502	0.68
211.721	0.52
211.94	0.06
212.159	0.54
212.377	0.35
212.596	0.98
212.815	0.36
213.034	0.45
213.253	0.56
213.472	0.55
213.691	0.13
213.91	0.16
214.128	0.22
214.347	0.76
214.566	0.05
214.785	0.07
215.003	0.37
215.222	0.46
215.441	0.26
215.66	-0.01
215.878	0.29
216.097	0.58
216.316	0.15
216.534	0.47
216.753	0.37
216.972	0.31
217.19	0.21
217.409	0.06
217.627	0.21
217.846	0.23
218.064	0.36
218.283	-0.1
218.501	0.75
218.72	0.42
218.938	0.06
219.157	0.19
219.375	0.5
219.594	0.48
219.812	0.14
220.031	0.05
220.249	0.6
220.467	0.48
220.686	0.25
220.904	-0.08
221.122	0.07
221.341	0.58
221.559	0.31
221.777	0.13
221.995	0.31
222.214	0.42
222.432	0.17
222.65	0.48
222.868	0.38
223.086	0.24
223.305	0.34
223.523	0.2
223.741	0.53
223.959	0.02
224.177	0.04
224.395	0.07
224.613	0.27
224.831	0.43
225.049	0.13
225.267	0.09
225.485	0.24
225.703	0.19
225.921	0.26
226.139	0.23
226.357	0.35
226.575	0.23
226.793	0.09
227.011	0.78
227.229	0.28
227.447	0.29
227.665	0.23
227.883	0.08
228.1	0.28
228.318	0.22
228.536	0
228.754	0.04
228.972	0.3
229.189	0.41
229.407	0.11
229.625	-0
229.843	0.35
230.06	0.37
230.278	0.2
230.496	0.17
230.713	0.19
230.931	0.4
231.149	0.19
231.366	-0.02
231.584	0.2
231.801	0.44
232.019	0.16
232.236	0.08
232.454	0.13
232.671	0.3
232.889	0.17
233.106	0.13
233.324	0.06
233.541	0.21
233.759	0.18
233.976	0.14
234.194	0.15
234.411	0.3
234.628	0.04
234.846	0.16
235.063	0.2
235.28	0.16
235.498	0.19
235.715	0.08
235.932	0.37
236.149	0.15
236.367	0.02
236.584	0.25
236.801	0.18
237.018	0.33
237.236	0.08
237.453	-0.02
237.67	0.42
237.887	0.21
238.104	0.24
238.321	0.1
238.538	0.13
238.755	0.4
238.973	0.01
239.19	0.24
239.407	0.29
239.624	0.23
239.841	0.11
240.058	0.12
240.275	0.2
240.492	0.2
240.709	0.2
240.925	0.15
241.142	0.16
241.359	0.08
241.576	0.14
241.793	0.14
242.01	0.26
242.227	0.32
242.444	0.23
242.66	0.25
242.877	0.24
243.094	0.06
243.311	0.18
243.527	0.18
243.744	0.19
243.961	0.24
244.178	0.1
244.394	0.08
244.611	0.3
244.828	0.29
245.044	0.01
245.261	0.17
245.477	0.18
245.694	0.23
245.911	0.03
246.127	0.11
246.344	0.3
246.56	0.14
246.777	0.1
246.993	0.18
247.21	0.24
247.426	0.23
247.643	0.09
247.859	0.06
248.076	0.16
248.292	0.33
248.508	0.1
248.725	0.1
248.941	0.2
249.157	0.27
249.374	0.09
249.59	0.15
249.806	0.11
250.023	0.33
250.239	0.03
250.455	0.06
250.671	0.11
250.888	0.16
251.104	0.28
251.32	0.15
251.536	0.19
251.752	0
251.969	0.14
252.185	0.18
252.401	0.31
252.617	0.19
252.833	0.23
253.049	0.1
253.265	0.19
253.481	0.13
253.697	0.13
253.913	0.12
254.129	0.16
254.345	0.15
254.561	0.15
254.777	0.05
254.993	0.21
255.209	0.12
255.425	0.06
255.641	0.08
255.857	0.23
256.073	0.1
256.288	-0.02
256.504	0.15
256.72	0.14
256.936	0.27
257.152	0.09
257.367	0.1
257.583	0.15
257.799	0.22
258.015	0.07
258.23	0.08
258.446	0.29
258.662	0.12
258.877	0.04
259.093	0.05
259.309	0.13
259.524	0.21
259.74	0.07
259.955	0.02
260.171	0.14
260.387	0.15
260.602	0.22
260.818	0.19
261.033	0.09
261.249	0.11
261.464	0.05
261.68	0.02
261.895	0.1
262.11	0.25
262.326	0.11
262.541	0.05
262.757	0.23
262.972	0.17
263.187	0.08
263.403	0.1
263.618	0.19
263.833	0.11
264.049	0.06
264.264	0.09
264.479	0.16
264.694	0.21
264.91	0.03
265.125	0.12
265.34	0.22
265.555	0.18
265.77	0.18
265.986	0.05
266.201	0.14
266.416	0.27
266.631	0.09
266.846	0.13
267.061	0.14
267.276	0.18
267.491	-0.02
267.706	0.14
267.921	0.19
268.136	0.11
268.351	0.11
268.566	0.02
268.781	0.2
268.996	0.17
269.211	0.1
269.426	0.07
269.641	0.07
269.856	0.2
270.071	0.09
270.285	0.02
270.5	0.22
270.715	0.21
270.93	0.11
271.145	0.2
271.359	0.21
271.574	0.07
271.789	0.16
272.004	-0
272.218	0.04
272.433	0.14
272.648	0.08
272.862	0.22
273.077	0.12
273.292	0.1
273.506	0.07
273.721	0.11
273.936	0.18
274.15	0.19
274.365	0.14
274.579	0.2
274.794	0.12
275.008	0.16
275.223	-0.04
275.437	0.15
275.652	0.15
275.866	0.16
276.081	0.1
276.295	0.15
276.509	0.14
276.724	0.16
276.938	0.05
277.153	0.12
277.367	0.12
277.581	0.09
277.796	0.09
278.01	0.07
278.224	0.14
278.438	0.26
278.653	0.07
278.867	0.07
279.081	-0.07
279.295	0.06
279.51	0.16
279.724	0.02
279.938	0.13
280.152	0.19
280.366	0.09
280.58	0.14
280.794	0.2
281.008	0.2
281.222	0.14
281.437	0.21
281.651	0.13
281.865	0.14
282.079	0.07
282.293	-0.04
282.507	0.04
282.721	0.1
282.935	0.07
283.148	0.02
283.362	0.08
283.576	0.01
283.79	0.11
284.004	0.06
284.218	0.15
284.432	0.1
284.646	0.09
284.859	0.11
285.073	0.07
285.287	0.09
285.501	0.1
285.714	0.1
285.928	0.1
286.142	0.15
286.356	0.04
286.569	0.04
286.783	0.2
286.997	0.11
287.21	0.08
287.424	0.02
287.637	0.1
287.851	0.06
288.065	0.17
288.278	0.1
288.492	0.1
288.705	0.1
288.919	0.14
289.132	0.07
289.346	0.15
289.559	0.01
289.773	0.05
289.986	0.08
290.2	0.11
290.413	0.11
290.626	0.08
290.84	0.07
291.053	0.12
291.267	0.17
291.48	0.1
291.693	0.14
291.906	-0
292.12	0.12
292.333	0.02
292.546	0.07
292.76	0.18
292.973	0.11
293.186	0.12
293.399	0.07
293.612	0.16
293.826	0.05
294.039	0.09
294.252	0.1
294.465	0.16
294.678	0.11
294.891	0.14
295.104	0.08
295.317	0.07
295.53	0.1
295.743	0.06
295.956	0.08
296.169	0.18
296.382	0.1
296.595	0.08
296.808	0.07
297.021	0.14
297.234	0.11
297.447	0.08
297.66	0.12
297.873	0.13
298.086	0.11
298.299	0.1
298.511	0.01
298.724	0.04
298.937	0.08
299.15	0.07
299.363	0.04
299.575	0.14
299.788	0.13
300.001	0.08
300.213	0.02
300.426	0.07
300.639	0.07
300.852	0.06
301.064	0.1
301.277	0.21
301.489	0.14
301.702	0.12
301.915	0.07
302.127	0.08
302.34	0.13
302.552	0.13
302.765	0.08
302.977	0.12
303.19	0.09
303.402	0.08
303.615	0.06
303.827	0.06
304.04	0.07
304.252	0.15
304.464	0.09
304.677	0.18
304.889	0.16
305.102	0.04
305.314	0.05
305.526	0.1
305.739	0.09
305.951	0.07
306.163	0.05
306.375	0.18
306.588	0.05
306.8	0.05
307.012	0.03
307.224	0.11
307.436	0.13
307.649	0
307.861	0.1
308.073	0.1
308.285	0.07
308.497	0.06
308.709	0.07
308.921	0.09
309.133	0.15
309.346	0.03
309.558	0.09
309.77	0.12
309.982	0.12
310.194	0.16
310.406	0.06
310.617	0.18
310.829	0.08
311.041	0.13
311.253	0.06
311.465	0.1
311.677	0.12
311.889	0.1
312.101	0.06
312.313	0.16
312.524	0.12
312.736	0.03
312.948	0.1
313.16	0.18
313.372	0.07
313.583	0.11
313.795	0.05
314.007	0.06
314.218	0.1
314.43	0.07
314.642	0.07
314.853	0.06
315.065	0.14
315.277	0.11
315.488	0.11
315.7	0.13
315.912	0.1
316.123	0.06
316.335	0.07
316.546	0.2
316.758	0.1
316.969	0.08
317.181	0.07
317.392	0.11
317.604	0.13
317.815	0.05
318.026	0.03
318.238	0.01
318.449	0.1
318.661	0.01
318.872	0.04
319.083	0.07
319.295	0.12
319.506	0.09
319.717	0.13
319.929	0.13
320.14	0.11
320.351	0.12
320.562	0.07
320.774	0.09
320.985	0.07
321.196	0.05
321.407	0.04
321.618	0.13
321.829	0.12
322.041	0.07
322.252	0.07
322.463	0.1
322.674	0.1
322.885	0.07
323.096	0.09
323.307	0.08
323.518	0.09
323.729	0.04
323.94	0.08
324.151	0.09
324.362	0.08
324.573	0.09
324.784	0.05
324.995	0.12
325.206	0.11
325.417	0.11
325.628	0.08
325.838	0.02
326.049	0.11
326.26	0.1
326.471	0.06
326.682	0.14
326.892	0.08
327.103	0.05
327.314	0.02
327.525	0.14
327.735	0.11
327.946	0.06
328.157	0.04
328.368	0.16
328.578	0.09
328.789	0.11
328.999	0.1
329.21	0.06
329.421	0.1
329.631	0.05
329.842	0.09
330.052	0.12
330.263	0.1
330.473	0.13
330.684	0.09
330.894	0.07
331.105	0.11
331.315	0.13
331.526	0.06
331.736	0.13
331.947	0.11
332.157	0.09
332.367	0.08
332.578	0.09
332.788	0.15
332.999	0.11
333.209	0.07
333.419	0.07
333.629	0.09
333.84	0.13
334.05	0.05
334.26	0.13
334.47	0.1
334.681	0.13
334.891	0.08
335.101	0.12
335.311	0.18
335.521	0.09
335.732	0.01
335.942	0.14
336.152	0.07
336.362	0.12
336.572	0.11
336.782	0.15
336.992	0.03
337.202	0.06
337.412	0.07
337.622	0.08
337.832	0.07
338.042	0.08
338.252	0.06
338.462	0.08
338.672	0.07
338.882	0.05
339.092	0.07
339.302	0.18
339.511	0.12
339.721	0.1
339.931	0.05
340.141	0.11
340.351	0.1
340.561	0.13
340.77	0.1
340.98	0.11
341.19	0.11
341.4	0.04
341.609	0.07
341.819	0.07
342.029	0.04
342.238	0.09
342.448	0.06
342.658	0.12
342.867	0.11
343.077	0.06
343.286	0.11
343.496	0.12
343.706	0.14
343.915	-0
344.125	0.09
344.334	0.09
344.544	-0.01
344.753	0.08
344.963	0.11
345.172	0.03
345.381	0.05
345.591	0.04
345.8	0.11
346.01	0.14
346.219	0.14
346.428	-0.09
346.638	0.04
346.847	0.11
347.056	0.17
347.266	0.04
347.475	0.11
347.684	0.12
347.893	0.09
348.103	0.09
348.312	0.09
348.521	0.06
348.73	0.12
348.94	0.12
349.149	0.07
349.358	0.07
349.567	0.05
349.776	0
349.985	0.06
350.194	0.09
350.403	0.14
350.612	0.03
350.821	0.06
351.03	0.09
351.239	0.04
351.448	0.06
351.657	0.05
351.866	0.16
352.075	0.13
352.284	0.16
352.493	0
352.702	0.11
352.911	0.11
353.12	0.09
353.329	0.05
353.538	0.11
353.746	0.06
353.955	0.05
354.164	0.14
354.373	0.08
354.582	0.13
354.79	0.12
354.999	0.09
355.208	0.09
355.416	0.2
355.625	0.05
355.834	0.08
356.042	0.1
356.251	0.08
356.46	0.02
356.668	0.11
356.877	0.15
357.085	0.08
357.294	-0.01
357.503	0.12
357.711	0.09
357.92	0.18
358.128	0.1
358.337	0.07
358.545	0.13
358.754	0.08
358.962	0.1
359.17	0.08
359.379	0.1
359.587	0.14
359.796	0.08
360.004	0.13
360.212	0.15
360.421	0.14
360.629	0.05
360.837	0.09
361.046	0.11
361.254	0.19
361.462	0.08
361.67	0.07
361.879	0.14
362.087	0.15
362.295	0.09
362.503	0.08
362.711	0.02
362.92	0.06
363.128	0.04
363.336	0.07
363.544	0.06
363.752	0.08
363.96	0.08
364.168	0.09
364.376	0.09
364.584	0.13
364.792	0.14
365	0.13
365.208	0.11
365.416	0.14
365.624	0.11
365.832	0.03
366.04	0.15
366.248	0.09
366.456	0.08
366.664	0.13
366.872	0.1
367.079	0.06
367.287	0.06
367.495	0.14
367.703	0.06
367.911	0.07
368.118	0.08
368.326	0.06
368.534	0.02
368.742	0.13
368.949	0.02
369.157	0.08
369.365	0.13
369.572	0.08
369.78	0.08
369.988	0.16
370.195	0.15
370.403	0.13
370.61	0.03
370.818	0.09
371.026	0.13
371.233	0.03
371.441	0.09
371.648	0.03
371.856	0.07
372.063	0.11
372.271	0.08
372.478	0.07
372.685	0.07
372.893	0.07
373.1	0.05
373.308	0.06
373.515	0.18
373.722	0.12
373.93	0.06
374.137	0.09
374.344	0.15
374.552	0.14
374.759	0.14
374.966	0.11
375.173	0.06
375.381	0.16
375.588	0.06
375.795	0.03
376.002	0.08
376.209	0.05
376.417	0.11
376.624	0.08
376.831	0.12
377.038	0.08
377.245	0.04
377.452	0.07
377.659	0.09
377.866	0.06
378.073	0.04
378.28	0.11
378.487	0.1
378.694	0.08
378.901	0.06
379.108	0.11
379.315	0.11
379.522	0.16
379.729	0.09
379.936	0.1
380.143	0.08
380.35	0.08
380.557	0.06
380.763	0.06
380.97	0.14
381.177	0.12
381.384	0.1
381.591	0.03
381.797	0.13
382.004	0.09
382.211	0.11
382.418	0.12
382.624	0.13
382.831	0.13
383.038	0.1
383.244	0.11
383.451	0.1
383.658	0.12
383.864	0.1
384.071	0.08
384.277	0.14
384.484	0.07
384.69	0.14
384.897	0.09
385.103	0.06
385.31	0.05
385.516	0.09
385.723	0.08
385.929	0.09
386.136	0.1
386.342	0.13
386.549	0.08
386.755	0.16
386.961	0.12
387.168	0.09
387.374	0.12
387.58	0.13
387.787	0.1
387.993	0.1
388.199	0.07
388.406	0.06
388.612	0.05
388.818	0.06
389.024	0.1
389.231	0.12
389.437	0.16
389.643	0.14
389.849	0.1
390.055	0.08
390.261	0.1
390.467	0.11
390.674	0.08
390.88	0.09
391.086	0.12
391.292	0.06
391.498	0.18
391.704	0.12
391.91	0.09
392.116	0.05
392.322	0
392.528	0.15
392.734	0.08
392.94	0.11
393.146	0.08
393.352	0.1
393.557	0.09
393.763	0.07
393.969	0.14
394.175	0.1
394.381	0.1
394.587	0.04
394.792	0.07
394.998	0.15
395.204	0.13
395.41	0.11
395.615	0.12
395.821	0.14
396.027	0.15
396.233	0.07
396.438	0.11
396.644	0.18
396.85	0.12
397.055	0.11
397.261	0.08
397.466	0.09
397.672	0.11
397.878	0.13
398.083	0.15
398.289	0.08
398.494	0.15
398.7	0.1
398.905	0.04
399.111	0.11
399.316	0.06
399.522	0.13
399.727	0.09
399.932	0.1
400.138	0.13
400.343	0.13
400.549	0.11
400.754	0.1
400.959	0.09
401.165	0.12
401.37	0.1
401.575	0.17
401.78	0.08
401.986	0.14
402.191	0.1
402.396	0.13
402.601	0.13
402.807	0.14
403.012	0.1
403.217	0.16
403.422	0.12
403.627	0.09
403.832	0.1
404.037	0.13
404.243	0.13
404.448	0.08
404.653	0.09
404.858	0.12
405.063	0.14
405.268	0.05
405.473	0.08
405.678	0.12
405.883	0.27
406.088	0.17
406.293	0.08
406.498	0.05
406.703	0.19
406.907	0.11
407.112	0.1
407.317	0.16
407.522	0.15
407.727	0.07
407.932	0.12
408.136	0.2
408.341	0.17
408.546	0.15
408.751	0.11
408.956	0.16
409.16	0.11
409.365	0.12
409.57	0.12
409.774	0.12
409.979	0.13
410.184	0.15
410.388	0.03
410.593	0.13
410.798	0.15
411.002	0.08
411.207	0.14
411.411	0.12
411.616	0.07
411.82	0.11
412.025	0.12
412.229	0.1
412.434	0.2
412.638	0.12
412.843	0.09
413.047	0.19
413.252	0.09
413.456	0.12
413.66	0.14
413.865	0.06
414.069	0.19
414.273	0.1
414.478	0.07
414.682	0.08
414.886	0.1
415.091	0.05
415.295	0.09
415.499	0.17
415.703	0.1
415.908	0.16
416.112	0.07
416.316	0.17
416.52	0.14
416.724	0.06
416.929	0.03
417.133	0.23
417.337	0.06
417.541	0.07
417.745	0.16
417.949	0.16
418.153	0.15
418.357	0.1
418.561	0.17
418.765	0.14
418.969	0.22
419.173	0.17
419.377	0.13
419.581	0.2
419.785	0.16
419.989	0.08
420.193	0.12
420.397	0.13
420.601	0.21
420.804	0.17
421.008	0.19
421.212	0.16
421.416	0.11
421.62	0.11
421.823	0.12
422.027	0.18
422.231	0.15
422.435	0.14
422.638	0.13
422.842	0.15
423.046	0.12
423.249	0.16
423.453	0.2
423.657	0.17
423.86	0.16
424.064	0.13
424.268	0.2
424.471	0.16
424.675	0.23
424.878	0.2
425.082	0.1
425.285	0.19
425.489	0.14
425.692	0.1
425.896	0.11
426.099	0.19
426.303	0.09
426.506	0.07
426.71	0.2
426.913	0.2
427.116	0.23
427.32	0.17
427.523	0.16
427.726	0.23
427.93	0.15
428.133	0.15
428.336	0.11
428.54	0.12
428.743	0.17
428.946	0.21
429.149	0.1
429.353	0.16
429.556	0.15
429.759	0.16
429.962	0.15
430.165	0.14
430.368	0.11
430.571	0.17
430.775	0.18
430.978	0.14
431.181	0.19
431.384	0.18
431.587	0.12
431.79	0.16
431.993	0.07
432.196	0.15
432.399	0.17
432.602	0.19
432.805	0.17
433.008	0.11
433.211	0.08
433.414	0.17
433.616	0.22
433.819	0.17
434.022	0.03
434.225	0.21
434.428	0.15
434.631	0.27
434.833	0.19
435.036	0.14
435.239	0.23
435.442	0.13
435.645	0.15
435.847	0.17
436.05	0.18
436.253	0.17
436.455	0.1
436.658	0.11
436.861	0.25
437.063	0.1
437.266	0.15
437.468	0.16
437.671	0.32
437.874	0.2
438.076	0.1
438.279	0.09
438.481	0.14
438.684	0.14
438.886	0.2
439.089	0.07
439.291	0.17
439.494	0.16
439.696	0.09
439.899	0.13
440.101	0.16
440.303	0.13
440.506	0.2
440.708	0.19
440.91	0.23
441.113	0.14
441.315	0.22
441.517	0.13
441.72	0.2
441.922	0.15
442.124	0.15
442.326	0.16
442.529	0.26
442.731	0.13
442.933	0.23
443.135	0.15
443.337	0.13
443.539	0.13
443.742	0.14
443.944	0.17
444.146	0.17
444.348	0.17
444.55	0.17
444.752	0.21
444.954	0.1
445.156	0.18
445.358	0.13
445.56	0.22
445.762	0.2
445.964	0.17
446.166	0.18
446.368	0.14
446.57	0.2
446.772	0.16
446.974	0.15
447.175	0.19
447.377	0.19
447.579	0.17
447.781	0.08
447.983	0.22
448.184	0.17
448.386	0.21
448.588	0.13
448.79	0.2
448.991	0.17
449.193	0.18
449.395	0.16
449.597	0.28
449.798	0.22
450	0.17
450.202	0.14
450.403	0.18
450.605	0.23
450.806	0.17
451.008	0.11
451.21	0.19
451.411	0.18
451.613	0.13
451.814	0.23
452.016	0.26
452.217	0.18
452.419	0.23
452.62	0.19
452.821	0.24
453.023	0.29
453.224	0.26
453.426	0.21
453.627	0.17
453.828	0.26
454.03	0.19
454.231	0.21
454.432	0.16
454.634	0.32
454.835	0.21
455.036	0.11
455.238	0.24
455.439	0.3
455.64	0.14
455.841	0.17
456.042	0.34
456.244	0.25
456.445	0.16
456.646	0.17
456.847	0.2
457.048	0.23
457.249	0.24
457.45	0.44
457.651	0.16
457.852	0.24
458.054	0.25
458.255	0.22
458.456	0.29
458.657	0.29
458.858	0.14
459.058	0.23
459.259	0.21
459.46	0.23
459.661	0.18
459.862	0.31
460.063	0.2
460.264	0.28
460.465	0.2
460.666	0.34
460.866	0.24
461.067	0.2
461.268	0.18
461.469	0.2
461.67	0.22
461.87	0.22
462.071	0.18
462.272	0.17
462.473	0.24
462.673	0.26
462.874	0.19
463.075	0.26
463.275	0.21
463.476	0.25
463.676	0.25
463.877	0.24
464.078	0.19
464.278	0.31
464.479	0.25
464.679	0.23
464.88	0.25
465.08	0.36
465.281	0.21
465.481	0.27
465.682	0.25
465.882	0.29
466.083	0.25
466.283	0.26
466.483	0.27
466.684	0.26
466.884	0.25
467.085	0.26
467.285	0.33
467.485	0.25
467.686	0.26
467.886	0.23
468.086	0.25
468.286	0.3
468.487	0.31
468.687	0.23
468.887	0.24
469.087	0.28
469.287	0.31
469.488	0.17
469.688	0.32
469.888	0.34
470.088	0.33
470.288	0.43
470.488	0.39
470.688	0.28
470.888	0.28
471.088	0.29
471.288	0.35
471.488	0.37
471.688	0.38
471.888	0.3
472.088	0.35
472.288	0.39
472.488	0.33
472.688	0.34
472.888	0.38
473.088	0.39
473.288	0.39
473.488	0.37
473.688	0.46
473.887	0.4
474.087	0.38
474.287	0.39
474.487	0.38
474.687	0.45
474.886	0.4
475.086	0.41
475.286	0.41
475.486	0.41
475.685	0.43
475.885	0.43
476.085	0.46
476.284	0.46
476.484	0.48
476.684	0.49
476.883	0.56
477.083	0.5
477.282	0.48
477.482	0.55
477.681	0.6
477.881	0.5
478.08	0.52
478.28	0.49
478.479	0.57
478.679	0.61
478.878	0.56
479.078	0.55
479.277	0.61
479.477	0.59
479.676	0.62
479.875	0.6
480.075	0.55
480.274	0.65
480.473	0.66
480.673	0.63
480.872	0.72
481.071	0.67
481.271	0.72
481.47	0.69
481.669	0.7
481.868	0.67
482.067	0.73
482.267	0.67
482.466	0.72
482.665	0.73
482.864	0.74
483.063	0.78
483.262	0.84
483.461	0.88
483.661	0.91
483.86	0.88
484.059	0.9
484.258	0.89
484.457	0.89
484.656	0.92
484.855	1.02
485.054	0.94
485.253	0.98
485.452	0.93
485.651	1.05
485.849	1.01
486.048	1.07
486.247	1.08
486.446	1.12
486.645	1.09
486.844	1.12
487.043	1.15
487.241	1.23
487.44	1.17
487.639	1.23
487.838	1.3
488.037	1.31
488.235	1.37
488.434	1.38
488.633	1.3
488.831	1.45
489.03	1.44
489.229	1.46
489.427	1.44
489.626	1.55
489.825	1.57
490.023	1.6
490.222	1.56
490.42	1.63
490.619	1.72
490.817	1.7
491.016	1.69
491.214	1.81
491.413	1.81
491.611	1.79
491.81	1.82
492.008	1.9
492.207	1.99
492.405	2
492.604	1.97
492.802	2.08
493	2.1
493.199	2.14
493.397	2.19
493.595	2.23
493.794	2.19
493.992	2.38
494.19	2.33
494.388	2.45
494.587	2.41
494.785	2.44
494.983	2.41
495.181	2.53
495.379	2.61
495.578	2.7
495.776	2.72
495.974	2.68
496.172	2.8
496.37	2.91
496.568	2.97
496.766	2.97
496.964	3.05
497.162	3.09
497.36	3.18
497.558	3.23
497.756	3.37
497.954	3.39
498.152	3.51
498.35	3.56
498.548	3.51
498.746	3.65
498.944	3.64
499.142	3.72
499.34	3.84
499.538	4.03
499.736	3.96
499.933	4.09
500.131	4.14
500.329	4.33
500.527	4.3
500.725	4.53
500.922	4.53
501.12	4.58
501.318	4.72
501.516	4.76
501.713	4.84
501.911	4.88
502.109	4.89
502.306	5.11
502.504	5.08
502.701	5.25
502.899	5.33
503.097	5.58
503.294	5.5
503.492	5.74
503.689	5.87
503.887	5.84
504.084	5.99
504.282	6.02
504.479	6.12
504.677	6.39
504.874	6.4
505.072	6.31
505.269	6.7
505.466	6.76
505.664	6.93
505.861	6.9
506.059	7.07
506.256	7.05
506.453	7.28
506.651	7.46
506.848	7.72
507.045	7.64
507.242	7.77
507.44	7.85
507.637	8.04
507.834	8.05
508.031	8.38
508.229	8.35
508.426	8.37
508.623	8.63
508.82	8.8
509.017	8.78
509.214	8.81
509.411	9.22
509.608	9.18
509.805	9.44
510.003	9.51
510.2	9.6
510.397	9.86
510.594	9.81
510.791	10.01
510.988	10.11
511.184	10.07
511.381	10.04
511.578	10.35
511.775	10.59
511.972	10.56
512.169	10.78
512.366	10.83
512.563	11.05
512.76	11.28
512.956	11.31
513.153	11.3
513.35	11.21
513.547	11.4
513.744	11.62
513.94	11.65
514.137	11.86
514.334	11.94
514.53	12.04
514.727	12.51
514.924	12.19
515.12	12.32
515.317	12.41
515.514	12.3
515.71	12.32
515.907	12.77
516.103	12.84
516.3	12.68
516.497	12.94
516.693	13
516.89	13.01
517.086	13.15
517.283	13.06
517.479	12.88
517.676	13.32
517.872	13.3
518.068	13.33
518.265	13.42
518.461	13.29
518.658	13.57
518.854	13.5
519.05	13.66
519.247	13.66
519.443	13.5
519.639	13.78
519.836	13.44
520.032	13.45
520.228	13.74
520.424	13.56
520.621	13.67
520.817	13.72
521.013	13.49
521.209	13.89
521.405	13.77
521.601	13.68
521.798	13.53
521.994	13.48
522.19	13.36
522.386	13.36
522.582	13.54
522.778	13.67
522.974	13.37
523.17	13.35
523.366	13.1
523.562	13.22
523.758	13.2
523.954	12.85
524.15	13.1
524.346	13.11
524.542	13.13
524.738	12.83
524.934	12.96
525.129	12.83
525.325	12.57
525.521	12.53
525.717	12.75
525.913	12.39
526.109	12.27
526.304	12.42
526.5	12.34
526.696	12.28
526.892	12.01
527.087	12.3
527.283	12.02
527.479	11.86
527.674	11.48
527.87	11.6
528.066	11.48
528.261	11.52
528.457	11.22
528.653	11.42
528.848	11.26
529.044	11.21
529.239	10.89
529.435	10.74
529.63	10.66
529.826	10.56
530.021	10.5
530.217	10.49
530.412	10.35
530.608	10.31
530.803	10.18
530.999	9.94
531.194	10
531.389	9.89
531.585	9.79
531.78	9.85
531.975	9.65
532.171	9.55
532.366	9.5
532.561	9.35
532.757	9.19
532.952	9.26
533.147	8.92
533.342	8.99
533.538	8.74
533.733	8.9
533.928	8.46
534.123	8.57
534.318	8.57
534.513	8.3
534.709	8.38
534.904	8.28
535.099	8.22
535.294	8.11
535.489	8.04
535.684	7.86
535.879	7.76
536.074	7.82
536.269	7.68
536.464	7.63
536.659	7.49
536.854	7.38
537.049	7.37
537.244	7.2
537.439	7.18
537.634	7.11
537.828	7.09
538.023	6.94
538.218	6.83
538.413	6.68
538.608	6.72
538.803	6.68
538.997	6.6
539.192	6.53
539.387	6.4
539.582	6.39
539.776	6.22
539.971	6.29
540.166	6.2
540.36	6.1
540.555	6.08
540.75	5.99
540.944	5.91
541.139	5.89
541.334	5.81
541.528	5.7
541.723	5.71
541.917	5.65
542.112	5.48
542.306	5.41
542.501	5.36
542.695	5.4
542.89	5.23
543.084	5.26
543.279	5.2
543.473	5.17
543.668	5.13
543.862	4.96
544.056	4.93
544.251	4.91
544.445	4.89
544.64	4.82
544.834	4.56
545.028	4.45
545.222	4.6
545.417	4.71
545.611	4.56
545.805	4.46
546	4.26
546.194	4.38
546.388	4.32
546.582	4.21
546.776	4.19
546.97	4.18
547.165	4.12
547.359	4.02
547.553	3.95
547.747	3.94
547.941	3.98
548.135	3.89
548.329	3.82
548.523	3.78
548.717	3.72
548.911	3.65
549.105	3.6
549.299	3.61
549.493	3.58
549.687	3.48
549.881	3.48
550.075	3.41
550.269	3.31
550.463	3.33
550.657	3.27
550.85	3.21
551.044	3.14
551.238	3.17
551.432	3.16
551.626	3.07
551.82	3.08
552.013	2.94
552.207	2.97
552.401	2.96
552.594	2.86
552.788	2.8
552.982	2.77
553.176	2.7
553.369	2.81
553.563	2.72
553.756	2.64
553.95	2.62
554.144	2.57
554.337	2.64
554.531	2.51
554.724	2.5
554.918	2.47
555.111	2.44
555.305	2.39
555.498	2.37
555.692	2.35
555.885	2.28
556.079	2.26
556.272	2.23
556.466	2.24
556.659	2.19
556.852	2.18
557.046	2.13
557.239	2.07
557.432	2.04
557.626	2.02
557.819	2.09
558.012	2.03
558.206	2.01
558.399	1.93
558.592	1.9
558.785	1.85
558.979	1.87
559.172	1.81
559.365	1.82
559.558	1.78
559.751	1.75
559.944	1.77
560.138	1.74
560.331	1.71
560.524	1.69
560.717	1.66
560.91	1.62
561.103	1.62
561.296	1.56
561.489	1.59
561.682	1.58
561.875	1.55
562.068	1.57
562.261	1.48
562.454	1.51
562.647	1.44
562.84	1.47
563.032	1.43
563.225	1.4
563.418	1.36
563.611	1.38
563.804	1.37
563.997	1.29
564.19	1.25
564.382	1.34
564.575	1.27
564.768	1.28
564.961	1.25
565.153	1.23
565.346	1.24
565.539	1.23
565.731	1.23
565.924	1.2
566.117	1.22
566.309	1.16
566.502	1.09
566.695	1.09
566.887	1.14
567.08	1.11
567.272	1.01
567.465	1.02
567.657	1.02
567.85	1.03
568.042	1.02
568.235	1.03
568.427	1.01
568.62	0.96
568.812	0.99
569.005	0.95
569.197	0.93
569.389	0.96
569.582	0.96
569.774	0.93
569.966	0.86
570.159	0.85
570.351	0.9
570.543	0.85
570.736	0.86
570.928	0.79
571.12	0.84
571.312	0.81
571.505	0.77
571.697	0.85
571.889	0.78
572.081	0.78
572.273	0.73
572.465	0.78
572.658	0.75
572.85	0.75
573.042	0.75
573.234	0.69
573.426	0.74
573.618	0.68
573.81	0.71
574.002	0.71
574.194	0.73
574.386	0.66
574.578	0.58
574.77	0.64
574.962	0.65
575.154	0.61
575.346	0.64
575.538	0.62
575.729	0.58
575.921	0.62
576.113	0.6
576.305	0.63
576.497	0.57
576.689	0.54
576.88	0.57
577.072	0.59
577.264	0.56
577.456	0.55
577.647	0.51
577.839	0.56
578.031	0.55
578.223	0.5
578.414	0.46
578.606	0.54
578.798	0.5
578.989	0.47
579.181	0.51
579.372	0.49
579.564	0.48
579.755	0.48
579.947	0.47
580.139	0.47
580.33	0.41
580.522	0.46
580.713	0.37
580.905	0.44
581.096	0.49
581.287	0.45
581.479	0.45
581.67	0.44
581.862	0.43
582.053	0.41
582.244	0.37
582.436	0.37
582.627	0.39
582.818	0.39
583.01	0.35
583.201	0.42
583.392	0.41
583.583	0.38
583.775	0.36
583.966	0.33
584.157	0.35
584.348	0.35
584.54	0.32
584.731	0.36
584.922	0.35
585.113	0.32
585.304	0.36
585.495	0.35
585.686	0.34
585.877	0.34
586.068	0.35
586.259	0.32
586.45	0.33
586.641	0.3
586.832	0.27
587.023	0.33
587.214	0.28
587.405	0.32
587.596	0.28
587.787	0.37
587.978	0.33
588.169	0.26
588.36	0.27
588.551	0.3
588.742	0.27
588.932	0.32
589.123	0.26
589.314	0.29
589.505	0.26
589.696	0.28
589.886	0.23
590.077	0.25
590.268	0.28
590.458	0.21
590.649	0.2
590.84	0.27
591.03	0.23
591.221	0.24
591.412	0.21
591.602	0.29
591.793	0.27
591.984	0.2
592.174	0.2
592.365	0.29
592.555	0.21
592.746	0.25
592.936	0.25
593.127	0.26
593.317	0.27
593.508	0.22
593.698	0.22
593.889	0.24
594.079	0.23
594.269	0.21
594.46	0.22
594.65	0.21
594.84	0.19
595.031	0.18
595.221	0.17
595.411	0.14
595.602	0.24
595.792	0.19
595.982	0.19
596.172	0.23
596.363	0.22
596.553	0.21
596.743	0.21
596.933	0.19
597.123	0.19
597.314	0.15
597.504	0.17
597.694	0.23
597.884	0.2
598.074	0.17
598.264	0.17
598.454	0.2
598.644	0.19
598.834	0.17
599.024	0.12
599.214	0.15
599.404	0.2
599.594	0.15
599.784	0.15
599.974	0.17
600.164	0.2
600.354	0.12
600.544	0.14
600.734	0.18
600.924	0.21
601.114	0.13
601.303	0.14
601.493	0.16
601.683	0.16
601.873	0.16
602.063	0.11
602.252	0.19
602.442	0.09
602.632	0.13
602.821	0.16
603.011	0.16
603.201	0.14
603.39	0.11
603.58	0.1
603.77	0.16
603.959	0.19
604.149	0.15
604.339	0.12
604.528	0.18
604.718	0.17
604.907	0.15
605.097	0.12
605.286	0.12
605.476	0.15
605.665	0.16
605.855	0.13
606.044	0.18
606.234	0.17
606.423	0.13
606.612	0.1
606.802	0.15
606.991	0.12
607.181	0.12
607.37	0.1
607.559	0.11
607.749	0.08
607.938	0.14
608.127	0.1
608.316	0.1
608.506	0.16
608.695	0.1
608.884	0.14
609.073	0.12
609.263	0.15
609.452	0.13
609.641	0.14
609.83	0.14
610.019	0.12
610.208	0.11
610.397	0.11
610.586	0.12
610.775	0.08
610.965	0.11
611.154	0.12
611.343	0.11
611.532	0.12
611.721	0.1
611.91	0.11
612.099	0.14
612.287	0.11
612.476	0.08
612.665	0.15
612.854	0.12
613.043	0.14
613.232	0.1
613.421	0.07
613.61	0.11
613.798	0.1
613.987	0.14
614.176	0.11
614.365	0.12
614.554	0.08
614.742	0.16
614.931	0.09
615.12	0.15
615.309	0.12
615.497	0.12
615.686	0.1
615.875	0.08
616.063	0.13
616.252	0.09
616.44	0.09
616.629	0.11
616.818	0.12
617.006	0.08
617.195	0.1
617.383	0.11
617.572	0.12
617.76	0.1
617.949	0.1
618.137	0.11
618.326	0.11
618.514	0.07
618.703	0.08
618.891	0.16
619.079	0.04
619.268	0.11
619.456	0.09
619.644	0.14
619.833	0.1
620.021	0.07
620.209	0.04
620.398	0.11
620.586	0.08
620.774	0.12
620.962	0.1
621.151	0.15
621.339	0.09
621.527	0.04
621.715	0.04
621.903	0.08
622.092	0.06
622.28	0.12
622.468	0.09
622.656	0.1
622.844	0.1
623.032	0.07
623.22	0.04
623.408	0.15
623.596	0.12
623.784	0.11
623.972	0.1
624.16	0.08
624.348	0.17
624.536	0.1
624.724	0.08
624.912	0.15
625.1	0.11
625.288	0.05
625.476	0.07
625.664	0.16
625.851	0.06
626.039	0.09
626.227	0.09
626.415	0.12
626.603	0.02
626.79	0.09
626.978	0.09
627.166	0.1
627.354	0.06
627.541	0.04
627.729	0.01
627.917	0.13
628.104	0.14
628.292	0.09
628.48	0.05
628.667	0.09
628.855	0.09
629.042	0.12
629.23	0.07
629.418	0.1
629.605	0.08
629.793	0.07
629.98	0.05
630.168	0.08
630.355	0.07
630.543	0.1
630.73	0.04
630.917	0.11
631.105	0.14
631.292	0.09
631.48	0.1
631.667	0.14
631.854	0.09
632.042	0.1
632.229	0.05
632.416	0.06
632.604	0.05
632.791	0.07
632.978	0.08
633.165	0.09
633.353	0.16
633.54	0.12
633.727	0.01
633.914	0.08
634.101	0.02
634.289	0.12
634.476	0.03
634.663	0.08
634.85	0.11
635.037	0.08
635.224	0.04
635.411	0.12
635.598	0.13
635.785	0.06
635.972	0.09
636.159	0.13
636.346	0.06
636.533	0.1
636.72	0.07
636.907	0.05
637.094	0.07
637.281	0.08
637.468	0.06
637.655	0.08
637.842	0.07
638.029	0.06
638.215	0.11
638.402	0.07
638.589	0.07
638.776	0.06
638.963	0.06
639.149	0.12
639.336	0.17
639.523	0.08
639.709	0.09
639.896	0.06
640.083	0.14
640.27	0.07
640.456	0.06
640.643	0.1
640.829	0.05
641.016	0.07
641.203	0.04
641.389	0.1
641.576	0.1
641.762	0.08
641.949	0.03
642.135	0.08
642.322	0.11
642.508	0.02
642.695	0.09
642.881	0.08
643.068	0.08
643.254	0.07
643.441	0.12
643.627	0.06
643.813	0.04
644	0.1
644.186	0.05
644.372	0.05
644.559	0.11
644.745	0.07
644.931	0.06
645.118	0.06
645.304	0.09
645.49	0.03
645.676	0.04
645.862	0.06
646.049	0.13
646.235	0.07
646.421	0.11
646.607	0.15
646.793	0.07
646.979	0.04
647.165	0.09
647.352	0.11
647.538	0.11
647.724	0.07
647.91	0.07
648.096	0.11
648.282	0.12
648.468	0.07
648.654	0.04
648.84	0.08
649.026	0.07
649.212	0.1
649.397	0.04
649.583	0.03
649.769	0.06
649.955	0.07
650.141	0.08
650.327	0.13
650.513	0.04
650.698	0.09
650.884	0.01
651.07	0.11
651.256	0.1
651.442	0.07
651.627	0.06
651.813	0.08
651.999	0.07
652.184	0.1
652.37	0.07
652.556	0.04
652.741	0.14
652.927	0.01
653.113	0.05
653.298	0.07
653.484	0.04
653.669	0.01
653.855	0.06
654.04	0.1
654.226	0.08
654.412	0.08
654.597	0.04
654.782	0.09
654.968	0.12
655.153	0.11
655.339	0.06
655.524	0.03
655.71	0.08
655.895	0.07
656.08	0.08
656.266	0.1
656.451	0.08
656.636	0.03
656.822	0.11
657.007	0.02
657.192	0.07
657.378	0.01
657.563	0.06
657.748	0.1
657.933	0.08
658.118	0.04
658.304	0.07
658.489	0.1
658.674	0.11
658.859	0.06
659.044	0.11
659.229	0.1
659.414	0.08
659.599	0.06
659.785	0.02
659.97	0.07
660.155	0.09
660.34	0.1
660.525	0.05
660.71	0.07
660.895	0.15
661.08	0.06
661.264	0.09
661.449	0.13
661.634	0.09
661.819	0.1
662.004	0.07
662.189	-0.01
662.374	0.05
662.559	0.07
662.743	0.05
662.928	0.08
663.113	0.05
663.298	0.05
663.483	0.09
663.667	0.1
663.852	0.03
664.037	0.11
664.221	0.06
664.406	0.14
664.591	0.09
664.775	0.08
664.96	0.02
665.145	0.1
665.329	0.12
665.514	0.06
665.698	0.09
665.883	-0
666.068	0.12
666.252	0.1
666.437	0.01
666.621	0.09
666.806	0.08
666.99	0.1
667.174	0.05
667.359	0.12
667.543	0.08
667.728	0.08
667.912	0.03
668.096	0.09
668.281	0.12
668.465	0.14
668.649	0.11
668.834	0.04
669.018	0.12
669.202	0.08
669.387	0.08
669.571	0.16
669.755	0.03
669.939	0.11
670.124	0.09
670.308	0.15
670.492	0.11
670.676	0.07
670.86	0.07
671.044	0.09
671.228	0.15
671.413	0.1
671.597	0.06
671.781	0.05
671.965	0.12
672.149	0.09
672.333	0.13
672.517	0.08
672.701	0.09
672.885	0.06
673.069	0.02
673.253	0.17
673.437	0.12
673.621	0.1
673.804	0.08
673.988	0.07
674.172	0.12
674.356	0
674.54	0.1
674.724	0.16
674.908	0.11
675.091	0.13
675.275	0.12
675.459	0.12
675.643	0.18
675.826	0.1
676.01	0.11
676.194	0.07
676.377	0.13
676.561	0.11
676.745	0.11
676.928	0.11
677.112	0.11
677.296	0.08
677.479	0.09
677.663	0.1
677.846	0.12
678.03	0.11
678.213	0.07
678.397	0.13
678.58	0.08
678.764	0.1
678.947	0.06
679.131	0.07
679.314	0.17
679.498	0.07
679.681	0.12
679.865	0.15
680.048	0.15
680.231	0.07
680.415	0.12
680.598	0.12
680.781	0.07
680.965	0.12
681.148	0.06
681.331	0.09
681.514	0.15
681.698	0.09
681.881	0.12
682.064	0.11
682.247	0.14
682.43	-0
682.614	0.14
682.797	0.12
682.98	0.14
683.163	0.05
683.346	0.12
683.529	0.1
683.712	0.04
683.895	0.11
684.078	0.06
684.261	0.06
684.444	0.13
684.627	0.11
684.81	0.08
684.993	0.06
685.176	0.15
685.359	0.07
685.542	0.06
685.725	0.15
685.908	0.08
686.091	0.08
686.274	0.13
686.457	0.17
686.639	0.07
686.822	0.1
687.005	0.16
687.188	0.13
687.371	0.14
687.553	0.13
687.736	0.14
687.919	0.16
688.102	0.15
688.284	0.1
688.467	0.11
688.65	0.08
688.832	0.04
689.015	0.11
689.197	0.02
689.38	0.21
689.563	0.17
689.745	0.1
689.928	0.08
690.11	0.09
690.293	0.09
690.475	0.01
690.658	0.1
690.84	0.08
691.023	0.08
691.205	0.06
691.388	0.12
691.57	0.19
691.752	0.13
691.935	0.02
692.117	0.05
692.3	0.11
692.482	0.08
692.664	0.11
692.847	0.07
693.029	0.13
693.211	0.16
693.393	0.07
693.576	0.07
693.758	0.04
693.94	0.05
694.122	0.05
694.304	0.1
694.487	0.12
694.669	0.19
694.851	0.04
695.033	0.1
695.215	0.05
695.397	0.09
695.579	0.12
695.761	0.07
695.943	-0.01
696.125	0.17
696.308	0.08
696.49	0.02
696.671	0.21
696.853	0.08
697.035	0.22
697.217	0.06
697.399	0.16
697.581	0.08
697.763	0.13
697.945	0.05
698.127	0.08
698.309	0.12
698.491	0.13
698.672	0.14
698.854	0.1
699.036	0.17
699.218	0.06
699.399	0.16
699.581	0.15
699.763	0.11
699.945	0.06
700.126	0.06
700.308	0.12
700.49	0.12
700.671	0.02
700.853	0.08
701.035	0.08
701.216	0.09
701.398	0.02
701.579	0.11
701.761	0.13
701.943	0.02
702.124	0.09
702.306	0.11
702.487	0.22
702.669	0.03
702.85	0.1
703.031	0.04
703.213	0.22
703.394	0.16
703.576	0.07
703.757	0.19
703.938	0.19
704.12	0.22
704.301	0.11
704.483	0.09
704.664	0.14
704.845	0.25
705.026	0.12
705.208	0.16
705.389	0.13
705.57	0.11
705.751	0.07
705.933	0.07
706.114	0.16
706.295	0.14
706.476	0.06
706.657	0.19
706.838	0.19
707.02	0.13
707.201	0.09
707.382	0.06
707.563	0.14
707.744	0.09
707.925	0.01
708.106	0.1
708.287	0.19
708.468	0.21
708.649	0.04
708.83	0.1
709.011	0.08
709.192	0.12
709.373	0.01
709.554	0.07
709.734	0.17
709.915	0.1
710.096	0.05
710.277	0.05
710.458	0.13
710.639	0.16
710.819	-0.02
711	0.11
711.181	0.19
711.362	0.09
711.542	0.15
711.723	0.11
711.904	0.17
712.085	0.13
712.265	0.13
712.446	0.05
712.627	0.09
712.807	0.1
712.988	0.15
713.168	0.03
713.349	0.17
713.53	-0.04
713.71	0.07
713.891	0.01
714.071	0.18
714.252	0.04
714.432	0.06
714.613	0.05
714.793	0.11
714.974	0.13
715.154	0.13
715.334	0.18
715.515	0.19
715.695	0.03
715.876	0.06
716.056	0.1
716.236	0.06
716.417	0.12
716.597	-0.01
716.777	0.24
716.957	0.08
717.138	0.13
717.318	0.18
717.498	0.05
717.678	0.07
717.859	0.17
718.039	0.02
718.219	0.12
718.399	0.14
718.579	0.08
718.759	0.05
718.939	0.12
719.12	0.12
719.3	0.08
719.48	-0.03
719.66	0.05
719.84	0.17
720.02	0.11
720.2	0.11
720.38	0.11
720.56	0.2
720.74	0.02
720.92	0.08
721.1	0.18
721.279	0.22
721.459	0.1
721.639	0.04
721.819	0.14
721.999	0.07
722.179	0.14
722.359	-0.02
722.538	0.07
722.718	0.15
722.898	0.12
723.078	0.07
723.257	0.02
723.437	0.13
723.617	0.12
723.797	0.06
723.976	0.09
724.156	0.13
724.336	0.14
724.515	0.19
724.695	-0.01
724.874	0.07
725.054	0.2
725.234	0.02
725.413	0.13
725.593	0.04
725.772	0.17
725.952	0.16
726.131	0.11
726.311	0.17
726.49	0.13
726.67	0.04
726.849	0.02
727.028	0.16
727.208	0.07
727.387	0.21
727.567	-0.07
727.746	0.09
727.925	0.05
728.105	-0
728.284	0.03
728.463	-0
728.643	0.19
728.822	0.01
729.001	0.1
729.18	0.17
729.359	0.21
729.539	0.22
729.718	0.08
729.897	0.09
730.076	0.15
730.255	-0.02
730.434	0.07
730.614	0.15
730.793	0.19
730.972	0.06
731.151	0.09
731.33	0.12
731.509	0.13
731.688	0.15
731.867	0.11
732.046	0.06
732.225	0.29
732.404	0.02
732.583	0.08
732.762	0.15
732.941	0.19
733.12	0.22
733.298	0.12
733.477	0.11
733.656	0.06
733.835	-0.04
734.014	0.2
734.193	0.08
734.371	0.19
734.55	0.22
734.729	0.06
734.908	0.13
735.086	0.19
735.265	0.25
735.444	0
735.623	0.04
735.801	0.11
735.98	0.17
736.159	0.13
736.337	0.21
736.516	0.11
736.694	0.17
736.873	0.04
737.052	0.26
737.23	0.21
737.409	-0.01
737.587	0.29
737.766	-0.03
737.944	0.07
738.123	0.19
738.301	0.2
738.479	0.08
738.658	0.09
738.836	-0.06
739.015	0.11
739.193	0.22
739.371	0.06
739.55	0.1
739.728	0.03
739.906	0.26
740.085	0.27
740.263	0.19
740.441	0.01
740.62	0.31
740.798	0.23
740.976	0.09
741.154	0.16
741.332	0.21
741.511	0.08
741.689	0.15
741.867	0.19
742.045	0.03
742.223	0.18
742.401	-0.04
742.579	0.12
742.757	0.22
742.935	0.09
743.114	0.09
743.292	0.07
743.47	0.15
743.648	0.17
743.826	-0.05
744.004	0.21
744.181	0.16
744.359	0.06
744.537	0.02
744.715	0.1
744.893	0.07
745.071	0.09
745.249	0.1
745.427	0.07
745.605	0.24
745.782	0.11
745.96	0.2
746.138	0.01
746.316	0.3
746.493	0.03
746.671	0.17
746.849	0.06
747.027	0.2
747.204	-0.01
747.382	0.2
747.56	0.02
747.737	0.16
747.915	0.06
748.093	0.08
748.27	0.1
748.448	0.06
748.625	-0
748.803	0.04
748.98	0.04
749.158	0.18
749.335	0.21
749.513	0.13
749.69	0.06
749.868	0.14
750.045	0.17
750.223	0.05
750.4	-0.1
750.578	0.31
750.755	0.08
750.932	0.04
751.11	0.23
751.287	0.04
751.464	0.2
751.642	0.04
751.819	0.12
751.996	0.12
752.173	0.04
752.351	-0.01
752.528	0.16
752.705	0.08
752.882	0.05
753.06	0.23
753.237	0.25
753.414	0.3
753.591	0.18
753.768	0.12
753.945	0.05
754.122	-0.04
754.299	0.21
754.476	-0.02
754.654	0.09
754.831	0.12
755.008	0.19
755.185	0.01
755.362	0.04
755.539	0.23
755.716	0.03
755.892	0.15
756.069	0.1
756.246	0.03
756.423	0.07
756.6	0.15
756.777	0.14
756.954	0.27
757.131	0.07
757.307	-0.01
757.484	0.01
757.661	0.08
757.838	0.11
758.015	-0.03
758.191	0.12
758.368	0.21
758.545	0.27
758.721	0.19
758.898	0.11
759.075	0.06
759.251	0.11
759.428	0.09
759.605	-0.07
759.781	0.06
759.958	0.27
760.134	0.13
760.311	-0.05
760.488	0.18
760.664	0.17
760.841	0.14
761.017	0.04
761.194	0.26
761.37	0.19
761.547	0.13
761.723	0.05
761.899	0.26
762.076	-0.05
762.252	0.1
762.429	0.14
762.605	0.32
762.781	0.05
762.958	0.21
763.134	0.16
763.31	0.1
763.486	0.33
763.663	-0.07
763.839	0.23
764.015	-0.05
764.191	0.08
764.368	0.13
764.544	0.06
764.72	0.21
764.896	0.12
765.072	0.15
765.248	0.11
765.425	0.12
765.601	0.11
765.777	0.13
765.953	-0.08
766.129	0.06
766.305	0.05
766.481	0.07
766.657	0.19
766.833	0.23
767.009	0.04
767.185	0.18
767.361	0.09
767.537	0.01
767.713	0.25
767.889	-0
768.065	0.13
768.24	0.18
768.416	0.2
768.592	0.02
768.768	0.18
768.944	0.1
769.12	0.03
769.295	0.04
769.471	0.1
769.647	0.15
769.823	0.28
769.998	-0
770.174	-0.04
770.35	0.29
770.525	0.39
770.701	0.06
770.877	0.09
771.052	0.03
771.228	0.35
771.403	0.24
771.579	0.29
771.755	0.4
771.93	0.11
772.106	0.03
772.281	-0.06
772.457	0.14
772.632	0.32
772.808	-0.2
772.983	0.03
773.159	0.01
773.334	0.38
773.509	0.2
773.685	0.1
773.86	0.39
774.036	0.33
774.211	0.17
774.386	0
774.562	0.18
774.737	0.18
774.912	-0.07
775.087	0.09
775.263	0.21
775.438	0.04
775.613	0.02
775.788	0.25
775.964	0.09
776.139	0.5
776.314	0.03
776.489	0.17
776.664	0.16
776.839	-0.06
777.014	0.2
777.19	0.2
777.365	0.25
777.54	0.36
777.715	0.08
777.89	0.23
778.065	0.04
778.24	0.12
778.415	0.13
778.59	0.02
778.765	0.09
778.94	0.2
779.115	0.04
779.289	0.14
779.464	0.08
779.639	-0.01
779.814	-0.14
779.989	0.03
780.164	0.41
780.339	0.18
780.513	0.15
780.688	0.01
780.863	0.27
781.038	0.18
781.212	-0.04
781.387	0.21
781.562	0.42
781.737	0.13
781.911	0.24
782.086	0.11
782.261	0.14
782.435	0.33
782.61	0.1
782.784	0.22
782.959	0.28
783.134	0.08
783.308	0.11
783.483	0.08
783.657	0.54
783.832	0.26
784.006	-0.11
784.181	0.12
784.355	0.26
784.53	-0.1
784.704	0.02
784.878	0.28
785.053	0.28
785.227	0.34
785.402	0.53
785.576	0.08
785.75	0.21
785.925	0.32
786.099	0.19
786.273	0.17
786.448	0.37
786.622	0.31
786.796	0.13
786.97	0.03
787.145	0.62
787.319	-0.02
787.493	0
787.667	-0.24
787.841	0.09
788.015	0.39
788.19	-0.01
788.364	0.21
788.538	0.28
788.712	0.3
788.886	0.11
789.06	0.32
789.234	0.32
789.408	-0.18
789.582	0.22
789.756	0.02
789.93	0.15
790.104	0.14
790.278	0.05
790.452	0.26
790.626	0.17
790.8	-0.08
790.973	0.24
791.147	0.33
791.321	0.63
791.495	0.22
791.669	0.12
791.843	0.14
792.016	0.21
792.19	0.58
792.364	0
792.538	0.78
792.711	0.35
792.885	-0.01
793.059	-0.07
793.233	-0.25
793.406	0.31
793.58	0.15
793.754	0.16
793.927	0.05
794.101	0.33
794.274	0.14
794.448	0.28
794.622	-0.01
794.795	0.5
794.969	-0.05
795.142	0.43
795.316	0.25
795.489	0.05
795.663	0.32
795.836	-0.01
796.009	0.01
796.183	0.61
796.356	0.21
796.53	0.23
796.703	0
796.876	0.53
797.05	0.09
797.223	0.18
797.396	0.12
797.57	0.21
797.743	0.32
797.916	0.09
798.09	0.07
798.263	0.29
798.436	0.32
798.609	0.25
798.782	0.09
798.956	0.43
799.129	0.27
799.302	-0.02
799.475	0
799.648	-0.04
799.821	0.08
799.994	0.3
800.167	-0.12
800.34	0.22
800.514	0.09
800.687	0.3
800.86	0.21
801.033	-0.17
801.206	0.32
801.379	-0.02
801.551	0.4
801.724	0.42
801.897	0.64
802.07	0.38
802.243	-0.03
802.416	-0.23
802.589	0.03
802.762	0.04
802.935	0.23
803.107	0.55
803.28	0.45
803.453	0.23
803.626	-0.02
803.798	0.29
803.971	0.02
804.144	0.26
804.317	0.2
804.489	0.2
804.662	0.08
804.835	0.18
805.007	-0.17
805.18	0.63
805.353	0.22
805.525	-0.13
805.698	0.18
805.87	0.25
806.043	0.24
806.215	0.03
806.388	-0.34
806.56	0.62
806.733	0.63
806.905	0.54
807.078	0.29
807.25	-0.17
807.423	0.52
807.595	0.46
807.768	0.24
807.94	0.44
808.112	0.08
808.285	0.31
808.457	-0.31
808.629	0.12
808.802	0.3
808.974	0.03
809.146	0.25
809.318	0.11
809.491	0.3
809.663	0.56
809.835	0.02
810.007	0.76
810.18	0.19
810.352	-0.23
810.524	0.22
810.696	0.4
810.868	0.66
811.04	0.07
811.212	0.04
811.384	0.8
811.556	0.4
811.728	0.14
811.901	1.07
812.073	-0.12
812.245	0.62
812.417	0.16
812.589	-0.2
812.76	0.26
812.932	0.53
813.104	0.47
813.276	0.26
813.448	0.45
813.62	0.48
813.792	0.29
813.964	0.29
814.136	0.48
814.307	-0.24
814.479	-0.05
814.651	-0.17
814.823	1
814.995	0.11
815.166	0.64
815.338	0.04
815.51	-0.38
815.681	0.96
815.853	0.02
816.025	0.23
816.196	0.69
816.368	0.86
816.54	0.14
816.711	0.2
816.883	0.79
817.054	0.75
817.226	-0.33
817.398	0.62
817.569	0.11
817.741	0.41
817.912	0.17
818.084	0.19
818.255	0.4
818.426	0.23
818.598	0.23
818.769	0.37
818.941	0.49
819.112	1.16
819.283	0.73
819.455	0.09
819.626	0.33
819.798	0.72
819.969	0.11
820.14	-0.06
820.311	0.07
820.483	0.38
820.654	0.89
820.825	0.36
820.996	-0.02
821.168	0.14
821.339	0.39
821.51	-0.08
821.681	-0.03
821.852	0.56
822.023	-0.45
822.195	-0.61
822.366	0.62
822.537	0.11
822.708	0.37
822.879	-0.36
823.05	1.1
823.221	0.17
823.392	0.15
823.563	0.12
823.734	0.88
823.905	-0.23
824.076	0.11
824.247	-0.21
824.418	0.09
824.589	1.05
824.759	0.34
824.93	0.29
825.101	0.02
825.272	0.76
825.443	0.83
825.614	0.5
825.784	-0.39
825.955	0.61
826.126	1.1
826.297	0.57
826.467	0.82
826.638	0.83
826.809	-0.66
826.98	0.17
827.15	0.52
827.321	0.4
827.492	1.01
827.662	-0.02
827.833	1.62
828.003	0.58
828.174	-0.12
828.345	-0.06
828.515	0.8
828.686	0.8
828.856	0.17
829.027	0.22
829.197	0.69
829.368	0.86
829.538	0.31
829.709	0.02
829.879	0.54
830.049	0.38
830.22	0.27
830.39	0.59
830.56	0.6
830.731	-0.18
830.901	0.15
831.072	0.47
831.242	0.73
831.412	0.33
831.582	0.43
831.753	-0.17
831.923	1.51
832.093	-0.01
832.263	0.84
832.434	-0.18
832.604	0.22
832.774	0.55
832.944	0.04
833.114	0.7
833.284	0.58
833.454	-0.27
833.624	-0.4
833.795	0.05
833.965	1.25
834.135	1.05
834.305	-0.77
834.475	-0.18
834.645	0.42
834.815	0.05
834.985	-0.17
835.155	0.11
835.325	1.43
835.494	0.99
835.664	0.32
835.834	-0.55
836.004	0.53
836.174	0.59
836.344	0.76
836.514	-0.79
836.684	-0.16
836.853	0.19
837.023	0.61
837.193	-0.36
837.363	1.39
837.532	0.64
837.702	0.21
837.872	-0.36
838.041	1.01
838.211	2.11
838.381	-0.4
838.55	-0.42
838.72	1.84
838.89	1.18
839.059	0.19
839.229	-0.22
839.398	0.88
839.568	0.55
839.738	0.76
839.907	1.22
840.077	0.85
840.246	-0.03
840.416	-0.29
840.585	-0.04
840.755	1.06
840.924	1.73
841.093	0.13
841.263	-0.14
841.432	0.65
841.602	-0.88
841.771	0.02
841.94	0.12
842.11	2.58
842.279	1.82
842.448	-0.79
842.617	-0.38
842.787	1.63
842.956	-0.1
843.125	0.73
843.294	0.49
843.464	1.69
843.633	0.7
843.802	-0.99
843.971	0.04
844.14	1.18
844.309	0.39
844.479	-0.58
844.648	-0.8
844.817	0.75
844.986	0.84
845.155	-0.41
845.324	0.47
845.493	0.05
845.662	0.28
845.831	0.18
846	0.45
846.169	0.07
846.338	1.79
846.507	0.61
846.676	0.45
846.844	0.01
847.013	1.8
847.182	-0.22
847.351	0.14
847.52	0.28
847.689	0.78
847.858	-0.24
848.026	0.27
848.195	-0.34
848.364	0.17
848.533	0.44
848.701	0.22
848.87	1.08
849.039	1.09
849.207	0.01
849.376	0.99
849.545	1.8
849.713	-0.22
849.882	-0.25
850.051	0.23
850.219	0.5
850.388	1.67
850.556	0.09
850.725	-0.25
850.893	0.96
851.062	-0.6
851.23	1.51
851.399	-0.58
851.567	0.12
851.736	0.91
851.904	-0.82
852.073	1.25
852.241	1.48
852.41	-0.09
852.578	0.5
852.746	-0.15
852.915	1.1
853.083	0.84
853.251	0.04
853.42	-0.39
853.588	0.62
853.756	0.94
853.924	0.23
854.093	-0.16
854.261	0.98
854.429	-0.8
854.597	0.78
854.765	-0.91
854.934	0.89
855.102	1.22
855.27	-0.3
855.438	1.66
855.606	2.53
855.774	1.83
855.942	-0.28
856.11	-1.18
856.278	1
856.446	1.6
856.614	0.55
856.782	-0.16
856.95	2.34
857.118	1
857.286	1.56
857.454	0.88
857.622	1.58
857.79	1.07
857.958	0.62
858.126	-0.18
858.294	-2.16
858.462	-0.35
858.629	0.29
858.797	0.33
858.965	0.84
859.133	0.55
859.301	1.36
859.468	-0.21
859.636	0.44
859.804	2.9
859.971	1.62
860.139	-0.46
860.307	0.86
860.474	0.41
860.642	-0.89
860.81	-0.6
860.977	0.93
861.145	0.7
861.313	1.16
861.48	2.15
861.648	2.74
861.815	0.33
861.983	-1.11
862.15	0.58
862.318	1.71
862.485	1.23
862.653	-0.67
862.82	-0.61
862.988	1.99
863.155	1.22
863.322	-0.37
863.49	-0.83
863.657	0.18
863.824	3.55
863.992	2.12
864.159	0.56
864.326	1.68
864.494	-0.48
864.661	4.21
864.828	-2.06
864.996	2.33
865.163	3.04
865.33	0.12
865.497	-2.78
865.664	0.32
865.832	-2
865.999	1.45
866.166	-1.2
866.333	0.71
866.5	0.79
866.667	0.56
866.834	1.46
867.001	1.28
867.168	0.5
867.335	0.36
867.502	-2.33
867.669	1.59
867.836	4.23
868.003	-0.19
868.17	1.58
868.337	0.28
868.504	3.29
868.671	0.14
868.838	0.05
869.005	0.46
869.172	1.36
869.339	0.65
869.505	0.4
869.672	0.96
869.839	2.62
870.006	0.17
870.173	0.09
870.339	1.98
870.506	4.11
870.673	-0.67
870.84	0.89
871.006	1.64
871.173	0.53
871.34	1
871.506	-0.17
871.673	1.42
871.839	1.27
872.006	0.55
872.173	0.19
872.339	0.45
872.506	0.85
872.672	0.82
872.839	-1.32
873.005	0.41
873.172	5.88
873.338	1.79
873.505	0.93
873.671	0.16
873.838	1.75
874.004	-1.64
874.171	-0.85
874.337	1
874.503	3.63
874.67	0.75
874.836	0.59
875.002	2.32
875.169	2.72
875.335	1.16
875.501	-0.11
875.668	-1.75
875.834	1
876	-0.13
876.166	1.33
876.332	1.7
876.499	2.16
876.665	1.04
876.831	0.54
876.997	5.19
877.163	3.11
877.329	0.98
877.495	1.29
877.662	0.89
877.828	0.76
877.994	2.2
878.16	-1.8
878.326	-1.86
878.492	1.45
878.658	0.44
878.824	2.18
878.99	2.02
879.156	-0.05
879.322	5.09
879.487	-0.1
879.653	-0.01
879.819	1.61
879.985	0.01
880.151	1.78
880.317	3.36
880.483	0.59
880.648	2.44
880.814	-1.33
880.98	1.85
881.146	-1.77
881.312	-0.38
881.477	0.65
881.643	0.74
881.809	4.98
881.974	1.93
882.14	-1.93
882.306	2.51
882.471	5.28
882.637	-0.33
882.803	2.22
882.968	3.09
883.134	3.79
883.299	0.2
883.465	2.1
883.63	4.26
883.796	1.91
883.961	4.43
884.127	1.55
884.292	-3.54
884.458	-1.34
884.623	-1.34
