Data from Apollo_Calib_20240827__AbsoluteIrradiance__420__06-09-03-004.txt Node

Date: Wed Aug 28 06:09:03 BST 2024
User: biology
Spectrometer: FLMT08252
Trigger mode: 0
Integration Time (sec): 5.000000E-1
Scans to average: 5
Electric dark correction enabled: true
Nonlinearity correction enabled: false
Boxcar width: 0
XAxis mode: Wavelengths
Number of Pixels in Spectrum: 3648
>>>>>Begin Spectral Data<<<<<
179.588	-0
179.809	-0
180.03	-0
180.251	-0
180.473	-0
180.694	0
180.915	0
181.136	-0
181.357	0
181.578	0
181.799	-0
182.02	-0
182.241	0
182.462	-0
182.683	0
182.904	-0
183.125	-0
183.346	0
183.567	0
183.788	0
184.009	-0
184.23	0
184.451	0
184.672	-0
184.892	-0
185.113	0
185.334	0
185.555	0
185.776	0
185.996	0
186.217	0
186.438	0
186.659	-0
186.879	0
187.1	0
187.321	0
187.541	0
187.762	0
187.983	0
188.203	0
188.424	0
188.644	0
188.865	0
189.086	-0
189.306	0
189.527	-0
189.747	0
189.968	0
190.188	0
190.409	0
190.629	0
190.849	0
191.07	0
191.29	0
191.511	0
191.731	0
191.951	-0
192.172	0
192.392	0
192.612	0
192.833	0
193.053	0
193.273	0
193.493	0
193.714	0
193.934	0
194.154	0
194.374	0
194.594	0
194.815	0
195.035	0
195.255	0
195.475	0
195.695	0
195.915	0
196.135	0
196.355	0
196.575	0
196.795	0
197.015	-0
197.235	0
197.455	0
197.675	0
197.895	-0
198.115	0
198.335	0
198.555	0
198.775	0
198.995	0
199.214	0
199.434	0
199.654	-0
199.874	0
200.094	1.62
200.313	0.84
200.533	0.12
200.753	-0.33
200.973	1.53
201.192	0.98
201.412	-0.31
201.632	0.41
201.851	1.15
202.071	0.03
202.291	-0.08
202.51	-0.25
202.73	1.34
202.95	0.21
203.169	0.04
203.389	0.44
203.608	0.59
203.828	0.13
204.047	0.41
204.267	0.96
204.486	0.58
204.706	0.7
204.925	0.54
205.145	0.12
205.364	0.76
205.583	0.74
205.803	0.43
206.022	-0.19
206.242	0.38
206.461	0.37
206.68	-0.16
206.9	0.21
207.119	0.88
207.338	0.96
207.557	0.16
207.777	0.14
207.996	0.26
208.215	1
208.434	0.04
208.654	-0.22
208.873	0.68
209.092	0.67
209.311	0.16
209.53	0.21
209.749	0.24
209.968	0.25
210.187	0.03
210.407	-0.33
210.626	-0.08
210.845	0.41
211.064	0.39
211.283	-0.09
211.502	0.56
211.721	0.07
211.94	0.11
212.159	0.4
212.377	0.51
212.596	0.69
212.815	0.13
213.034	0.25
213.253	0.42
213.472	0.44
213.691	0.17
213.91	-0.07
214.128	0.18
214.347	0.37
214.566	0.09
214.785	0.02
215.003	0.32
215.222	0.26
215.441	0.23
215.66	0.04
215.878	0.11
216.097	0.57
216.316	-0.04
216.534	0.1
216.753	0.05
216.972	0.25
217.19	0.2
217.409	-0.04
217.627	0.05
217.846	0.3
218.064	0.19
218.283	-0.04
218.501	0.68
218.72	0.38
218.938	-0.07
219.157	0
219.375	0.18
219.594	0.34
219.812	-0.11
220.031	0.06
220.249	0.47
220.467	0.24
220.686	0.06
220.904	0.01
221.122	0.08
221.341	0.54
221.559	0.18
221.777	0
221.995	0.26
222.214	0.24
222.432	0.07
222.65	0.25
222.868	0.21
223.086	0.25
223.305	0.3
223.523	0.23
223.741	0.48
223.959	-0.02
224.177	-0.17
224.395	0.1
224.613	0.09
224.831	0.31
225.049	-0.06
225.267	0.08
225.485	0.1
225.703	0.11
225.921	0.18
226.139	0.01
226.357	0.24
226.575	0.17
226.793	0.02
227.011	0.67
227.229	0.21
227.447	0.33
227.665	0.05
227.883	-0.12
228.1	0.07
228.318	0.24
228.536	-0.11
228.754	0.13
228.972	0.22
229.189	0.24
229.407	0.07
229.625	0.11
229.843	0.25
230.06	0.2
230.278	0.03
230.496	0.13
230.713	0.09
230.931	0.31
231.149	0.12
231.366	-0.15
231.584	0.17
231.801	0.43
232.019	0.18
232.236	-0.03
232.454	0.1
232.671	0.05
232.889	0.12
233.106	0.02
233.324	0.08
233.541	0.2
233.759	0.17
233.976	0.06
234.194	0.08
234.411	0.13
234.628	-0.1
234.846	0.06
235.063	0.12
235.28	0.14
235.498	0.07
235.715	0
235.932	0.31
236.149	0.01
236.367	0.02
236.584	0.12
236.801	0.05
237.018	0.29
237.236	0.15
237.453	-0.07
237.67	0.23
237.887	0.13
238.104	0.09
238.321	0.02
238.538	0.08
238.755	0.3
238.973	0.03
239.19	0.18
239.407	0.1
239.624	0.23
239.841	-0.05
240.058	0.01
240.275	0.07
240.492	0.04
240.709	0.15
240.925	0.06
241.142	0.12
241.359	0.06
241.576	0.05
241.793	0.05
242.01	0.14
242.227	0.16
242.444	0.22
242.66	0.2
242.877	0.13
243.094	0.04
243.311	0.14
243.527	0.1
243.744	0.12
243.961	0.24
244.178	0.04
244.394	0.13
244.611	0.18
244.828	0.18
245.044	0.03
245.261	0.11
245.477	0.07
245.694	0.18
245.911	0.08
246.127	0.18
246.344	0.27
246.56	0.16
246.777	-0.03
246.993	0.05
247.21	0.17
247.426	0.09
247.643	0.07
247.859	-0
248.076	-0
248.292	0.28
248.508	0.05
248.725	0.13
248.941	0.13
249.157	0.25
249.374	0.09
249.59	0.03
249.806	0.06
250.023	0.31
250.239	0.06
250.455	0.07
250.671	0.06
250.888	0.09
251.104	0.2
251.32	0.02
251.536	0.08
251.752	0.1
251.969	0.12
252.185	0.07
252.401	0.29
252.617	0.14
252.833	0.03
253.049	0.09
253.265	0.15
253.481	0.13
253.697	0.01
253.913	0.06
254.129	0.12
254.345	0.12
254.561	0.07
254.777	0.09
254.993	0.17
255.209	0.15
255.425	0.07
255.641	0.06
255.857	0.23
256.073	0.16
256.288	0.02
256.504	0.07
256.72	0.12
256.936	0.14
257.152	0.09
257.367	0.01
257.583	0.11
257.799	0.11
258.015	0
258.23	0.08
258.446	0.21
258.662	0.06
258.877	-0
259.093	0.04
259.309	0.08
259.524	0.16
259.74	0.05
259.955	-0
260.171	0.05
260.387	0.11
260.602	0.23
260.818	0.1
261.033	0.03
261.249	0.08
261.464	0.01
261.68	-0.01
261.895	0.14
262.11	0.23
262.326	0.09
262.541	-0.02
262.757	0.2
262.972	0.12
263.187	0.11
263.403	0.06
263.618	0.13
263.833	0.07
264.049	0.07
264.264	0.1
264.479	0.16
264.694	0.21
264.91	0.03
265.125	0.06
265.34	0.13
265.555	0.19
265.77	0.15
265.986	0.04
266.201	0.08
266.416	0.16
266.631	0.07
266.846	0.05
267.061	0.1
267.276	0.16
267.491	-0.04
267.706	0.09
267.921	0.01
268.136	0.1
268.351	0.1
268.566	-0.02
268.781	0.2
268.996	0.09
269.211	0.09
269.426	0.01
269.641	0.1
269.856	0.18
270.071	0.04
270.285	0.03
270.5	0.19
270.715	0.09
270.93	0.12
271.145	0.15
271.359	0.12
271.574	0.06
271.789	0.09
272.004	0.08
272.218	0.03
272.433	0.12
272.648	-0
272.862	0.14
273.077	0.03
273.292	0.12
273.506	0.02
273.721	0.08
273.936	0.14
274.15	0.18
274.365	0.07
274.579	0.09
274.794	0.09
275.008	0.08
275.223	0
275.437	0.05
275.652	0.08
275.866	0.16
276.081	0.04
276.295	0.11
276.509	0.04
276.724	0.09
276.938	0.11
277.153	0.09
277.367	0.19
277.581	0.05
277.796	0.05
278.01	0.02
278.224	0.07
278.438	0.19
278.653	-0.02
278.867	0
279.081	-0.09
279.295	-0.02
279.51	0.12
279.724	-0.07
279.938	0.06
280.152	0.13
280.366	0.08
280.58	0.11
280.794	0.12
281.008	0.16
281.222	0.07
281.437	0.24
281.651	0.07
281.865	0.16
282.079	0.01
282.293	-0.04
282.507	0.04
282.721	0.05
282.935	0.07
283.148	-0.01
283.362	0.05
283.576	0.01
283.79	0.1
284.004	0.01
284.218	0.16
284.432	0.04
284.646	0.03
284.859	0.04
285.073	0.08
285.287	0.09
285.501	0.06
285.714	0.05
285.928	0.1
286.142	0.11
286.356	0.03
286.569	0.05
286.783	0.11
286.997	0.05
287.21	0.09
287.424	0.12
287.637	0.06
287.851	0.05
288.065	0.04
288.278	0.04
288.492	0.1
288.705	0.05
288.919	0.09
289.132	0.03
289.346	0.15
289.559	0
289.773	-0.02
289.986	0.07
290.2	0.06
290.413	0.08
290.626	-0
290.84	0.08
291.053	0.07
291.267	0.15
291.48	0.07
291.693	0.09
291.906	0.04
292.12	0.03
292.333	0.04
292.546	0.06
292.76	0.15
292.973	0.09
293.186	0.13
293.399	0.03
293.612	0.12
293.826	0.1
294.039	0.08
294.252	0.02
294.465	0.06
294.678	0.09
294.891	0.05
295.104	-0
295.317	0.04
295.53	0.04
295.743	0.09
295.956	0.07
296.169	0.14
296.382	0.14
296.595	0.06
296.808	0.06
297.021	0.12
297.234	0.08
297.447	0.07
297.66	0.05
297.873	0.12
298.086	0.11
298.299	-0.01
298.511	0.04
298.724	0.08
298.937	0.04
299.15	0.03
299.363	0.03
299.575	0.14
299.788	0.07
300.001	0.11
300.213	0
300.426	0.05
300.639	0.01
300.852	0.02
301.064	0.08
301.277	0.14
301.489	0.09
301.702	0.07
301.915	0.06
302.127	0.08
302.34	0.1
302.552	0.09
302.765	0.04
302.977	0.15
303.19	0.06
303.402	0.02
303.615	0.05
303.827	0.04
304.04	0.09
304.252	0.09
304.464	0.08
304.677	0.14
304.889	0.1
305.102	0.05
305.314	0.03
305.526	0.11
305.739	0.1
305.951	0.01
306.163	0.04
306.375	0.15
306.588	0.04
306.8	0.07
307.012	-0.04
307.224	0.06
307.436	0.1
307.649	-0.01
307.861	0.1
308.073	0.07
308.285	0.09
308.497	0.02
308.709	0.01
308.921	0.08
309.133	0.12
309.346	0.06
309.558	0.04
309.77	0.09
309.982	0.11
310.194	0.14
310.406	0.02
310.617	0.14
310.829	0.09
311.041	0.1
311.253	0.03
311.465	0.06
311.677	0.04
311.889	0.01
312.101	0.05
312.313	0.1
312.524	0.09
312.736	-0.01
312.948	0.06
313.16	0.12
313.372	0.09
313.583	0.11
313.795	0.02
314.007	0.03
314.218	0.09
314.43	0.05
314.642	0.01
314.853	-0
315.065	0.12
315.277	0.08
315.488	0.07
315.7	0.11
315.912	0.06
316.123	0.02
316.335	0.05
316.546	0.2
316.758	0.02
316.969	0.05
317.181	0.04
317.392	0.06
317.604	0.11
317.815	0.03
318.026	0.06
318.238	0.04
318.449	0.05
318.661	0.01
318.872	-0.03
319.083	0
319.295	0.1
319.506	0.06
319.717	0.05
319.929	0.11
320.14	0.05
320.351	0.04
320.562	0
320.774	0.05
320.985	0.04
321.196	0.03
321.407	0.01
321.618	0.06
321.829	0.08
322.041	0.07
322.252	0.04
322.463	0.07
322.674	0.09
322.885	0.05
323.096	0.04
323.307	0.1
323.518	0.06
323.729	0.05
323.94	0.07
324.151	0.05
324.362	0.1
324.573	0.03
324.784	0.03
324.995	0.13
325.206	0.14
325.417	0.03
325.628	0.02
325.838	0.06
326.049	0.08
326.26	0.1
326.471	0.03
326.682	0.07
326.892	0.07
327.103	0.03
327.314	-0.03
327.525	0.12
327.735	0.1
327.946	0.05
328.157	0.04
328.368	0.07
328.578	0.07
328.789	0.08
328.999	0.06
329.21	0.08
329.421	0.14
329.631	0.06
329.842	0.03
330.052	0.07
330.263	0.1
330.473	0.12
330.684	0.04
330.894	0.03
331.105	0.08
331.315	0.07
331.526	0.01
331.736	0.18
331.947	0.05
332.157	0.01
332.367	-0
332.578	0.11
332.788	0.14
332.999	0.06
333.209	0.02
333.419	-0.01
333.629	0.08
333.84	0.1
334.05	0.07
334.26	0.13
334.47	0.07
334.681	0.11
334.891	0.09
335.101	0.09
335.311	0.14
335.521	0.01
335.732	-0.01
335.942	0.13
336.152	0.09
336.362	0.05
336.572	0.08
336.782	0.07
336.992	0.04
337.202	0.05
337.412	0.02
337.622	0.08
337.832	0.03
338.042	0.08
338.252	0.02
338.462	0.02
338.672	0.04
338.882	0.05
339.092	0.04
339.302	0.12
339.511	0.07
339.721	0.06
339.931	0.05
340.141	0.09
340.351	0.1
340.561	0.11
340.77	0.08
340.98	-0
341.19	0.08
341.4	0.04
341.609	0.03
341.819	0.05
342.029	0.02
342.238	0.08
342.448	0
342.658	0.12
342.867	0.07
343.077	0.05
343.286	0.07
343.496	0.07
343.706	0.13
343.915	0.02
344.125	0.02
344.334	0.08
344.544	0.01
344.753	0.03
344.963	0.03
345.172	0.04
345.381	0.03
345.591	0.04
345.8	0.06
346.01	0.11
346.219	0.11
346.428	-0.09
346.638	0.04
346.847	0.07
347.056	0.13
347.266	0.02
347.475	0.07
347.684	0.07
347.893	0.1
348.103	0.05
348.312	0.04
348.521	0.03
348.73	0.08
348.94	0.03
349.149	0.1
349.358	0.04
349.567	0.06
349.776	0.03
349.985	0.08
350.194	0.08
350.403	0.13
350.612	0.04
350.821	0.04
351.03	0.03
351.239	0.02
351.448	0.07
351.657	0.03
351.866	0.11
352.075	0.06
352.284	0.07
352.493	-0.02
352.702	0.14
352.911	0.08
353.12	0.05
353.329	0.06
353.538	0.08
353.746	0.04
353.955	0.05
354.164	0.06
354.373	0.04
354.582	0.11
354.79	0.08
354.999	0.12
355.208	0.06
355.416	0.09
355.625	0.01
355.834	0.04
356.042	0.05
356.251	0.08
356.46	0.02
356.668	0.05
356.877	0.13
357.085	0.12
357.294	-0.02
357.503	0.05
357.711	0
357.92	0.19
358.128	0.09
358.337	0.06
358.545	0.04
358.754	0.05
358.962	0.1
359.17	0.07
359.379	0.09
359.587	0.08
359.796	0
360.004	0.07
360.212	0.1
360.421	0.13
360.629	0.06
360.837	0.04
361.046	0.1
361.254	0.15
361.462	0.09
361.67	0.06
361.879	0.05
362.087	0.13
362.295	0.05
362.503	0.05
362.711	0.01
362.92	0.02
363.128	0.05
363.336	0.02
363.544	-0
363.752	0.05
363.96	0.07
364.168	0.02
364.376	0.05
364.584	0.04
364.792	0.11
365	0.07
365.208	0.05
365.416	0.07
365.624	0.05
365.832	-0.01
366.04	0.08
366.248	0.11
366.456	0.12
366.664	0.11
366.872	0.08
367.079	0.09
367.287	0.07
367.495	0.07
367.703	0.05
367.911	0.05
368.118	0.07
368.326	0.06
368.534	0.01
368.742	0.14
368.949	0.01
369.157	0.02
369.365	0.1
369.572	0.04
369.78	0.04
369.988	0.13
370.195	0.09
370.403	0.08
370.61	0.05
370.818	0.07
371.026	0.11
371.233	0.01
371.441	0.07
371.648	0.03
371.856	0.05
372.063	0.07
372.271	0.04
372.478	0.04
372.685	0.05
372.893	0.07
373.1	0.03
373.308	0.04
373.515	0.17
373.722	0.07
373.93	0.06
374.137	0.08
374.344	0.12
374.552	0.13
374.759	0.15
374.966	0.06
375.173	0.06
375.381	0.1
375.588	0.09
375.795	-0.03
376.002	0.06
376.209	0.07
376.417	0.07
376.624	0.06
376.831	0.09
377.038	0.04
377.245	-0.01
377.452	0.05
377.659	0.08
377.866	0.08
378.073	0.07
378.28	0.03
378.487	0.08
378.694	0.14
378.901	0.07
379.108	0.05
379.315	0.13
379.522	0.14
379.729	0.09
379.936	0.07
380.143	0.08
380.35	0.08
380.557	0.08
380.763	0.07
380.97	0.07
381.177	0.1
381.384	0.09
381.591	0.02
381.797	0.04
382.004	0.11
382.211	0.08
382.418	0.07
382.624	0.07
382.831	0.08
383.038	0.01
383.244	0.09
383.451	0.05
383.658	0.1
383.864	0.08
384.071	0.04
384.277	0.11
384.484	0.08
384.69	0.12
384.897	0.1
385.103	0.08
385.31	0.01
385.516	0.03
385.723	0.03
385.929	0.01
386.136	0.01
386.342	0.07
386.549	0.05
386.755	0.09
386.961	0.09
387.168	0.04
387.374	0.09
387.58	0.07
387.787	0.07
387.993	0.1
388.199	0.05
388.406	0.04
388.612	0.07
388.818	0.07
389.024	0.02
389.231	0.08
389.437	0.13
389.643	0.08
389.849	0.09
390.055	0.06
390.261	0.08
390.467	0.07
390.674	0.06
390.88	0.06
391.086	0.11
391.292	0.03
391.498	0.12
391.704	0.12
391.91	0.07
392.116	0.05
392.322	-0.03
392.528	0.09
392.734	0.06
392.94	0.08
393.146	0.05
393.352	0.06
393.557	0.07
393.763	0.06
393.969	0.08
394.175	0.05
394.381	0.08
394.587	0.05
394.792	0.07
394.998	0.12
395.204	0.12
395.41	0.03
395.615	0.12
395.821	0.05
396.027	0.11
396.233	0.06
396.438	0.11
396.644	0.15
396.85	0.08
397.055	0.08
397.261	0.07
397.466	0.15
397.672	0.07
397.878	0.11
398.083	0.08
398.289	0.06
398.494	0.08
398.7	0.09
398.905	0
399.111	0.11
399.316	0.06
399.522	0.06
399.727	0.04
399.932	0.04
400.138	0.05
400.343	0.08
400.549	0.11
400.754	0.07
400.959	0.07
401.165	0.04
401.37	0.07
401.575	0.13
401.78	0.07
401.986	0.12
402.191	0.06
402.396	0.08
402.601	0.14
402.807	0.06
403.012	0.11
403.217	0.12
403.422	0.11
403.627	0.03
403.832	0.06
404.037	0.12
404.243	0.1
404.448	0.05
404.653	0.09
404.858	0.11
405.063	0.13
405.268	0.03
405.473	0.06
405.678	0.05
405.883	0.19
406.088	0.12
406.293	0.03
406.498	0.04
406.703	0.13
406.907	0.1
407.112	0.05
407.317	0.08
407.522	0.14
407.727	0.04
407.932	0.07
408.136	0.18
408.341	0.09
408.546	0.09
408.751	0.11
408.956	0.12
409.16	0.12
409.365	0.06
409.57	0.03
409.774	0.03
409.979	0.12
410.184	0.1
410.388	0.06
410.593	0.14
410.798	0.15
411.002	0.06
411.207	0.11
411.411	0.1
411.616	0.06
411.82	0.13
412.025	0.16
412.229	0.08
412.434	0.19
412.638	0.06
412.843	0.06
413.047	0.09
413.252	0.05
413.456	0.09
413.66	0.06
413.865	0.08
414.069	0.16
414.273	0.09
414.478	0.06
414.682	0.06
414.886	0.05
415.091	0.06
415.295	0.01
415.499	0.1
415.703	0.05
415.908	0.09
416.112	-0.01
416.316	0.13
416.52	0.08
416.724	-0
416.929	0.07
417.133	0.17
417.337	0.07
417.541	0.1
417.745	0.12
417.949	0.13
418.153	0.12
418.357	0.04
418.561	0.2
418.765	0.11
418.969	0.24
419.173	0.09
419.377	0.08
419.581	0.17
419.785	0.09
419.989	0.05
420.193	0.09
420.397	0.07
420.601	0.15
420.804	0.16
421.008	0.13
421.212	0.14
421.416	0.17
421.62	0.05
421.823	0.07
422.027	0.22
422.231	0.12
422.435	0.07
422.638	0.13
422.842	0.06
423.046	0.07
423.249	0.09
423.453	0.14
423.657	0.1
423.86	0.12
424.064	0.12
424.268	0.19
424.471	0.07
424.675	0.2
424.878	0.14
425.082	0.09
425.285	0.15
425.489	0.14
425.692	0.12
425.896	0.05
426.099	0.18
426.303	0.08
426.506	0.07
426.71	0.11
426.913	0.11
427.116	0.12
427.32	0.11
427.523	0.11
427.726	0.22
427.93	0.03
428.133	0.15
428.336	0.07
428.54	0.08
428.743	0.13
428.946	0.12
429.149	0.12
429.353	0.13
429.556	0.07
429.759	0.1
429.962	0.09
430.165	0.09
430.368	0.09
430.571	0.07
430.775	0.16
430.978	0.1
431.181	0.13
431.384	0.12
431.587	0.07
431.79	0.1
431.993	0.08
432.196	0.12
432.399	0.09
432.602	0.22
432.805	0.09
433.008	0.06
433.211	0.04
433.414	0.11
433.616	0.16
433.819	0.13
434.022	0.03
434.225	0.19
434.428	0.13
434.631	0.26
434.833	0.13
435.036	0.11
435.239	0.18
435.442	0.15
435.645	0.12
435.847	0.11
436.05	0.19
436.253	0.11
436.455	0.08
436.658	0.09
436.861	0.19
437.063	0.13
437.266	0.11
437.468	0.13
437.671	0.24
437.874	0.14
438.076	0.05
438.279	0.02
438.481	0.11
438.684	0.06
438.886	0.11
439.089	0.04
439.291	0.14
439.494	0.16
439.696	0.08
439.899	0.09
440.101	0.13
440.303	0.06
440.506	0.18
440.708	0.11
440.91	0.15
441.113	0.08
441.315	0.15
441.517	0.08
441.72	0.17
441.922	0.1
442.124	0.09
442.326	0.18
442.529	0.16
442.731	0.11
442.933	0.2
443.135	0.09
443.337	0.1
443.539	0.12
443.742	0.09
443.944	0.12
444.146	0.12
444.348	0.13
444.55	0.12
444.752	0.12
444.954	0.09
445.156	0.13
445.358	0.1
445.56	0.16
445.762	0.17
445.964	0.09
446.166	0.14
446.368	0.14
446.57	0.14
446.772	0.12
446.974	0.06
447.175	0.11
447.377	0.12
447.579	0.11
447.781	0.07
447.983	0.22
448.184	0.13
448.386	0.16
448.588	0.12
448.79	0.13
448.991	0.12
449.193	0.14
449.395	0.12
449.597	0.2
449.798	0.18
450	0.18
450.202	0.15
450.403	0.13
450.605	0.16
450.806	0.13
451.008	0.07
451.21	0.14
451.411	0.17
451.613	0.12
451.814	0.14
452.016	0.15
452.217	0.14
452.419	0.18
452.62	0.14
452.821	0.18
453.023	0.21
453.224	0.21
453.426	0.14
453.627	0.14
453.828	0.18
454.03	0.12
454.231	0.19
454.432	0.13
454.634	0.25
454.835	0.1
455.036	0.1
455.238	0.22
455.439	0.26
455.64	0.12
455.841	0.1
456.042	0.24
456.244	0.15
456.445	0.15
456.646	0.13
456.847	0.1
457.048	0.21
457.249	0.21
457.45	0.39
457.651	0.13
457.852	0.2
458.054	0.17
458.255	0.16
458.456	0.19
458.657	0.16
458.858	0.13
459.058	0.18
459.259	0.23
459.46	0.18
459.661	0.1
459.862	0.31
460.063	0.15
460.264	0.26
460.465	0.07
460.666	0.28
460.866	0.15
461.067	0.19
461.268	0.16
461.469	0.12
461.67	0.15
461.87	0.11
462.071	0.18
462.272	0.17
462.473	0.18
462.673	0.22
462.874	0.12
463.075	0.2
463.275	0.14
463.476	0.26
463.676	0.2
463.877	0.2
464.078	0.19
464.278	0.22
464.479	0.21
464.679	0.21
464.88	0.2
465.08	0.32
465.281	0.17
465.481	0.14
465.682	0.22
465.882	0.19
466.083	0.2
466.283	0.22
466.483	0.17
466.684	0.13
466.884	0.16
467.085	0.2
467.285	0.25
467.485	0.17
467.686	0.19
467.886	0.19
468.086	0.19
468.286	0.24
468.487	0.26
468.687	0.14
468.887	0.2
469.087	0.24
469.287	0.23
469.488	0.18
469.688	0.26
469.888	0.28
470.088	0.32
470.288	0.3
470.488	0.29
470.688	0.24
470.888	0.23
471.088	0.2
471.288	0.3
471.488	0.28
471.688	0.27
471.888	0.24
472.088	0.39
472.288	0.29
472.488	0.25
472.688	0.23
472.888	0.29
473.088	0.28
473.288	0.25
473.488	0.25
473.688	0.36
473.887	0.3
474.087	0.3
474.287	0.34
474.487	0.27
474.687	0.34
474.886	0.3
475.086	0.29
475.286	0.29
475.486	0.33
475.685	0.31
475.885	0.32
476.085	0.37
476.284	0.38
476.484	0.38
476.684	0.38
476.883	0.42
477.083	0.37
477.282	0.34
477.482	0.48
477.681	0.48
477.881	0.44
478.08	0.36
478.28	0.39
478.479	0.47
478.679	0.45
478.878	0.42
479.078	0.41
479.277	0.41
479.477	0.47
479.676	0.51
479.875	0.48
480.075	0.42
480.274	0.51
480.473	0.55
480.673	0.49
480.872	0.56
481.071	0.55
481.271	0.58
481.47	0.53
481.669	0.55
481.868	0.58
482.067	0.53
482.267	0.52
482.466	0.56
482.665	0.58
482.864	0.59
483.063	0.61
483.262	0.66
483.461	0.66
483.661	0.7
483.86	0.67
484.059	0.72
484.258	0.71
484.457	0.69
484.656	0.74
484.855	0.8
485.054	0.67
485.253	0.74
485.452	0.76
485.651	0.86
485.849	0.81
486.048	0.8
486.247	0.85
486.446	0.87
486.645	0.85
486.844	0.89
487.043	0.91
487.241	0.96
487.44	0.96
487.639	0.99
487.838	0.99
488.037	0.98
488.235	1.12
488.434	1.05
488.633	1.02
488.831	1.1
489.03	1.18
489.229	1.17
489.427	1.17
489.626	1.23
489.825	1.23
490.023	1.24
490.222	1.28
490.42	1.34
490.619	1.36
490.817	1.38
491.016	1.36
491.214	1.42
491.413	1.44
491.611	1.42
491.81	1.46
492.008	1.5
492.207	1.56
492.405	1.58
492.604	1.54
492.802	1.64
493	1.72
493.199	1.67
493.397	1.71
493.595	1.76
493.794	1.77
493.992	1.9
494.19	1.89
494.388	1.99
494.587	1.9
494.785	1.97
494.983	1.9
495.181	2.05
495.379	2.09
495.578	2.15
495.776	2.15
495.974	2.21
496.172	2.23
496.37	2.35
496.568	2.36
496.766	2.41
496.964	2.49
497.162	2.55
497.36	2.56
497.558	2.61
497.756	2.67
497.954	2.75
498.152	2.74
498.35	2.88
498.548	2.83
498.746	2.9
498.944	2.94
499.142	3
499.34	3.1
499.538	3.22
499.736	3.16
499.933	3.23
500.131	3.3
500.329	3.51
500.527	3.48
500.725	3.64
500.922	3.72
501.12	3.72
501.318	3.81
501.516	3.85
501.713	3.92
501.911	4.05
502.109	4
502.306	4.19
502.504	4.12
502.701	4.23
502.899	4.38
503.097	4.56
503.294	4.52
503.492	4.69
503.689	4.73
503.887	4.77
504.084	4.94
504.282	4.97
504.479	4.94
504.677	5.19
504.874	5.21
505.072	5.18
505.269	5.5
505.466	5.63
505.664	5.64
505.861	5.58
506.059	5.8
506.256	5.89
506.453	6.03
506.651	6.2
506.848	6.31
507.045	6.32
507.242	6.37
507.44	6.53
507.637	6.64
507.834	6.69
508.031	7.02
508.229	6.94
508.426	6.89
508.623	7.15
508.82	7.27
509.017	7.29
509.214	7.37
509.411	7.64
509.608	7.63
509.805	7.88
510.003	7.9
510.2	8
510.397	8.25
510.594	8.18
510.791	8.37
510.988	8.43
511.184	8.47
511.381	8.39
511.578	8.73
511.775	8.99
511.972	8.9
512.169	9.1
512.366	9.15
512.563	9.42
512.76	9.54
512.956	9.58
513.153	9.57
513.35	9.54
513.547	9.62
513.744	9.83
513.94	9.96
514.137	10.06
514.334	10.15
514.53	10.28
514.727	10.6
514.924	10.44
515.12	10.58
515.317	10.54
515.514	10.55
515.71	10.5
515.907	10.92
516.103	10.96
516.3	10.9
516.497	11.09
516.693	11.1
516.89	11.17
517.086	11.31
517.283	11.31
517.479	11.15
517.676	11.47
517.872	11.58
518.068	11.52
518.265	11.59
518.461	11.49
518.658	11.79
518.854	11.74
519.05	11.91
519.247	12
519.443	11.7
519.639	12.03
519.836	11.81
520.032	11.76
520.228	12.03
520.424	11.87
520.621	12
520.817	12.03
521.013	11.87
521.209	12.19
521.405	12.09
521.601	12.01
521.798	11.95
521.994	11.87
522.19	11.79
522.386	11.85
522.582	11.88
522.778	12.07
522.974	11.8
523.17	11.88
523.366	11.71
523.562	11.73
523.758	11.76
523.954	11.41
524.15	11.65
524.346	11.58
524.542	11.58
524.738	11.44
524.934	11.64
525.129	11.5
525.325	11.23
525.521	11.18
525.717	11.4
525.913	11.02
526.109	11.1
526.304	11.18
526.5	11.03
526.696	10.95
526.892	10.78
527.087	11.08
527.283	10.79
527.479	10.65
527.674	10.25
527.87	10.51
528.066	10.43
528.261	10.38
528.457	10.1
528.653	10.23
528.848	10.08
529.044	10.18
529.239	9.83
529.435	9.78
529.63	9.62
529.826	9.56
530.021	9.51
530.217	9.49
530.412	9.32
530.608	9.33
530.803	9.15
530.999	8.96
531.194	9.04
531.389	8.96
531.585	8.81
531.78	8.91
531.975	8.77
532.171	8.66
532.366	8.55
532.561	8.45
532.757	8.34
532.952	8.47
533.147	8.11
533.342	8.16
533.538	7.97
533.733	8.01
533.928	7.66
534.123	7.8
534.318	7.69
534.513	7.56
534.709	7.61
534.904	7.48
535.099	7.42
535.294	7.34
535.489	7.31
535.684	7.12
535.879	7.1
536.074	7.07
536.269	6.96
536.464	6.95
536.659	6.8
536.854	6.69
537.049	6.67
537.244	6.63
537.439	6.49
537.634	6.46
537.828	6.45
538.023	6.27
538.218	6.25
538.413	6.12
538.608	6.07
538.803	6.05
538.997	5.94
539.192	5.95
539.387	5.85
539.582	5.7
539.776	5.64
539.971	5.76
540.166	5.67
540.36	5.48
540.555	5.55
540.75	5.38
540.944	5.37
541.139	5.37
541.334	5.23
541.528	5.22
541.723	5.2
541.917	5.14
542.112	4.99
542.306	4.86
542.501	4.86
542.695	4.87
542.89	4.76
543.084	4.73
543.279	4.69
543.473	4.69
543.668	4.65
543.862	4.48
544.056	4.48
544.251	4.5
544.445	4.5
544.64	4.31
544.834	4.16
545.028	4.05
545.222	4.2
545.417	4.25
545.611	4.15
545.805	4.07
546	3.9
546.194	4
546.388	3.89
546.582	3.84
546.776	3.83
546.97	3.78
547.165	3.75
547.359	3.68
547.553	3.57
547.747	3.56
547.941	3.61
548.135	3.5
548.329	3.5
548.523	3.45
548.717	3.35
548.911	3.33
549.105	3.26
549.299	3.28
549.493	3.23
549.687	3.17
549.881	3.16
550.075	3.1
550.269	2.99
550.463	3.04
550.657	3.02
550.85	2.96
551.044	2.9
551.238	2.88
551.432	2.81
551.626	2.83
551.82	2.79
552.013	2.68
552.207	2.7
552.401	2.69
552.594	2.62
552.788	2.53
552.982	2.56
553.176	2.52
553.369	2.56
553.563	2.46
553.756	2.37
553.95	2.38
554.144	2.39
554.337	2.36
554.531	2.26
554.724	2.28
554.918	2.26
555.111	2.19
555.305	2.19
555.498	2.18
555.692	2.14
555.885	2.07
556.079	2.06
556.272	2.04
556.466	2.01
556.659	1.96
556.852	1.95
557.046	1.93
557.239	1.87
557.432	1.86
557.626	1.84
557.819	1.85
558.012	1.87
558.206	1.84
558.399	1.73
558.592	1.78
558.785	1.69
558.979	1.7
559.172	1.7
559.365	1.66
559.558	1.63
559.751	1.59
559.944	1.64
560.138	1.54
560.331	1.52
560.524	1.53
560.717	1.52
560.91	1.47
561.103	1.46
561.296	1.43
561.489	1.44
561.682	1.43
561.875	1.42
562.068	1.41
562.261	1.34
562.454	1.42
562.647	1.33
562.84	1.31
563.032	1.28
563.225	1.25
563.418	1.24
563.611	1.23
563.804	1.23
563.997	1.16
564.19	1.12
564.382	1.2
564.575	1.18
564.768	1.13
564.961	1.14
565.153	1.09
565.346	1.07
565.539	1.08
565.731	1.07
565.924	1.13
566.117	1.09
566.309	1.05
566.502	0.99
566.695	0.99
566.887	1.03
567.08	0.97
567.272	0.96
567.465	0.94
567.657	0.94
567.85	0.97
568.042	0.94
568.235	0.95
568.427	0.87
568.62	0.88
568.812	0.91
569.005	0.88
569.197	0.82
569.389	0.87
569.582	0.84
569.774	0.83
569.966	0.76
570.159	0.75
570.351	0.8
570.543	0.74
570.736	0.75
570.928	0.73
571.12	0.77
571.312	0.74
571.505	0.7
571.697	0.77
571.889	0.67
572.081	0.73
572.273	0.65
572.465	0.72
572.658	0.64
572.85	0.69
573.042	0.67
573.234	0.6
573.426	0.67
573.618	0.62
573.81	0.64
574.002	0.63
574.194	0.65
574.386	0.54
574.578	0.5
574.77	0.55
574.962	0.57
575.154	0.53
575.346	0.54
575.538	0.55
575.729	0.55
575.921	0.54
576.113	0.54
576.305	0.57
576.497	0.51
576.689	0.51
576.88	0.47
577.072	0.52
577.264	0.48
577.456	0.48
577.647	0.4
577.839	0.48
578.031	0.51
578.223	0.44
578.414	0.43
578.606	0.49
578.798	0.45
578.989	0.44
579.181	0.44
579.372	0.41
579.564	0.42
579.755	0.43
579.947	0.43
580.139	0.42
580.33	0.33
580.522	0.4
580.713	0.32
580.905	0.4
581.096	0.41
581.287	0.39
581.479	0.4
581.67	0.39
581.862	0.39
582.053	0.34
582.244	0.31
582.436	0.35
582.627	0.36
582.818	0.33
583.01	0.29
583.201	0.35
583.392	0.37
583.583	0.32
583.775	0.32
583.966	0.3
584.157	0.31
584.348	0.31
584.54	0.25
584.731	0.31
584.922	0.3
585.113	0.26
585.304	0.3
585.495	0.31
585.686	0.31
585.877	0.32
586.068	0.32
586.259	0.3
586.45	0.29
586.641	0.24
586.832	0.22
587.023	0.25
587.214	0.25
587.405	0.28
587.596	0.23
587.787	0.31
587.978	0.25
588.169	0.25
588.36	0.23
588.551	0.26
588.742	0.25
588.932	0.27
589.123	0.24
589.314	0.29
589.505	0.24
589.696	0.23
589.886	0.23
590.077	0.19
590.268	0.22
590.458	0.2
590.649	0.2
590.84	0.25
591.03	0.19
591.221	0.19
591.412	0.15
591.602	0.24
591.793	0.23
591.984	0.17
592.174	0.19
592.365	0.28
592.555	0.16
592.746	0.22
592.936	0.21
593.127	0.22
593.317	0.21
593.508	0.18
593.698	0.15
593.889	0.16
594.079	0.19
594.269	0.16
594.46	0.18
594.65	0.17
594.84	0.2
595.031	0.14
595.221	0.17
595.411	0.13
595.602	0.2
595.792	0.17
595.982	0.15
596.172	0.19
596.363	0.16
596.553	0.16
596.743	0.15
596.933	0.18
597.123	0.18
597.314	0.15
597.504	0.14
597.694	0.21
597.884	0.17
598.074	0.16
598.264	0.13
598.454	0.16
598.644	0.15
598.834	0.15
599.024	0.11
599.214	0.11
599.404	0.15
599.594	0.13
599.784	0.14
599.974	0.18
600.164	0.17
600.354	0.09
600.544	0.09
600.734	0.13
600.924	0.17
601.114	0.08
601.303	0.14
601.493	0.13
601.683	0.15
601.873	0.15
602.063	0.1
602.252	0.13
602.442	0.07
602.632	0.1
602.821	0.09
603.011	0.15
603.201	0.1
603.39	0.1
603.58	0.08
603.77	0.15
603.959	0.17
604.149	0.11
604.339	0.12
604.528	0.12
604.718	0.14
604.907	0.1
605.097	0.11
605.286	0.07
605.476	0.13
605.665	0.13
605.855	0.1
606.044	0.15
606.234	0.13
606.423	0.1
606.612	0.08
606.802	0.12
606.991	0.11
607.181	0.12
607.37	0.05
607.559	0.09
607.749	0.09
607.938	0.08
608.127	0.12
608.316	0.07
608.506	0.11
608.695	0.09
608.884	0.07
609.073	0.09
609.263	0.09
609.452	0.14
609.641	0.11
609.83	0.04
610.019	0.11
610.208	0.06
610.397	0.09
610.586	0.12
610.775	0.09
610.965	0.08
611.154	0.06
611.343	0.07
611.532	0.09
611.721	0.08
611.91	0.07
612.099	0.11
612.287	0.09
612.476	0.04
612.665	0.09
612.854	0.07
613.043	0.12
613.232	0.07
613.421	0.05
613.61	0.07
613.798	0.06
613.987	0.12
614.176	0.11
614.365	0.12
614.554	0.1
614.742	0.13
614.931	0.06
615.12	0.12
615.309	0.06
615.497	0.12
615.686	0.04
615.875	0.08
616.063	0.11
616.252	0.07
616.44	0.07
616.629	0.07
616.818	0.11
617.006	0.08
617.195	0.09
617.383	0.12
617.572	0.07
617.76	0.05
617.949	0.08
618.137	0.07
618.326	0.08
618.514	0.06
618.703	0.05
618.891	0.13
619.079	0.04
619.268	0.11
619.456	0.03
619.644	0.13
619.833	0.06
620.021	0.05
620.209	0.03
620.398	0.06
620.586	0.06
620.774	0.09
620.962	0.11
621.151	0.13
621.339	0.09
621.527	0.04
621.715	0.03
621.903	0.04
622.092	0.03
622.28	0.08
622.468	0.1
622.656	0.07
622.844	0.06
623.032	0.06
623.22	0.03
623.408	0.06
623.596	0.09
623.784	0.07
623.972	0.06
624.16	0.07
624.348	0.13
624.536	0.06
624.724	0.04
624.912	0.1
625.1	0.1
625.288	0.04
625.476	0.05
625.664	0.07
625.851	0
626.039	0.07
626.227	0.06
626.415	0.05
626.603	0.03
626.79	0.11
626.978	0.05
627.166	0.1
627.354	0.07
627.541	0.04
627.729	0
627.917	0.07
628.104	0.11
628.292	0.07
628.48	0.05
628.667	0.07
628.855	0.08
629.042	0.09
629.23	0.04
629.418	0.06
629.605	0.05
629.793	0.04
629.98	0.04
630.168	0.04
630.355	0.05
630.543	0.09
630.73	0.04
630.917	0.08
631.105	0.13
631.292	0.08
631.48	0.06
631.667	0.12
631.854	0.05
632.042	0.08
632.229	0.03
632.416	0.09
632.604	0.07
632.791	0.03
632.978	0.09
633.165	0.07
633.353	0.12
633.54	0.09
633.727	-0.01
633.914	0.03
634.101	-0.02
634.289	0.08
634.476	0.04
634.663	-0
634.85	0.07
635.037	-0
635.224	-0.01
635.411	0.11
635.598	0.12
635.785	0.08
635.972	0.07
636.159	0.08
636.346	0.03
636.533	0.08
636.72	0.08
636.907	0.05
637.094	0.08
637.281	0.03
637.468	0.12
637.655	0.06
637.842	0.06
638.029	0
638.215	0.1
638.402	0.07
638.589	0.03
638.776	0.05
638.963	0.01
639.149	0.1
639.336	0.09
639.523	0.05
639.709	0.03
639.896	0.05
640.083	0.1
640.27	0.08
640.456	0.03
640.643	0.11
640.829	-0.01
641.016	0.06
641.203	0.02
641.389	0.1
641.576	0.06
641.762	0.06
641.949	0
642.135	0.08
642.322	0.05
642.508	-0.01
642.695	0.05
642.881	0.07
643.068	0.06
643.254	0.04
643.441	0.08
643.627	0.07
643.813	0.03
644	0.1
644.186	0.01
644.372	0.02
644.559	0.1
644.745	0.05
644.931	0.02
645.118	0.07
645.304	0.05
645.49	0.03
645.676	0.02
645.862	0.05
646.049	0.12
646.235	0.07
646.421	0.13
646.607	0.13
646.793	0.05
646.979	0.01
647.165	0.07
647.352	0.06
647.538	0.11
647.724	0.03
647.91	0.08
648.096	0.09
648.282	0.1
648.468	0.05
648.654	0.07
648.84	0.07
649.026	0.01
649.212	0.07
649.397	0.04
649.583	0.03
649.769	0.07
649.955	0.06
650.141	0.06
650.327	0.09
650.513	0.02
650.698	0.08
650.884	0.04
651.07	0.06
651.256	0.06
651.442	0.05
651.627	0.05
651.813	0.06
651.999	0.05
652.184	0.1
652.37	0.05
652.556	0.04
652.741	0.13
652.927	-0.02
653.113	0.07
653.298	0.05
653.484	0
653.669	-0.01
653.855	0.04
654.04	0.11
654.226	0.06
654.412	0.02
654.597	0.05
654.782	0.08
654.968	0.08
655.153	0.07
655.339	0.04
655.524	0.03
655.71	0.1
655.895	0.04
656.08	0.02
656.266	0.12
656.451	0.07
656.636	0.04
656.822	0.07
657.007	0.04
657.192	0.01
657.378	0.03
657.563	0.08
657.748	0.08
657.933	0.07
658.118	0.03
658.304	0.05
658.489	0.06
658.674	0.07
658.859	0.02
659.044	0.1
659.229	0.08
659.414	0.04
659.599	0.05
659.785	0.04
659.97	0.06
660.155	0.08
660.34	0.09
660.525	0.05
660.71	0.05
660.895	0.08
661.08	0.07
661.264	0.07
661.449	0.1
661.634	0.1
661.819	0.06
662.004	0.1
662.189	-0
662.374	0.04
662.559	0
662.743	0.01
662.928	0.06
663.113	0.06
663.298	-0.02
663.483	0.04
663.667	0.06
663.852	0.02
664.037	0.07
664.221	0.01
664.406	0.12
664.591	0.07
664.775	0.06
664.96	0.06
665.145	0.06
665.329	0.06
665.514	0.02
665.698	0.04
665.883	-0
666.068	0.13
666.252	0.07
666.437	0.05
666.621	0.07
666.806	0.05
666.99	0.06
667.174	0
667.359	0.11
667.543	0.05
667.728	0.07
667.912	0.01
668.096	0.1
668.281	0.05
668.465	0.04
668.649	0.07
668.834	0.02
669.018	0.03
669.202	0.04
669.387	0.04
669.571	0.13
669.755	0.03
669.939	0.05
670.124	0.06
670.308	0.13
670.492	0.1
670.676	0.06
670.86	0.08
671.044	0.04
671.228	0.12
671.413	0.06
671.597	0.09
671.781	0.06
671.965	0.06
672.149	0.08
672.333	0.07
672.517	0.04
672.701	0.13
672.885	0.05
673.069	0.04
673.253	0.12
673.437	0.06
673.621	0.03
673.804	0
673.988	0.09
674.172	0.07
674.356	0.01
674.54	0.04
674.724	0.16
674.908	0.02
675.091	0.09
675.275	0.07
675.459	0.13
675.643	0.07
675.826	0.1
676.01	0.1
676.194	0.04
676.377	0.1
676.561	0.08
676.745	0.06
676.928	0.1
677.112	0.11
677.296	0.04
677.479	0.06
677.663	0.04
677.846	0.09
678.03	0.07
678.213	0.04
678.397	0.1
678.58	0.02
678.764	0.1
678.947	0.04
679.131	0
679.314	0.1
679.498	0.07
679.681	0.12
679.865	0.13
680.048	0.04
680.231	0.05
680.415	0.06
680.598	0.1
680.781	0.06
680.965	0.07
681.148	0.12
681.331	0.05
681.514	0.1
681.698	0.04
681.881	0.09
682.064	0.06
682.247	0.09
682.43	-0
682.614	0.1
682.797	0.11
682.98	0.12
683.163	0.04
683.346	0.11
683.529	-0
683.712	0.04
683.895	0.12
684.078	0.02
684.261	0.04
684.444	0.1
684.627	0.11
684.81	0.02
684.993	0.05
685.176	0.09
685.359	0.03
685.542	0.06
685.725	0.09
685.908	0.07
686.091	0.06
686.274	0.12
686.457	0.13
686.639	0.06
686.822	0.1
687.005	0.1
687.188	0.05
687.371	0.15
687.553	0.11
687.736	0.09
687.919	0.12
688.102	0.1
688.284	0.06
688.467	0.04
688.65	0.05
688.832	0.03
689.015	0.06
689.197	0.03
689.38	0.13
689.563	0.11
689.745	0.03
689.928	0
690.11	0.01
690.293	0.07
690.475	0
690.658	0.11
690.84	0.04
691.023	0
691.205	0.04
691.388	0.08
691.57	0.05
691.752	0.08
691.935	-0.01
692.117	0.05
692.3	0.04
692.482	0.06
692.664	0.04
692.847	0.12
693.029	0.1
693.211	0.08
693.393	0
693.576	0.03
693.758	0.11
693.94	0.09
694.122	0.05
694.304	0.04
694.487	0.06
694.669	0.17
694.851	0.03
695.033	0.05
695.215	0.02
695.397	0.07
695.579	0.08
695.761	-0.02
695.943	0.06
696.125	0.1
696.308	0.13
696.49	-0.05
696.671	0.17
696.853	0.08
697.035	0.15
697.217	0.07
697.399	0.08
697.581	-0.02
697.763	0.03
697.945	-0.01
698.127	0.04
698.309	0.11
698.491	0.08
698.672	0.09
698.854	0.16
699.036	0.15
699.218	0.06
699.399	0.09
699.581	0.14
699.763	0.08
699.945	-0
700.126	0.08
700.308	0.07
700.49	0.07
700.671	-0.02
700.853	0.07
701.035	0.05
701.216	0.07
701.398	0.03
701.579	0.03
701.761	0.06
701.943	0
702.124	0.02
702.306	-0.01
702.487	0.19
702.669	0.03
702.85	0.01
703.031	0.04
703.213	0.14
703.394	0.15
703.576	0.05
703.757	0.12
703.938	0.11
704.12	0.22
704.301	0.07
704.483	0.08
704.664	0.06
704.845	0.15
705.026	0.11
705.208	0.08
705.389	0.1
705.57	0.11
705.751	0.09
705.933	0.13
706.114	0.12
706.295	0.04
706.476	-0.03
706.657	0.17
706.838	0.11
707.02	0.15
707.201	0.06
707.382	-0.01
707.563	0.12
707.744	0.05
707.925	-0.04
708.106	0.01
708.287	0.09
708.468	0.11
708.649	0.07
708.83	0.08
709.011	0.03
709.192	0.11
709.373	0.02
709.554	0.12
709.734	0.08
709.915	0.11
710.096	0.05
710.277	-0.05
710.458	0.05
710.639	0.11
710.819	-0.04
711	0.12
711.181	0.14
711.362	0.09
711.542	0.04
711.723	0.05
711.904	0.15
712.085	0.09
712.265	0.1
712.446	-0.05
712.627	0.09
712.807	0.05
712.988	0.08
713.168	-0.03
713.349	0.09
713.53	0.02
713.71	-0.02
713.891	-0.02
714.071	0.07
714.252	0.06
714.432	0.09
714.613	-0.01
714.793	0.01
714.974	0.17
715.154	0.12
715.334	0.1
715.515	0.14
715.695	-0.02
715.876	0.01
716.056	0.03
716.236	0.02
716.417	0.04
716.597	-0.03
716.777	0.26
716.957	0.03
717.138	0.11
717.318	0.06
717.498	-0.03
717.678	0.05
717.859	0.07
718.039	0.03
718.219	0.06
718.399	0.1
718.579	0.02
718.759	0.05
718.939	0.05
719.12	0.05
719.3	0.05
719.48	-0.05
719.66	-0.07
719.84	0.12
720.02	0.03
720.2	0
720.38	0.04
720.56	0.18
720.74	0.06
720.92	0.05
721.1	0.14
721.279	0.19
721.459	0.05
721.639	-0.02
721.819	0.04
721.999	0.03
722.179	0.11
722.359	-0.04
722.538	0.11
722.718	0.07
722.898	0.11
723.078	0.09
723.257	0.03
723.437	0.1
723.617	-0
723.797	0.1
723.976	0.06
724.156	0.13
724.336	0.16
724.515	0.2
724.695	-0.04
724.874	0.01
725.054	0.08
725.234	0.01
725.413	0.12
725.593	0.03
725.772	0.03
725.952	0.04
726.131	0.05
726.311	0.06
726.49	0.06
726.67	0.01
726.849	0.03
727.028	0.2
727.208	0.06
727.387	0.16
727.567	-0
727.746	0.05
727.925	0.1
728.105	-0.06
728.284	0.06
728.463	-0.01
728.643	0.11
728.822	0
729.001	0.06
729.18	0.01
729.359	0.05
729.539	0.02
729.718	0.06
729.897	0.03
730.076	-0.01
730.255	-0.04
730.434	0.04
730.614	0.11
730.793	0.14
730.972	0.03
731.151	-0.02
731.33	0.19
731.509	0.01
731.688	0.09
731.867	0.03
732.046	-0.06
732.225	0.27
732.404	0.02
732.583	-0.13
732.762	0.02
732.941	0.12
733.12	0.05
733.298	-0
733.477	0.07
733.656	0.01
733.835	0
734.014	0.13
734.193	0.1
734.371	0.21
734.55	0.24
734.729	-0.01
734.908	0.09
735.086	0.06
735.265	0.12
735.444	-0.08
735.623	-0.02
735.801	0.03
735.98	0.08
736.159	0.01
736.337	0.18
736.516	0.13
736.694	0.07
736.873	0.03
737.052	0.31
737.23	0.17
737.409	0.02
737.587	0.24
737.766	-0.01
737.944	-0.01
738.123	0.17
738.301	0.18
738.479	0.06
738.658	0.06
738.836	-0.05
739.015	0.07
739.193	0.14
739.371	-0.01
739.55	-0.04
739.728	-0.02
739.906	0.24
740.085	0.19
740.263	0.07
740.441	-0.02
740.62	0.21
740.798	0.19
740.976	-0.03
741.154	0.06
741.332	0.21
741.511	0.06
741.689	0.12
741.867	0.09
742.045	0.04
742.223	0.01
742.401	0.04
742.579	-0.06
742.757	0.05
742.935	0.01
743.114	-0.07
743.292	-0.04
743.47	0.11
743.648	0.15
743.826	-0.02
744.004	0.09
744.181	0.15
744.359	0.02
744.537	0.07
744.715	-0.02
744.893	0.1
745.071	0.14
745.249	-0.04
745.427	0.04
745.605	0.15
745.782	0.1
745.96	0.11
746.138	0.22
746.316	0.17
746.493	0.13
746.671	0.05
746.849	0.03
747.027	0.16
747.204	-0.11
747.382	0.21
747.56	-0.03
747.737	0.15
747.915	-0.05
748.093	0.18
748.27	0.03
748.448	-0.07
748.625	-0.07
748.803	-0.11
748.98	0.01
749.158	0.09
749.335	0.17
749.513	-0.01
749.69	0.04
749.868	0.07
750.045	0.15
750.223	-0.02
750.4	-0.16
750.578	0.26
750.755	0.06
750.932	-0.12
751.11	0.18
751.287	-0.02
751.464	0.23
751.642	-0.03
751.819	0.1
751.996	0.09
752.173	0.03
752.351	-0.07
752.528	0.08
752.705	-0.05
752.882	-0
753.06	0.03
753.237	0.1
753.414	0.16
753.591	0.2
753.768	0.14
753.945	-0.01
754.122	-0
754.299	0.07
754.476	0.05
754.654	0.06
754.831	0.04
755.008	0.06
755.185	0.03
755.362	-0.11
755.539	0.05
755.716	-0.04
755.892	0.04
756.069	0.01
756.246	0.03
756.423	0.08
756.6	0.1
756.777	0.05
756.954	0.1
757.131	0.17
757.307	-0.15
757.484	-0.12
757.661	0.01
757.838	0.13
758.015	0
758.191	0.22
758.368	0.07
758.545	0.26
758.721	0.15
758.898	-0.02
759.075	0.15
759.251	0.2
759.428	0.12
759.605	-0.12
759.781	0.01
759.958	0.15
760.134	0.14
760.311	0.02
760.488	0.07
760.664	0.27
760.841	0.04
761.017	-0.14
761.194	0.1
761.37	0.13
761.547	0.03
761.723	0.08
761.899	0.1
762.076	0.02
762.252	-0.16
762.429	0.03
762.605	0.08
762.781	-0.07
762.958	0.2
763.134	0.02
763.31	0.1
763.486	0.16
763.663	-0.16
763.839	0.14
764.015	-0.07
764.191	0
764.368	0.04
764.544	-0.05
764.72	0.08
764.896	0.21
765.072	0.05
765.248	-0.01
765.425	0.02
765.601	0.07
765.777	0.14
765.953	-0.05
766.129	0.05
766.305	-0.1
766.481	0.15
766.657	0.1
766.833	0.29
767.009	-0.11
767.185	-0.05
767.361	-0.02
767.537	0.01
767.713	0.26
767.889	-0.07
768.065	0.12
768.24	0.16
768.416	0.11
768.592	0.03
768.768	0.1
768.944	0.02
769.12	-0.06
769.295	-0.02
769.471	0.17
769.647	0.08
769.823	0.14
769.998	0.02
770.174	-0.04
770.35	0.29
770.525	0.29
770.701	0.05
770.877	0.04
771.052	-0.09
771.228	0.09
771.403	0.17
771.579	0.13
771.755	0.39
771.93	-0.03
772.106	-0.11
772.281	0
772.457	0.01
772.632	0.06
772.808	-0.11
772.983	-0.02
773.159	0.01
773.334	0.14
773.509	0.05
773.685	-0.09
773.86	0.29
774.036	0.34
774.211	0.03
774.386	0.03
774.562	-0.01
774.737	0.24
774.912	-0.02
775.087	0.17
775.263	0.14
775.438	0.12
775.613	-0.08
775.788	-0.05
775.964	0.15
776.139	0.45
776.314	-0.19
776.489	0.03
776.664	0.04
776.839	-0.04
777.014	0.16
777.19	0.24
777.365	0.22
777.54	0.23
777.715	-0
777.89	0.11
778.065	-0.1
778.24	0.04
778.415	0.27
778.59	-0
778.765	-0.04
778.94	0.04
779.115	0.08
779.289	0.16
779.464	0
779.639	0.06
779.814	-0.11
779.989	-0.06
780.164	0.34
780.339	0.23
780.513	-0.02
780.688	-0.16
780.863	0.1
781.038	0.13
781.212	-0.19
781.387	-0.09
781.562	0.42
781.737	0.11
781.911	0.32
782.086	-0.06
782.261	-0.16
782.435	0.18
782.61	-0.02
782.784	-0
782.959	0.11
783.134	0.11
783.308	-0.25
783.483	-0
783.657	0.53
783.832	0.22
784.006	-0.33
784.181	-0.07
784.355	0.32
784.53	-0.19
784.704	-0.02
784.878	0.2
785.053	0.19
785.227	0.23
785.402	0.44
785.576	-0.06
785.75	0.04
785.925	-0.22
786.099	0.02
786.273	0.14
786.448	0.27
786.622	0.14
786.796	0.04
786.97	-0.18
787.145	0.29
787.319	-0.27
787.493	-0.17
787.667	-0.29
787.841	0.25
788.015	0.42
788.19	-0.02
788.364	0.14
788.538	0.13
788.712	0.13
788.886	-0
789.06	0.2
789.234	0.32
789.408	-0.09
789.582	0.06
789.756	-0.11
789.93	-0.18
790.104	-0.04
790.278	-0.06
790.452	0.03
790.626	0.27
790.8	0.12
790.973	0.32
791.147	0.31
791.321	0.23
791.495	0.35
791.669	0.19
791.843	0.13
792.016	0.34
792.19	0.55
792.364	-0.35
792.538	0.57
792.711	0.23
792.885	-0.02
793.059	-0.23
793.233	-0.52
793.406	0.21
793.58	-0
793.754	0.21
793.927	-0.04
794.101	0.15
794.274	-0.14
794.448	0.3
794.622	-0.25
794.795	0.71
794.969	0.03
795.142	0.34
795.316	-0.01
795.489	-0.02
795.663	0.43
795.836	0.14
796.009	-0.24
796.183	0.44
796.356	0.19
796.53	0.01
796.703	0.25
796.876	0.43
797.05	-0.07
797.223	0.07
797.396	0.22
797.57	0.07
797.743	0.41
797.916	0.13
798.09	0.31
798.263	0.45
798.436	0.12
798.609	-0.06
798.782	0.07
798.956	0.34
799.129	0.03
799.302	-0.01
799.475	-0.14
799.648	-0.15
799.821	-0.09
799.994	0.16
800.167	-0.32
800.34	0.22
800.514	0.2
800.687	-0.13
800.86	-0.02
801.033	0.05
801.206	0.21
801.379	-0.28
801.551	0.47
801.724	0.42
801.897	0.35
802.07	0.08
802.243	-0.48
802.416	0.02
802.589	-0.15
802.762	0.18
802.935	-0.29
803.107	0.23
803.28	0.45
803.453	0.34
803.626	-0.16
803.798	0.14
803.971	-0.07
804.144	0.22
804.317	0.34
804.489	0.09
804.662	0.45
804.835	0.29
805.007	-0.25
805.18	0.43
805.353	0.14
805.525	-0.18
805.698	-0.15
805.87	0.38
806.043	0.53
806.215	-0.14
806.388	-0.27
806.56	0.23
806.733	0.21
806.905	0.12
807.078	-0.09
807.25	0.18
807.423	0.25
807.595	0.14
807.768	0.1
807.94	0.6
808.112	0.38
808.285	0.15
808.457	-0.07
808.629	0.09
808.802	0.21
808.974	-0.06
809.146	0.09
809.318	-0.26
809.491	0.14
809.663	0.39
809.835	-0.32
810.007	0.21
810.18	-0.09
810.352	-0.36
810.524	-0.28
810.696	0.07
810.868	0.33
811.04	-0.34
811.212	-0.23
811.384	0.16
811.556	0.32
811.728	-0.14
811.901	0.65
812.073	-0.03
812.245	0.62
812.417	-0.06
812.589	-0.54
812.76	0.31
812.932	0.38
813.104	0.24
813.276	0.14
813.448	0.44
813.62	0.19
813.792	0.16
813.964	0.27
814.136	0.2
814.307	-0.12
814.479	-0.1
814.651	0.21
814.823	0.64
814.995	0.15
815.166	0.12
815.338	0.02
815.51	-0.47
815.681	0.85
815.853	-0.25
816.025	-0.19
816.196	0.39
816.368	0.27
816.54	-0.45
816.711	-0.19
816.883	0.21
817.054	0.85
817.226	-0.38
817.398	-0.09
817.569	-0.24
817.741	-0.26
817.912	-0.14
818.084	0.33
818.255	0.46
818.426	-0.12
818.598	-0.11
818.769	-0.26
818.941	0.13
819.112	0.4
819.283	0.03
819.455	-0.57
819.626	0.66
819.798	0.23
819.969	0.27
820.14	0.21
820.311	0.41
820.483	0.02
820.654	0.18
820.825	-0.13
820.996	0.12
821.168	-0.31
821.339	-0.07
821.51	-0.03
821.681	-0.09
821.852	-0.04
822.023	-0.31
822.195	-0.78
822.366	0.72
822.537	0.01
822.708	0.01
822.879	-0.67
823.05	0.16
823.221	0.08
823.392	0.38
823.563	0.21
823.734	0.31
823.905	0.01
824.076	-0.14
824.247	-0.18
824.418	-0.56
824.589	0.61
824.759	-0.01
824.93	-0.52
825.101	-0.47
825.272	0.56
825.443	0.41
825.614	0.41
825.784	-0.81
825.955	1.05
826.126	1.07
826.297	0.16
826.467	0.78
826.638	0.22
826.809	-0.85
826.98	-0.5
827.15	0.15
827.321	0.35
827.492	0.59
827.662	0.06
827.833	0.7
828.003	0.46
828.174	-0.29
828.345	-0.51
828.515	0.59
828.686	0.25
828.856	-0.48
829.027	0.09
829.197	-0.31
829.368	0.38
829.538	0.11
829.709	-0.34
829.879	0.57
830.049	-0.25
830.22	-0.44
830.39	-0.06
830.56	0.26
830.731	-0.47
830.901	-0.02
831.072	0.16
831.242	-0.05
831.412	0.43
831.582	-0.16
831.753	-0.11
831.923	0.66
832.093	-0.11
832.263	-0.33
832.434	-0.52
832.604	-0.22
832.774	0.82
832.944	-0.08
833.114	-0.27
833.284	-0.15
833.454	-0.41
833.624	0.04
833.795	-0.71
833.965	0.69
834.135	0.54
834.305	-0.93
834.475	-0.9
834.645	0.08
834.815	-0.2
834.985	-0.62
835.155	0.09
835.325	0.49
835.494	0.52
835.664	0.14
835.834	0.19
836.004	0.62
836.174	0.58
836.344	0.3
836.514	-1.16
836.684	-0.63
836.853	-0.48
837.023	0.32
837.193	-0.36
837.363	1.27
837.532	0.34
837.702	-0.5
837.872	-0.38
838.041	0.72
838.211	1.68
838.381	-0.69
838.55	-0.31
838.72	2.18
838.89	1.25
839.059	-0.26
839.229	-0.66
839.398	1.27
839.568	-0.06
839.738	-0.78
839.907	1.14
840.077	-0.26
840.246	-0.57
840.416	-0.77
840.585	-1.16
840.755	1.24
840.924	0.3
841.093	-0.54
841.263	-0.11
841.432	-0.23
841.602	-0.11
841.771	-0.53
841.94	0.02
842.11	1.72
842.279	1.16
842.448	-0.12
842.617	-0.28
842.787	0.86
842.956	0.09
843.125	-0.16
843.294	0.83
843.464	0.45
843.633	-0.21
843.802	-0.82
843.971	-0.16
844.14	1.06
844.309	1.13
844.479	0.3
844.648	-0.66
844.817	-0.14
844.986	0.38
845.155	-0.66
845.324	-0.16
845.493	0.17
845.662	-0.72
845.831	-0.16
846	-0.67
846.169	-0.05
846.338	1.11
846.507	1.26
846.676	1.2
846.844	0.48
847.013	-0.02
847.182	-0.11
847.351	-0.49
847.52	-0.71
847.689	0.96
847.858	-0.03
848.026	-0.75
848.195	0.42
848.364	-0.53
848.533	-0.14
848.701	-1
848.87	0.43
849.039	0.35
849.207	1.1
849.376	0.79
849.545	1.36
849.713	-0.03
849.882	0.21
850.051	0.18
850.219	0.39
850.388	0.4
850.556	-0.46
850.725	-0.56
850.893	0.57
851.062	-0.42
851.23	0.87
851.399	-1.06
851.567	-0.34
851.736	-0.63
851.904	-0.84
852.073	-0.61
852.241	0.59
852.41	0.78
852.578	-0.29
852.746	-0.65
852.915	0.97
853.083	0.12
853.251	-1.89
853.42	-0.91
853.588	-0.57
853.756	0.51
853.924	0.81
854.093	-0.59
854.261	0.45
854.429	-1.19
854.597	0.45
854.765	-0.02
854.934	0.86
855.102	1.09
855.27	-0.02
855.438	0.17
855.606	0.63
855.774	2.01
855.942	-1.61
856.11	-1.57
856.278	-0.83
856.446	0.63
856.614	-0.33
856.782	0.18
856.95	0.81
857.118	0.72
857.286	-0.43
857.454	-0.82
857.622	1.18
857.79	1.19
857.958	-1.94
858.126	-0.42
858.294	-2.62
858.462	0.78
858.629	0.03
858.797	-0.62
858.965	-0.36
859.133	1.48
859.301	-1.07
859.468	0.93
859.636	-1.03
859.804	2.16
859.971	1.08
860.139	-1.23
860.307	0.93
860.474	0.32
860.642	-0.95
860.81	-0.67
860.977	-0.71
861.145	0.97
861.313	-0.22
861.48	0.12
861.648	0.21
861.815	0.34
861.983	-0.33
862.15	0.79
862.318	-0.58
862.485	1.22
862.653	-0.05
862.82	-2.14
862.988	0.73
863.155	0.67
863.322	-0.5
863.49	-1.53
863.657	-0.33
863.824	1.15
863.992	-0.28
864.159	0.25
864.326	1.87
864.494	0.23
864.661	0.88
864.828	-2.25
864.996	1.13
865.163	2.09
865.33	-1.53
865.497	-1.69
865.664	-1.45
865.832	-0.93
865.999	-0.28
866.166	-1.49
866.333	-0.49
866.5	-1.05
866.667	0.15
866.834	-0.88
867.001	0.69
867.168	-0.79
867.335	1.5
867.502	-2.55
867.669	1.69
867.836	2.62
868.003	-0.44
868.17	0.92
868.337	-0.91
868.504	2.41
868.671	-2.17
868.838	-0.99
869.005	0.6
869.172	0.25
869.339	0.91
869.505	0.68
869.672	0.98
869.839	2.12
870.006	-0.22
870.173	-1.8
870.339	1.23
870.506	2.42
870.673	-0.17
870.84	0.85
871.006	1.95
871.173	0.84
871.34	-0.86
871.506	-1.24
871.673	1.12
871.839	-1.36
872.006	1.06
872.173	-1.53
872.339	0.43
872.506	0.18
872.672	-0.96
872.839	-2.5
873.005	0.77
873.172	2.65
873.338	1.85
873.505	-0.91
873.671	0.94
873.838	1.68
874.004	-1.53
874.171	-1.37
874.337	0.89
874.503	0.43
874.67	0.77
874.836	-1.29
875.002	3.27
875.169	0.61
875.335	1.38
875.501	-0.04
875.668	4.17
875.834	-0.66
876	1.14
876.166	0.52
876.332	0.57
876.499	2.94
876.665	-1.23
876.831	0.91
876.997	3.62
877.163	0.97
877.329	0.77
877.495	1.59
877.662	-0.27
877.828	1.48
877.994	-0.55
878.16	-2.4
878.326	-0.89
878.492	-0.78
878.658	-1.39
878.824	0.02
878.99	1.77
879.156	-1.08
879.322	1.36
879.487	0.02
879.653	0.5
879.819	-0.39
879.985	0.71
880.151	0.15
880.317	1.61
880.483	1.74
880.648	1.72
880.814	-3.14
880.98	1.07
881.146	-2.97
881.312	-0.77
881.477	0.15
881.643	-1.01
881.809	2.07
881.974	2.59
882.14	-1.71
882.306	-0.94
882.471	3.01
882.637	-0.94
882.803	-0
882.968	1.55
883.134	2.9
883.299	0.26
883.465	1.36
883.63	1.53
883.796	1.57
883.961	2.37
884.127	1.26
884.292	-4.7
884.458	-1.38
884.623	-1.38
