Data from Apollo_Calib_20240827__AbsoluteIrradiance__353__05-02-00-759.txt Node

Date: Wed Aug 28 05:02:00 BST 2024
User: biology
Spectrometer: FLMT08252
Trigger mode: 0
Integration Time (sec): 5.000000E-1
Scans to average: 5
Electric dark correction enabled: true
Nonlinearity correction enabled: false
Boxcar width: 0
XAxis mode: Wavelengths
Number of Pixels in Spectrum: 3648
>>>>>Begin Spectral Data<<<<<
179.588	-0
179.809	-0
180.03	-0
180.251	-0
180.473	-0
180.694	0
180.915	0
181.136	-0
181.357	0
181.578	0
181.799	-0
182.02	-0
182.241	0
182.462	-0
182.683	0
182.904	-0
183.125	-0
183.346	0
183.567	0
183.788	0
184.009	-0
184.23	0
184.451	0
184.672	-0
184.892	-0
185.113	0
185.334	0
185.555	0
185.776	-0
185.996	0
186.217	0
186.438	0
186.659	-0
186.879	0
187.1	-0
187.321	0
187.541	-0
187.762	0
187.983	0
188.203	0
188.424	0
188.644	0
188.865	0
189.086	0
189.306	0
189.527	0
189.747	0
189.968	0
190.188	0
190.409	0
190.629	0
190.849	0
191.07	0
191.29	0
191.511	0
191.731	0
191.951	-0
192.172	0
192.392	-0
192.612	0
192.833	0
193.053	0
193.273	0
193.493	-0
193.714	-0
193.934	0
194.154	0
194.374	0
194.594	0
194.815	0
195.035	0
195.255	0
195.475	0
195.695	0
195.915	0
196.135	0
196.355	0
196.575	0
196.795	0
197.015	-0
197.235	-0
197.455	0
197.675	0
197.895	-0
198.115	-0
198.335	0
198.555	0
198.775	0
198.995	0
199.214	0
199.434	0
199.654	0
199.874	0
200.094	1.56
200.313	0.31
200.533	0.28
200.753	-0.02
200.973	1.66
201.192	1.22
201.412	-0.46
201.632	0
201.851	1.79
202.071	-0.01
202.291	0.17
202.51	0.07
202.73	0.66
202.95	-0.25
203.169	-0.19
203.389	0.49
203.608	0.31
203.828	-0.24
204.047	-0.05
204.267	0.61
204.486	1.06
204.706	0.65
204.925	0.17
205.145	-0
205.364	0.67
205.583	1.04
205.803	-0.01
206.022	-0.24
206.242	0.51
206.461	0.26
206.68	0.19
206.9	0.22
207.119	0.91
207.338	1.19
207.557	0.13
207.777	0.13
207.996	0.42
208.215	0.59
208.434	0.24
208.654	-0.18
208.873	0.49
209.092	0.73
209.311	0.19
209.53	0.23
209.749	0.2
209.968	-0.07
210.187	0.04
210.407	-0.11
210.626	0.12
210.845	0.63
211.064	0.2
211.283	0.02
211.502	0.56
211.721	-0.02
211.94	0.05
212.159	0.49
212.377	0.47
212.596	0.42
212.815	0.39
213.034	0.44
213.253	0.37
213.472	0.55
213.691	0.1
213.91	-0.16
214.128	0.28
214.347	0.67
214.566	-0.28
214.785	-0.08
215.003	0.5
215.222	0.47
215.441	0.09
215.66	-0.15
215.878	0.31
216.097	0.35
216.316	0.09
216.534	0.02
216.753	0.42
216.972	0.26
217.19	0.14
217.409	-0.06
217.627	0.06
217.846	0.05
218.064	0.32
218.283	-0
218.501	0.46
218.72	0.39
218.938	-0.12
219.157	0.1
219.375	0.36
219.594	0.36
219.812	0.05
220.031	0.09
220.249	0.52
220.467	0.37
220.686	-0
220.904	-0.12
221.122	0.12
221.341	0.47
221.559	0.31
221.777	-0.12
221.995	0.19
222.214	0.24
222.432	-0.03
222.65	0.29
222.868	0.19
223.086	0.06
223.305	0.34
223.523	0.22
223.741	0.4
223.959	0.06
224.177	-0.2
224.395	0.06
224.613	0.18
224.831	0.3
225.049	0.01
225.267	0.02
225.485	0.08
225.703	0.25
225.921	0.07
226.139	0.12
226.357	0.35
226.575	0.16
226.793	0.1
227.011	0.71
227.229	0.26
227.447	0.37
227.665	-0
227.883	-0.09
228.1	0.06
228.318	0.33
228.536	-0.11
228.754	-0
228.972	0.22
229.189	0.28
229.407	0.01
229.625	-0.02
229.843	0.3
230.06	0.29
230.278	0.13
230.496	0.09
230.713	0.17
230.931	0.31
231.149	0.1
231.366	-0.05
231.584	0.17
231.801	0.45
232.019	0.11
232.236	-0.06
232.454	0.06
232.671	0.14
232.889	0.08
233.106	-0.06
233.324	0.11
233.541	0.13
233.759	0.14
233.976	0.09
234.194	0.12
234.411	0.15
234.628	0.01
234.846	0.12
235.063	0.04
235.28	0.1
235.498	0.14
235.715	0.02
235.932	0.23
236.149	0.16
236.367	0.05
236.584	0.18
236.801	0.04
237.018	0.15
237.236	0.1
237.453	-0.07
237.67	0.27
237.887	0.04
238.104	0.11
238.321	0.14
238.538	0.07
238.755	0.17
238.973	-0.12
239.19	0.07
239.407	0.22
239.624	0.22
239.841	-0.07
240.058	0.11
240.275	0.2
240.492	0.08
240.709	0.11
240.925	0.03
241.142	0.15
241.359	-0.02
241.576	0.02
241.793	0.07
242.01	0.12
242.227	0.31
242.444	0.15
242.66	0.22
242.877	0.07
243.094	0.07
243.311	0.08
243.527	0.03
243.744	0.13
243.961	0.14
244.178	0.02
244.394	-0.01
244.611	0.27
244.828	0.32
245.044	0.02
245.261	0.04
245.477	0.13
245.694	0.1
245.911	0.04
246.127	0.15
246.344	0.17
246.56	0.09
246.777	0.06
246.993	0.08
247.21	0.22
247.426	0.22
247.643	0.09
247.859	0.04
248.076	0.09
248.292	0.31
248.508	0.04
248.725	0.16
248.941	0.16
249.157	0.19
249.374	0.03
249.59	0.11
249.806	0.09
250.023	0.21
250.239	0.04
250.455	-0.02
250.671	0.11
250.888	0.16
251.104	0.09
251.32	0.09
251.536	0.06
251.752	0.02
251.969	0.06
252.185	0.13
252.401	0.34
252.617	0.21
252.833	0.06
253.049	0.05
253.265	0.03
253.481	0.09
253.697	-0.03
253.913	0.07
254.129	0.18
254.345	0.14
254.561	0.05
254.777	0.11
254.993	0.16
255.209	0.11
255.425	0.09
255.641	0.08
255.857	0.2
256.073	0.1
256.288	-0.06
256.504	-0.01
256.72	0.15
256.936	0.23
257.152	0.04
257.367	0.01
257.583	0.13
257.799	0.2
258.015	0.01
258.23	-0
258.446	0.21
258.662	0.1
258.877	0.02
259.093	0.01
259.309	0.21
259.524	0.19
259.74	0.07
259.955	-0.07
260.171	0.1
260.387	0.07
260.602	0.2
260.818	0.14
261.033	0.08
261.249	0.07
261.464	0.04
261.68	-0.06
261.895	0.21
262.11	0.19
262.326	0.08
262.541	-0.04
262.757	0.17
262.972	0.22
263.187	0.12
263.403	0.1
263.618	0.16
263.833	0.1
264.049	0.06
264.264	0.14
264.479	0.16
264.694	0.22
264.91	0.07
265.125	0.05
265.34	0.14
265.555	0.23
265.77	0.1
265.986	0.01
266.201	0.12
266.416	0.22
266.631	0.13
266.846	0.12
267.061	0.14
267.276	0.17
267.491	-0.04
267.706	0.16
267.921	0.15
268.136	0.14
268.351	0.1
268.566	-0.03
268.781	0.22
268.996	0.19
269.211	0.12
269.426	0.06
269.641	0.03
269.856	0.18
270.071	0.08
270.285	-0.03
270.5	0.17
270.715	0.16
270.93	0.05
271.145	0.13
271.359	0.14
271.574	0.14
271.789	0.03
272.004	0.02
272.218	0.05
272.433	0.15
272.648	0.05
272.862	0.12
273.077	0.03
273.292	0.12
273.506	0.09
273.721	0.03
273.936	0.2
274.15	0.18
274.365	0.09
274.579	0.13
274.794	0.16
275.008	0.17
275.223	0.02
275.437	0.18
275.652	0.13
275.866	0.14
276.081	0.12
276.295	0.14
276.509	0.11
276.724	0.1
276.938	0.13
277.153	0.1
277.367	0.15
277.581	-0.01
277.796	0.09
278.01	0.06
278.224	0.21
278.438	0.22
278.653	-0.01
278.867	0.04
279.081	0.18
279.295	0.08
279.51	0.11
279.724	-0.02
279.938	0.13
280.152	0.13
280.366	0.05
280.58	0.13
280.794	0.23
281.008	0.11
281.222	0.15
281.437	0.17
281.651	0.11
281.865	0.13
282.079	0.05
282.293	-0.01
282.507	0.05
282.721	0.06
282.935	0.11
283.148	0.01
283.362	0.04
283.576	0.05
283.79	0.12
284.004	0.03
284.218	0.15
284.432	0.07
284.646	0.06
284.859	0.07
285.073	0.1
285.287	0.11
285.501	0.09
285.714	0.09
285.928	0.12
286.142	0.14
286.356	0.03
286.569	0.06
286.783	0.08
286.997	0.16
287.21	0.1
287.424	0.07
287.637	0.07
287.851	0.08
288.065	0.15
288.278	0.11
288.492	0.11
288.705	0.04
288.919	0.11
289.132	0.05
289.346	0.14
289.559	0.02
289.773	-0
289.986	0.11
290.2	0.1
290.413	0.17
290.626	0.06
290.84	0.11
291.053	0.13
291.267	0.13
291.48	0.08
291.693	0.11
291.906	0.06
292.12	0.07
292.333	0.08
292.546	0.07
292.76	0.21
292.973	0.12
293.186	0.12
293.399	0.05
293.612	0.14
293.826	0.1
294.039	0.07
294.252	0.06
294.465	0.14
294.678	0.14
294.891	0.14
295.104	0.01
295.317	0.08
295.53	0.08
295.743	0.09
295.956	0.05
296.169	0.19
296.382	0.15
296.595	0.11
296.808	0.07
297.021	0.19
297.234	0.14
297.447	0.12
297.66	0.09
297.873	0.18
298.086	0.15
298.299	0.07
298.511	0.04
298.724	0.09
298.937	0.06
299.15	0.11
299.363	0.11
299.575	0.13
299.788	0.14
300.001	0.1
300.213	0.12
300.426	0.06
300.639	0.05
300.852	0.05
301.064	0.14
301.277	0.19
301.489	0.16
301.702	0.13
301.915	0.05
302.127	0.09
302.34	0.09
302.552	0.11
302.765	0.05
302.977	0.13
303.19	0.06
303.402	0.11
303.615	0.1
303.827	0.08
304.04	0.09
304.252	0.12
304.464	0.07
304.677	0.18
304.889	0.12
305.102	0.1
305.314	0.03
305.526	0.15
305.739	0.14
305.951	0.07
306.163	0.11
306.375	0.14
306.588	0.06
306.8	0.05
307.012	0.04
307.224	0.14
307.436	0.17
307.649	0.04
307.861	0.11
308.073	0.16
308.285	0.11
308.497	0.05
308.709	0.06
308.921	0.11
309.133	0.18
309.346	0.09
309.558	0.08
309.77	0.13
309.982	0.15
310.194	0.13
310.406	0.05
310.617	0.13
310.829	0.1
311.041	0.1
311.253	0.07
311.465	0.1
311.677	0.13
311.889	0.1
312.101	0.09
312.313	0.11
312.524	0.13
312.736	0.04
312.948	0.08
313.16	0.19
313.372	0.12
313.583	0.1
313.795	0.09
314.007	0.09
314.218	0.12
314.43	0.07
314.642	0.08
314.853	0.03
315.065	0.17
315.277	0.11
315.488	0.1
315.7	0.13
315.912	0.12
316.123	0.06
316.335	0.11
316.546	0.25
316.758	0.07
316.969	0.1
317.181	0.07
317.392	0.14
317.604	0.13
317.815	0.09
318.026	0.09
318.238	0.05
318.449	0.11
318.661	0.03
318.872	0.04
319.083	0.03
319.295	0.12
319.506	0.05
319.717	0.12
319.929	0.12
320.14	0.12
320.351	0.08
320.562	0.04
320.774	0.1
320.985	0.11
321.196	0.1
321.407	-0.01
321.618	0.1
321.829	0.11
322.041	0.14
322.252	0.1
322.463	0.11
322.674	0.1
322.885	0.06
323.096	0.07
323.307	0.09
323.518	0.12
323.729	0.06
323.94	0.09
324.151	0.08
324.362	0.06
324.573	0.13
324.784	0.08
324.995	0.16
325.206	0.12
325.417	0.08
325.628	0.06
325.838	0.09
326.049	0.12
326.26	0.15
326.471	0.06
326.682	0.13
326.892	0.09
327.103	0.01
327.314	0.06
327.525	0.12
327.735	0.11
327.946	0.08
328.157	0.07
328.368	0.15
328.578	0.11
328.789	0.14
328.999	0.1
329.21	0.07
329.421	0.15
329.631	0.09
329.842	0.07
330.052	0.14
330.263	0.15
330.473	0.15
330.684	0.07
330.894	0.09
331.105	0.12
331.315	0.14
331.526	0.06
331.736	0.13
331.947	0.09
332.157	0.14
332.367	0.07
332.578	0.09
332.788	0.16
332.999	0.14
333.209	0.07
333.419	0.01
333.629	0.12
333.84	0.1
334.05	0.07
334.26	0.13
334.47	0.05
334.681	0.12
334.891	0.07
335.101	0.13
335.311	0.18
335.521	0.08
335.732	0.04
335.942	0.17
336.152	0.18
336.362	0.11
336.572	0.11
336.782	0.14
336.992	0.07
337.202	0.06
337.412	0.05
337.622	0.11
337.832	0.11
338.042	0.06
338.252	0.09
338.462	0.11
338.672	0.07
338.882	0.07
339.092	0.1
339.302	0.18
339.511	0.14
339.721	0.08
339.931	0.02
340.141	0.2
340.351	0.15
340.561	0.09
340.77	0.1
340.98	0.11
341.19	0.11
341.4	0.05
341.609	0.04
341.819	0.11
342.029	-0.01
342.238	0.11
342.448	0.07
342.658	0.12
342.867	0.11
343.077	0.11
343.286	0.11
343.496	0.1
343.706	0.16
343.915	0.03
344.125	0.06
344.334	0.13
344.544	0.03
344.753	0.07
344.963	0.1
345.172	0.08
345.381	0.07
345.591	0.06
345.8	0.09
346.01	0.18
346.219	0.18
346.428	-0.04
346.638	0.07
346.847	0.1
347.056	0.18
347.266	0.02
347.475	0.09
347.684	0.15
347.893	0.11
348.103	0.1
348.312	0.05
348.521	0.07
348.73	0.11
348.94	0.07
349.149	0.08
349.358	0.09
349.567	0.09
349.776	0.03
349.985	0.05
350.194	0.13
350.403	0.18
350.612	0.06
350.821	0.09
351.03	0.09
351.239	0.01
351.448	0.11
351.657	0.08
351.866	0.21
352.075	0.1
352.284	0.16
352.493	0.04
352.702	0.16
352.911	0.07
353.12	0.1
353.329	0.07
353.538	0.1
353.746	0.09
353.955	0.06
354.164	0.14
354.373	0.08
354.582	0.13
354.79	0.11
354.999	0.13
355.208	0.1
355.416	0.18
355.625	0.02
355.834	0.07
356.042	0.12
356.251	0.07
356.46	0.06
356.668	0.13
356.877	0.17
357.085	0.14
357.294	0.05
357.503	0.1
357.711	0.08
357.92	0.25
358.128	0.13
358.337	0.1
358.545	0.12
358.754	0.08
358.962	0.14
359.17	0.06
359.379	0.11
359.587	0.14
359.796	0.06
360.004	0.13
360.212	0.13
360.421	0.14
360.629	0.05
360.837	0.1
361.046	0.16
361.254	0.18
361.462	0.12
361.67	0.08
361.879	0.11
362.087	0.11
362.295	0.11
362.503	0.05
362.711	0.07
362.92	0.06
363.128	0.11
363.336	0.04
363.544	0.03
363.752	0.11
363.96	0.06
364.168	0.08
364.376	0.1
364.584	0.1
364.792	0.16
365	0.1
365.208	0.1
365.416	0.13
365.624	0.16
365.832	0.07
366.04	0.15
366.248	0.11
366.456	0.08
366.664	0.09
366.872	0.1
367.079	0.09
367.287	0.1
367.495	0.13
367.703	0.08
367.911	0.09
368.118	0.1
368.326	0.06
368.534	0.08
368.742	0.15
368.949	0.07
369.157	0.06
369.365	0.13
369.572	0.09
369.78	0.06
369.988	0.14
370.195	0.08
370.403	0.12
370.61	0.09
370.818	0.14
371.026	0.12
371.233	0.05
371.441	0.09
371.648	0.05
371.856	0.1
372.063	0.13
372.271	0.06
372.478	0.1
372.685	0.1
372.893	0.11
373.1	0.08
373.308	0.04
373.515	0.2
373.722	0.13
373.93	0.12
374.137	0.14
374.344	0.15
374.552	0.19
374.759	0.13
374.966	0.1
375.173	0.12
375.381	0.14
375.588	0.08
375.795	0.06
376.002	0.06
376.209	0.07
376.417	0.08
376.624	0.13
376.831	0.14
377.038	0.11
377.245	0.07
377.452	0.08
377.659	0.1
377.866	0.1
378.073	0.08
378.28	0.07
378.487	0.18
378.694	0.09
378.901	0.05
379.108	0.07
379.315	0.14
379.522	0.17
379.729	0.09
379.936	0.1
380.143	0.12
380.35	0.15
380.557	0.11
380.763	0.09
380.97	0.12
381.177	0.12
381.384	0.1
381.591	0.11
381.797	0.11
382.004	0.17
382.211	0.14
382.418	0.11
382.624	0.15
382.831	0.12
383.038	0.1
383.244	0.11
383.451	0.1
383.658	0.13
383.864	0.1
384.071	0.07
384.277	0.16
384.484	0.1
384.69	0.13
384.897	0.1
385.103	0.1
385.31	0.12
385.516	0.11
385.723	0.08
385.929	0.1
386.136	0.12
386.342	0.15
386.549	0.09
386.755	0.18
386.961	0.13
387.168	0.08
387.374	0.11
387.58	0.16
387.787	0.11
387.993	0.12
388.199	0.12
388.406	0.1
388.612	0.11
388.818	0.13
389.024	0.08
389.231	0.13
389.437	0.16
389.643	0.18
389.849	0.11
390.055	0.11
390.261	0.14
390.467	0.13
390.674	0.1
390.88	0.1
391.086	0.13
391.292	0.04
391.498	0.14
391.704	0.12
391.91	0.12
392.116	0.1
392.322	-0.01
392.528	0.17
392.734	0.11
392.94	0.14
393.146	0.1
393.352	0.13
393.557	0.11
393.763	0.09
393.969	0.15
394.175	0.13
394.381	0.12
394.587	0.08
394.792	0.12
394.998	0.17
395.204	0.16
395.41	0.08
395.615	0.17
395.821	0.13
396.027	0.18
396.233	0.11
396.438	0.09
396.644	0.2
396.85	0.17
397.055	0.1
397.261	0.14
397.466	0.13
397.672	0.18
397.878	0.2
398.083	0.16
398.289	0.11
398.494	0.21
398.7	0.16
398.905	0.12
399.111	0.2
399.316	0.14
399.522	0.14
399.727	0.12
399.932	0.14
400.138	0.14
400.343	0.18
400.549	0.13
400.754	0.18
400.959	0.19
401.165	0.17
401.37	0.18
401.575	0.25
401.78	0.17
401.986	0.13
402.191	0.14
402.396	0.16
402.601	0.17
402.807	0.16
403.012	0.2
403.217	0.24
403.422	0.2
403.627	0.19
403.832	0.13
404.037	0.23
404.243	0.18
404.448	0.23
404.653	0.14
404.858	0.18
405.063	0.25
405.268	0.17
405.473	0.15
405.678	0.17
405.883	0.37
406.088	0.23
406.293	0.15
406.498	0.16
406.703	0.23
406.907	0.18
407.112	0.18
407.317	0.22
407.522	0.28
407.727	0.17
407.932	0.25
408.136	0.28
408.341	0.23
408.546	0.31
408.751	0.27
408.956	0.22
409.16	0.31
409.365	0.26
409.57	0.24
409.774	0.28
409.979	0.35
410.184	0.27
410.388	0.24
410.593	0.36
410.798	0.37
411.002	0.29
411.207	0.33
411.411	0.37
411.616	0.3
411.82	0.31
412.025	0.39
412.229	0.36
412.434	0.47
412.638	0.41
412.843	0.43
413.047	0.44
413.252	0.43
413.456	0.49
413.66	0.56
413.865	0.46
414.069	0.59
414.273	0.48
414.478	0.51
414.682	0.55
414.886	0.52
415.091	0.55
415.295	0.57
415.499	0.68
415.703	0.64
415.908	0.69
416.112	0.58
416.316	0.8
416.52	0.73
416.724	0.72
416.929	0.76
417.133	0.99
417.337	0.84
417.541	0.85
417.745	0.89
417.949	0.99
418.153	1.03
418.357	1.01
418.561	1.24
418.765	1.16
418.969	1.31
419.173	1.3
419.377	1.24
419.581	1.46
419.785	1.45
419.989	1.41
420.193	1.54
420.397	1.56
420.601	1.73
420.804	1.76
421.008	1.71
421.212	1.86
421.416	1.91
421.62	1.87
421.823	1.9
422.027	2.14
422.231	2.04
422.435	2.05
422.638	2.15
422.842	2.21
423.046	2.3
423.249	2.46
423.453	2.48
423.657	2.54
423.86	2.6
424.064	2.79
424.268	2.9
424.471	2.93
424.675	3.08
424.878	3.18
425.082	3.24
425.285	3.48
425.489	3.5
425.692	3.6
425.896	3.61
426.099	3.84
426.303	3.99
426.506	4.03
426.71	4.3
426.913	4.43
427.116	4.64
427.32	4.66
427.523	4.78
427.726	5.03
427.93	5.2
428.133	5.52
428.336	5.63
428.54	5.72
428.743	5.92
428.946	6.24
429.149	6.29
429.353	6.25
429.556	6.47
429.759	6.49
429.962	6.56
430.165	6.77
430.368	6.51
430.571	6.67
430.775	6.82
430.978	6.7
431.181	6.8
431.384	6.93
431.587	7.04
431.79	7.41
431.993	7.36
432.196	7.6
432.399	7.98
432.602	8.09
432.805	8.32
433.008	8.78
433.211	8.69
433.414	9.08
433.616	9.08
433.819	9.12
434.022	9.23
434.225	9.44
434.428	9.59
434.631	9.95
434.833	9.86
435.036	10.17
435.239	10.37
435.442	10.5
435.645	10.69
435.847	10.76
436.05	11.1
436.253	11.42
436.455	11.45
436.658	11.55
436.861	11.9
437.063	11.95
437.266	12.12
437.468	12.57
437.671	12.91
437.874	13.03
438.076	12.98
438.279	13.51
438.481	13.64
438.684	14.61
438.886	14.26
439.089	14.74
439.291	14.84
439.494	15.3
439.696	15.63
439.899	16.42
440.101	17.03
440.303	17.26
440.506	18.24
440.708	18.08
440.91	18.51
441.113	19.03
441.315	19.38
441.517	19.48
441.72	20.07
441.922	19.91
442.124	20.05
442.326	20.63
442.529	21.13
442.731	21.24
442.933	21.95
443.135	21.77
443.337	22.01
443.539	22.74
443.742	22.75
443.944	23.7
444.146	23.5
444.348	23.51
444.55	23.67
444.752	24.09
444.954	24.36
445.156	24.4
445.358	25.27
445.56	25.67
445.762	25.56
445.964	26.21
446.166	26.18
446.368	26.19
446.57	26.44
446.772	26.12
446.974	25.84
447.175	26.35
447.377	26.15
447.579	26.91
447.781	26.44
447.983	26.14
448.184	25.77
448.386	26.47
448.588	25.81
448.79	25.77
448.991	26.33
449.193	26.5
449.395	25.58
449.597	24.88
449.798	24.87
450	24.2
450.202	24.2
450.403	24.18
450.605	24.11
450.806	23.51
451.008	23.31
451.21	22.87
451.411	22.45
451.613	21.04
451.814	21.49
452.016	21.12
452.217	20.26
452.419	20.2
452.62	19.67
452.821	19.23
453.023	19.04
453.224	18.54
453.426	17.94
453.627	16.65
453.828	16.73
454.03	16.95
454.231	16.69
454.432	16.43
454.634	16.01
454.835	15.48
455.036	15.46
455.238	14.55
455.439	14.19
455.64	13.87
455.841	13.74
456.042	13.77
456.244	13.3
456.445	12.89
456.646	12.44
456.847	12.37
457.048	12.25
457.249	12.16
457.45	11.68
457.651	11.07
457.852	10.78
458.054	10.27
458.255	10.26
458.456	10.23
458.657	10.21
458.858	9.51
459.058	9.39
459.259	9.4
459.46	9.02
459.661	8.97
459.862	8.85
460.063	8.78
460.264	8.62
460.465	8.36
460.666	8.33
460.866	8.02
461.067	7.51
461.268	7.62
461.469	7.55
461.67	7.29
461.87	7
462.071	7.05
462.272	6.93
462.473	6.83
462.673	6.97
462.874	6.86
463.075	6.7
463.275	6.82
463.476	6.75
463.676	6.62
463.877	6.39
464.078	6.31
464.278	6.25
464.479	6.17
464.679	5.96
464.88	5.79
465.08	5.76
465.281	5.63
465.481	5.27
465.682	5.02
465.882	4.94
466.083	4.85
466.283	4.77
466.483	4.53
466.684	4.34
466.884	4.15
467.085	4.16
467.285	4.21
467.485	4.03
467.686	3.92
467.886	3.75
468.086	3.63
468.286	3.62
468.487	3.65
468.687	3.49
468.887	3.34
469.087	3.44
469.287	3.28
469.488	3.1
469.688	3.18
469.888	3.07
470.088	2.98
470.288	3
470.488	2.84
470.688	2.69
470.888	2.72
471.088	2.49
471.288	2.53
471.488	2.47
471.688	2.43
471.888	2.3
472.088	2.44
472.288	2.28
472.488	2.18
472.688	2.12
472.888	2.12
473.088	2.15
473.288	1.98
473.488	1.96
473.688	2.07
473.887	1.92
474.087	1.82
474.287	1.86
474.487	1.77
474.687	1.81
474.886	1.7
475.086	1.63
475.286	1.65
475.486	1.58
475.685	1.56
475.885	1.46
476.085	1.58
476.284	1.49
476.484	1.45
476.684	1.41
476.883	1.47
477.083	1.36
477.282	1.29
477.482	1.4
477.681	1.3
477.881	1.2
478.08	1.18
478.28	1.17
478.479	1.21
478.679	1.17
478.878	1.1
479.078	1.08
479.277	1.11
479.477	1.05
479.676	1.03
479.875	1.02
480.075	0.96
480.274	0.95
480.473	1.01
480.673	0.93
480.872	0.94
481.071	0.89
481.271	0.93
481.47	0.82
481.669	0.84
481.868	0.79
482.067	0.78
482.267	0.77
482.466	0.77
482.665	0.71
482.864	0.7
483.063	0.66
483.262	0.72
483.461	0.74
483.661	0.75
483.86	0.63
484.059	0.66
484.258	0.64
484.457	0.61
484.656	0.63
484.855	0.66
485.054	0.53
485.253	0.53
485.452	0.49
485.651	0.54
485.849	0.53
486.048	0.49
486.247	0.47
486.446	0.52
486.645	0.45
486.844	0.47
487.043	0.47
487.241	0.46
487.44	0.43
487.639	0.44
487.838	0.43
488.037	0.44
488.235	0.46
488.434	0.36
488.633	0.32
488.831	0.38
489.03	0.42
489.229	0.36
489.427	0.33
489.626	0.4
489.825	0.39
490.023	0.31
490.222	0.31
490.42	0.34
490.619	0.35
490.817	0.3
491.016	0.29
491.214	0.33
491.413	0.31
491.611	0.26
491.81	0.27
492.008	0.31
492.207	0.3
492.405	0.28
492.604	0.21
492.802	0.24
493	0.26
493.199	0.23
493.397	0.24
493.595	0.21
493.794	0.23
493.992	0.26
494.19	0.22
494.388	0.24
494.587	0.19
494.785	0.23
494.983	0.18
495.181	0.21
495.379	0.21
495.578	0.18
495.776	0.2
495.974	0.21
496.172	0.18
496.37	0.18
496.568	0.16
496.766	0.16
496.964	0.19
497.162	0.16
497.36	0.15
497.558	0.19
497.756	0.2
497.954	0.17
498.152	0.15
498.35	0.15
498.548	0.14
498.746	0.15
498.944	0.14
499.142	0.14
499.34	0.15
499.538	0.14
499.736	0.14
499.933	0.2
500.131	0.19
500.329	0.15
500.527	0.17
500.725	0.17
500.922	0.16
501.12	0.15
501.318	0.13
501.516	0.11
501.713	0.15
501.911	0.11
502.109	0.09
502.306	0.14
502.504	0.11
502.701	0.08
502.899	0.12
503.097	0.19
503.294	0.09
503.492	0.11
503.689	0.14
503.887	0.16
504.084	0.15
504.282	0.11
504.479	0.07
504.677	0.12
504.874	0.09
505.072	0.09
505.269	0.1
505.466	0.11
505.664	0.12
505.861	0.09
506.059	0.07
506.256	0.11
506.453	0.09
506.651	0.13
506.848	0.11
507.045	0.1
507.242	0.09
507.44	0.08
507.637	0.11
507.834	0.08
508.031	0.13
508.229	0.07
508.426	0.09
508.623	0.12
508.82	0.07
509.017	0.05
509.214	0.09
509.411	0.09
509.608	0.05
509.805	0.08
510.003	0.07
510.2	0.06
510.397	0.12
510.594	0.07
510.791	0.05
510.988	0.09
511.184	0.11
511.381	0.09
511.578	0.07
511.775	0.11
511.972	0.06
512.169	0.06
512.366	0.05
512.563	0.08
512.76	0.05
512.956	0.08
513.153	0.08
513.35	0.08
513.547	0.06
513.744	0.05
513.94	0.04
514.137	0.08
514.334	0.07
514.53	0.07
514.727	0.08
514.924	0.14
515.12	0.04
515.317	0.04
515.514	0.06
515.71	0.04
515.907	0.07
516.103	0.07
516.3	0.07
516.497	0.08
516.693	0.11
516.89	0.04
517.086	0.05
517.283	0.07
517.479	0.06
517.676	0.08
517.872	0.07
518.068	0.07
518.265	0.07
518.461	0.06
518.658	0.05
518.854	0.06
519.05	0.04
519.247	0.03
519.443	0.06
519.639	0.07
519.836	0.07
520.032	0.07
520.228	0.06
520.424	0.11
520.621	0.06
520.817	0.05
521.013	0.08
521.209	0.08
521.405	0.12
521.601	0.06
521.798	0.06
521.994	0.1
522.19	0.03
522.386	0.03
522.582	0.07
522.778	0.08
522.974	0.04
523.17	0.05
523.366	0.08
523.562	0.08
523.758	0.06
523.954	0.03
524.15	0.05
524.346	0.09
524.542	0.06
524.738	0.02
524.934	0.03
525.129	0.03
525.325	0.07
525.521	0.05
525.717	0.09
525.913	0.07
526.109	0.04
526.304	0.05
526.5	0.05
526.696	0.09
526.892	0.05
527.087	0.03
527.283	0.03
527.479	0.06
527.674	0.04
527.87	0.05
528.066	0.03
528.261	0.07
528.457	0.05
528.653	0.04
528.848	0.05
529.044	0.06
529.239	0.04
529.435	0.07
529.63	0.05
529.826	0.09
530.021	0.07
530.217	0.06
530.412	0.03
530.608	0.04
530.803	0.06
530.999	0.04
531.194	0.01
531.389	0.07
531.585	0.01
531.78	0.04
531.975	0.04
532.171	0.07
532.366	0.05
532.561	0.03
532.757	0.03
532.952	0.07
533.147	0.05
533.342	0.04
533.538	0.04
533.733	0.05
533.928	0.05
534.123	0.05
534.318	0.02
534.513	0.05
534.709	0.06
534.904	0.03
535.099	0.04
535.294	0.05
535.489	0.04
535.684	0.02
535.879	0.03
536.074	0.05
536.269	0.02
536.464	0.05
536.659	0.04
536.854	0.02
537.049	0.04
537.244	0.04
537.439	0.03
537.634	0.08
537.828	0.05
538.023	0.03
538.218	-0
538.413	0.06
538.608	0.03
538.803	0.07
538.997	0.02
539.192	0.07
539.387	0.07
539.582	0.04
539.776	0.05
539.971	0.04
540.166	0.04
540.36	0.05
540.555	0.05
540.75	0.05
540.944	0.05
541.139	0
541.334	0.02
541.528	0.07
541.723	0.08
541.917	0.05
542.112	0.01
542.306	0.05
542.501	0.03
542.695	0.07
542.89	0.02
543.084	0.05
543.279	0.04
543.473	0.04
543.668	0.04
543.862	0.04
544.056	0.06
544.251	0.04
544.445	0.05
544.64	0.04
544.834	0.01
545.028	0.03
545.222	0.06
545.417	0.04
545.611	0.03
545.805	0.05
546	0.03
546.194	0.04
546.388	0.02
546.582	0.06
546.776	0.04
546.97	0.05
547.165	0.03
547.359	0.05
547.553	0.01
547.747	0.04
547.941	0.06
548.135	0.03
548.329	0.06
548.523	0.07
548.717	0.02
548.911	0.04
549.105	0.04
549.299	0.05
549.493	0.06
549.687	0.03
549.881	0.07
550.075	0.03
550.269	-0.02
550.463	0.06
550.657	0.03
550.85	0.05
551.044	0.01
551.238	0.06
551.432	0.04
551.626	0
551.82	0.05
552.013	0
552.207	0.04
552.401	0.07
552.594	0.04
552.788	0.04
552.982	0.05
553.176	0.03
553.369	0.04
553.563	0.06
553.756	0.01
553.95	-0.01
554.144	0.01
554.337	0.07
554.531	0.04
554.724	0.05
554.918	0.03
555.111	0.04
555.305	0.03
555.498	0.07
555.692	0.05
555.885	0.03
556.079	0.05
556.272	0.04
556.466	0.07
556.659	0.06
556.852	0.03
557.046	0.03
557.239	0.04
557.432	0.01
557.626	0.03
557.819	0.05
558.012	0.05
558.206	0.05
558.399	0.04
558.592	0.06
558.785	0.02
558.979	0.05
559.172	0.06
559.365	0.04
559.558	0.04
559.751	0.03
559.944	0.02
560.138	0.03
560.331	0.03
560.524	0.04
560.717	0.04
560.91	0.04
561.103	0.06
561.296	0.04
561.489	0.06
561.682	0.04
561.875	0.07
562.068	0.04
562.261	0.03
562.454	0.09
562.647	0.04
562.84	0.04
563.032	0.02
563.225	0.02
563.418	0.04
563.611	0.03
563.804	0.02
563.997	-0.01
564.19	-0.01
564.382	0.03
564.575	0
564.768	0.04
564.961	0.03
565.153	0
565.346	0.05
565.539	0.07
565.731	0.08
565.924	0.04
566.117	0.06
566.309	0.03
566.502	0.02
566.695	0.03
566.887	0.05
567.08	0.01
567.272	0.01
567.465	0.03
567.657	0.05
567.85	0.07
568.042	0.07
568.235	0.05
568.427	0.03
568.62	0.04
568.812	0.03
569.005	0.02
569.197	0.01
569.389	0.06
569.582	0.05
569.774	0.03
569.966	-0
570.159	-0.01
570.351	0.06
570.543	0
570.736	0.02
570.928	0.02
571.12	0.05
571.312	0.01
571.505	-0.01
571.697	0.06
571.889	0.02
572.081	0.02
572.273	0.01
572.465	0.06
572.658	0.02
572.85	0.03
573.042	0.03
573.234	0.02
573.426	0.08
573.618	0
573.81	0.05
574.002	0.06
574.194	0.08
574.386	-0.03
574.578	-0.04
574.77	0.01
574.962	0.02
575.154	0
575.346	0.01
575.538	0.03
575.729	-0.01
575.921	0.02
576.113	0.02
576.305	0.05
576.497	0.01
576.689	0.01
576.88	0.01
577.072	0.07
577.264	0.04
577.456	0.03
577.647	-0.05
577.839	0.02
578.031	0.06
578.223	-0.01
578.414	0.02
578.606	0.06
578.798	0.04
578.989	-0
579.181	0.02
579.372	0.03
579.564	0.02
579.755	0.03
579.947	0.06
580.139	0.07
580.33	-0
580.522	0.01
580.713	-0.03
580.905	0.02
581.096	0.05
581.287	0.04
581.479	0.04
581.67	0.05
581.862	0.03
582.053	0.01
582.244	-0.01
582.436	0.01
582.627	0.03
582.818	0.01
583.01	-0.01
583.201	0.06
583.392	0.04
583.583	0.03
583.775	0.02
583.966	0.01
584.157	0.01
584.348	0.02
584.54	-0.01
584.731	0.04
584.922	0.03
585.113	0.01
585.304	0.02
585.495	0.03
585.686	0.02
585.877	0.02
586.068	0.04
586.259	0.03
586.45	0.01
586.641	-0.01
586.832	-0.03
587.023	0.03
587.214	0.04
587.405	0.02
587.596	-0.02
587.787	0.07
587.978	0.05
588.169	0.01
588.36	0
588.551	0.02
588.742	0.03
588.932	0.05
589.123	0.01
589.314	0.04
589.505	0.04
589.696	0.03
589.886	-0.01
590.077	-0.01
590.268	0.04
590.458	0.01
590.649	-0.03
590.84	0.04
591.03	-0.02
591.221	0
591.412	-0.02
591.602	0.03
591.793	0.05
591.984	-0
592.174	0.02
592.365	0.11
592.555	-0.01
592.746	0.03
592.936	0.02
593.127	0.05
593.317	0.06
593.508	0.01
593.698	0.03
593.889	0.02
594.079	0.03
594.269	0.01
594.46	0.01
594.65	0.03
594.84	0.02
595.031	-0.02
595.221	0.01
595.411	-0.02
595.602	0.06
595.792	0.02
595.982	-0
596.172	0.09
596.363	0.03
596.553	0.04
596.743	-0
596.933	0.02
597.123	0.05
597.314	-0.01
597.504	-0.01
597.694	0.06
597.884	0.03
598.074	0.02
598.264	-0.01
598.454	0.05
598.644	0.02
598.834	0.03
599.024	-0.03
599.214	0
599.404	0.06
599.594	-0
599.784	0
599.974	0.09
600.164	0.04
600.354	-0.01
600.544	0.01
600.734	0.02
600.924	0.07
601.114	0.01
601.303	0.02
601.493	0.03
601.683	0.01
601.873	0.03
602.063	-0
602.252	0.04
602.442	-0.02
602.632	-0
602.821	-0
603.011	0.04
603.201	0.02
603.39	-0.02
603.58	-0.01
603.77	0.05
603.959	0.03
604.149	0.02
604.339	-0.01
604.528	0.05
604.718	0.04
604.907	0.02
605.097	0.01
605.286	-0.03
605.476	0.06
605.665	0.04
605.855	0.01
606.044	0.09
606.234	0.03
606.423	0.01
606.612	-0.02
606.802	0.02
606.991	0.04
607.181	0.03
607.37	-0.02
607.559	0.01
607.749	0.01
607.938	0.01
608.127	-0
608.316	0.01
608.506	0.05
608.695	0.02
608.884	0.03
609.073	0.03
609.263	0.01
609.452	0.02
609.641	0.05
609.83	-0.01
610.019	0.02
610.208	0
610.397	0.02
610.586	0.07
610.775	0.01
610.965	0
611.154	0.01
611.343	0.02
611.532	0.04
611.721	-0.04
611.91	0.01
612.099	0.02
612.287	0.02
612.476	-0.02
612.665	0.02
612.854	0.01
613.043	0.07
613.232	0.01
613.421	-0.03
613.61	0.03
613.798	-0.03
613.987	0.04
614.176	0.03
614.365	0.04
614.554	0.02
614.742	0.04
614.931	0
615.12	0.08
615.309	0
615.497	0.04
615.686	-0.01
615.875	0.01
616.063	0.03
616.252	0.01
616.44	0.01
616.629	0.03
616.818	0.07
617.006	-0.02
617.195	0.03
617.383	0.04
617.572	0.01
617.76	-0.01
617.949	0.01
618.137	0.04
618.326	0.08
618.514	0.02
618.703	-0
618.891	0.08
619.079	-0.04
619.268	0.04
619.456	0
619.644	0.08
619.833	0.02
620.021	-0.02
620.209	-0.01
620.398	0.06
620.586	0.03
620.774	0.02
620.962	0.02
621.151	0.07
621.339	0.04
621.527	-0.03
621.715	-0.02
621.903	0.01
622.092	-0.02
622.28	0.03
622.468	0.04
622.656	0.03
622.844	0.02
623.032	-0
623.22	-0.05
623.408	0.06
623.596	0.06
623.784	0.02
623.972	-0.01
624.16	0.02
624.348	0.07
624.536	0
624.724	-0.02
624.912	0.07
625.1	0.04
625.288	-0
625.476	-0
625.664	0.03
625.851	0.02
626.039	0.02
626.227	0.04
626.415	0.03
626.603	-0.02
626.79	0.04
626.978	-0.01
627.166	0.03
627.354	0.04
627.541	0.01
627.729	-0.07
627.917	0.05
628.104	0.07
628.292	0
628.48	0
628.667	0.03
628.855	0.03
629.042	0.03
629.23	-0.01
629.418	0
629.605	0.02
629.793	0.01
629.98	0
630.168	0.01
630.355	0.05
630.543	0.05
630.73	0.01
630.917	0.06
631.105	0.11
631.292	-0.01
631.48	0.01
631.667	0.09
631.854	-0
632.042	0.03
632.229	-0.02
632.416	0.02
632.604	0.02
632.791	-0.03
632.978	0.07
633.165	0.04
633.353	0.06
633.54	0.03
633.727	-0.04
633.914	0.01
634.101	-0.02
634.289	0.09
634.476	0.01
634.663	-0.02
634.85	0.02
635.037	-0.01
635.224	-0.08
635.411	0.04
635.598	0.04
635.785	0.01
635.972	0.01
636.159	0.05
636.346	0.01
636.533	0.04
636.72	-0
636.907	-0.02
637.094	0.03
637.281	0.02
637.468	-0.01
637.655	0.01
637.842	-0.01
638.029	-0.01
638.215	0.06
638.402	0.04
638.589	-0.01
638.776	0.01
638.963	-0.02
639.149	0.08
639.336	0.08
639.523	-0
639.709	0
639.896	0.01
640.083	0.07
640.27	0.03
640.456	-0.02
640.643	0.03
640.829	-0.03
641.016	0
641.203	-0.01
641.389	0.04
641.576	0.04
641.762	0.01
641.949	-0.02
642.135	0.03
642.322	0.06
642.508	-0.03
642.695	-0
642.881	-0.01
643.068	0.03
643.254	0.01
643.441	0.05
643.627	0.01
643.813	-0.01
644	0.05
644.186	-0.01
644.372	0.03
644.559	0.05
644.745	-0.01
644.931	-0
645.118	-0.02
645.304	0.02
645.49	0
645.676	0.01
645.862	-0.03
646.049	0.07
646.235	0.01
646.421	0.07
646.607	0.05
646.793	-0
646.979	-0
647.165	0.06
647.352	0.05
647.538	0.05
647.724	0.04
647.91	0.01
648.096	0.04
648.282	0.07
648.468	0.02
648.654	0.04
648.84	0.04
649.026	0.01
649.212	-0.01
649.397	-0.01
649.583	-0.01
649.769	0.03
649.955	0.01
650.141	0.03
650.327	0.07
650.513	-0.01
650.698	-0
650.884	-0.07
651.07	0.04
651.256	0.02
651.442	-0.01
651.627	0
651.813	0.05
651.999	0.02
652.184	-0.01
652.37	-0.02
652.556	0
652.741	0.07
652.927	-0.08
653.113	-0.02
653.298	0.01
653.484	0.01
653.669	-0.05
653.855	0.02
654.04	0.03
654.226	0
654.412	0.02
654.597	-0.01
654.782	0.04
654.968	0.04
655.153	0.02
655.339	0.01
655.524	-0.05
655.71	0.02
655.895	0.01
656.08	-0.01
656.266	0.04
656.451	0.03
656.636	-0.02
656.822	0.02
657.007	-0
657.192	-0.02
657.378	-0.05
657.563	0.02
657.748	0.05
657.933	0.05
658.118	-0.05
658.304	-0.02
658.489	0.05
658.674	0.04
658.859	-0.04
659.044	0.03
659.229	0.03
659.414	-0
659.599	-0.01
659.785	-0.03
659.97	0.01
660.155	0.06
660.34	0.03
660.525	-0.01
660.71	0.01
660.895	0.07
661.08	0.01
661.264	-0.02
661.449	0.09
661.634	0.09
661.819	0.01
662.004	0.04
662.189	-0.03
662.374	-0.03
662.559	-0.01
662.743	-0.04
662.928	0.04
663.113	0.01
663.298	-0.04
663.483	-0.02
663.667	0.03
663.852	-0.04
664.037	0.05
664.221	-0.01
664.406	0.04
664.591	0.04
664.775	-0
664.96	-0.01
665.145	0.01
665.329	0.07
665.514	0.02
665.698	-0.03
665.883	-0.04
666.068	0.06
666.252	0.02
666.437	-0.03
666.621	0.04
666.806	0.03
666.99	0.04
667.174	-0
667.359	0.06
667.543	0.01
667.728	0.02
667.912	-0.07
668.096	0.06
668.281	0.02
668.465	0.02
668.649	0.01
668.834	-0.01
669.018	-0.01
669.202	0.01
669.387	-0.03
669.571	0.04
669.755	0
669.939	0.02
670.124	0.04
670.308	0.1
670.492	0.03
670.676	0.01
670.86	-0.01
671.044	-0.04
671.228	0.05
671.413	-0
671.597	-0.01
671.781	-0.02
671.965	0.04
672.149	-0.02
672.333	0.03
672.517	-0
672.701	0.02
672.885	-0.01
673.069	-0.07
673.253	0.08
673.437	-0.01
673.621	-0.02
673.804	0.01
673.988	-0.01
674.172	0.02
674.356	-0.01
674.54	0
674.724	0.07
674.908	0.03
675.091	0.04
675.275	0.02
675.459	0.04
675.643	0.01
675.826	0.03
676.01	0.01
676.194	0.01
676.377	0.09
676.561	0.05
676.745	0.01
676.928	0.05
677.112	0.06
677.296	-0.02
677.479	-0.01
677.663	0.01
677.846	0.07
678.03	0.02
678.213	0
678.397	0.07
678.58	0
678.764	-0.03
678.947	0.01
679.131	-0.04
679.314	0.1
679.498	0.04
679.681	0.03
679.865	0.06
680.048	0.01
680.231	0
680.415	0.04
680.598	-0
680.781	-0.04
680.965	0.01
681.148	0.04
681.331	0.01
681.514	0.01
681.698	-0.01
681.881	0.02
682.064	-0.01
682.247	0
682.43	-0.04
682.614	0.04
682.797	0.06
682.98	0.06
683.163	-0.02
683.346	0.02
683.529	0.01
683.712	0.03
683.895	0.07
684.078	-0.03
684.261	-0
684.444	0.04
684.627	0.08
684.81	-0
684.993	-0.04
685.176	0.08
685.359	-0
685.542	-0.02
685.725	0.08
685.908	0.04
686.091	0
686.274	0.08
686.457	0.09
686.639	0.04
686.822	0.05
687.005	0.04
687.188	0.06
687.371	0.13
687.553	0.02
687.736	0.01
687.919	0.1
688.102	0.09
688.284	-0
688.467	-0
688.65	0
688.832	-0
689.015	0.04
689.197	-0.02
689.38	0.09
689.563	0.07
689.745	-0.02
689.928	0.01
690.11	0.02
690.293	0.01
690.475	-0.03
690.658	0.01
690.84	-0.02
691.023	-0.03
691.205	-0.02
691.388	0.03
691.57	0.03
691.752	0.07
691.935	-0.02
692.117	0.01
692.3	0.04
692.482	0.02
692.664	0.02
692.847	0.07
693.029	0.08
693.211	0.01
693.393	0.03
693.576	-0.02
693.758	0.03
693.94	-0.02
694.122	0.05
694.304	0.04
694.487	-0.03
694.669	0.09
694.851	-0.05
695.033	-0.01
695.215	-0.04
695.397	0.02
695.579	0.05
695.761	0.03
695.943	-0.05
696.125	0.06
696.308	0.02
696.49	-0.08
696.671	0.11
696.853	-0.01
697.035	0.17
697.217	-0.03
697.399	0.09
697.581	-0.01
697.763	-0
697.945	-0.07
698.127	0.01
698.309	-0.1
698.491	0.01
698.672	0.04
698.854	0.09
699.036	0.09
699.218	-0.02
699.399	0.11
699.581	0.02
699.763	0.04
699.945	-0.02
700.126	-0.03
700.308	0.05
700.49	0.08
700.671	-0.04
700.853	-0.02
701.035	0
701.216	0.04
701.398	-0.04
701.579	-0.04
701.761	0.08
701.943	-0.04
702.124	-0.01
702.306	0.01
702.487	0.07
702.669	0.04
702.85	-0
703.031	-0
703.213	0.15
703.394	0.04
703.576	0.01
703.757	0.06
703.938	0.07
704.12	0.18
704.301	0.02
704.483	-0.02
704.664	0.09
704.845	0.06
705.026	0.07
705.208	0.01
705.389	0.11
705.57	0.04
705.751	-0.02
705.933	0.03
706.114	0.04
706.295	-0.02
706.476	-0.07
706.657	0.09
706.838	0.06
707.02	0.04
707.201	-0.02
707.382	0.03
707.563	0.04
707.744	0.04
707.925	-0.05
708.106	-0.01
708.287	0.02
708.468	0.12
708.649	0.06
708.83	0.12
709.011	-0.03
709.192	0.09
709.373	-0.1
709.554	-0.03
709.734	0.06
709.915	0.07
710.096	-0
710.277	-0.08
710.458	0.05
710.639	0.13
710.819	-0.06
711	0.01
711.181	0.11
711.362	0.05
711.542	0.01
711.723	0.01
711.904	0.05
712.085	0.07
712.265	0.05
712.446	-0.05
712.627	0.02
712.807	-0.04
712.988	0.01
713.168	-0.02
713.349	0.04
713.53	-0.09
713.71	-0.05
713.891	-0.02
714.071	0.03
714.252	-0.02
714.432	-0
714.613	-0
714.793	0.01
714.974	0.15
715.154	0.09
715.334	0.14
715.515	0.12
715.695	-0.02
715.876	-0.04
716.056	-0.04
716.236	0.03
716.417	0
716.597	-0.04
716.777	0.14
716.957	-0.01
717.138	-0.01
717.318	0.03
717.498	-0.09
717.678	0.02
717.859	0.11
718.039	-0.07
718.219	0.04
718.399	0
718.579	-0.05
718.759	0.02
718.939	0.05
719.12	0.06
719.3	0.03
719.48	-0.01
719.66	-0.08
719.84	0.18
720.02	-0
720.2	-0.03
720.38	0
720.56	0.13
720.74	0.02
720.92	-0.01
721.1	0.12
721.279	0.08
721.459	0.01
721.639	-0.13
721.819	-0
721.999	-0.03
722.179	0.05
722.359	-0.07
722.538	0.02
722.718	0.03
722.898	0.04
723.078	0.04
723.257	0.04
723.437	0.04
723.617	0.08
723.797	-0.03
723.976	-0.03
724.156	0.07
724.336	0.14
724.515	0.17
724.695	-0.11
724.874	0.07
725.054	0.08
725.234	-0.04
725.413	0.05
725.593	-0.02
725.772	0.04
725.952	0.02
726.131	0.03
726.311	0.04
726.49	0.02
726.67	-0.07
726.849	-0.05
727.028	0.03
727.208	0
727.387	0.1
727.567	-0.13
727.746	0.03
727.925	0.07
728.105	-0.12
728.284	0.01
728.463	0.01
728.643	0.08
728.822	-0.07
729.001	0.04
729.18	0.05
729.359	0.12
729.539	0.04
729.718	0.11
729.897	0.08
730.076	-0.01
730.255	-0.11
730.434	-0.1
730.614	0.16
730.793	0.12
730.972	-0.01
731.151	0.05
731.33	0.14
731.509	0.11
731.688	-0.01
731.867	0.04
732.046	-0.09
732.225	0.15
732.404	-0.06
732.583	-0.11
732.762	0.04
732.941	0.18
733.12	0.05
733.298	0.07
733.477	0.04
733.656	0.01
733.835	0.03
734.014	0.19
734.193	-0.01
734.371	0.04
734.55	0.15
734.729	-0.14
734.908	0.06
735.086	0.12
735.265	0.05
735.444	-0.03
735.623	-0.09
735.801	-0.08
735.98	0.01
736.159	0.12
736.337	0.14
736.516	0.08
736.694	0.02
736.873	-0.05
737.052	0.21
737.23	0.15
737.409	0.04
737.587	0.14
737.766	-0.15
737.944	-0.05
738.123	0.07
738.301	0.05
738.479	0
738.658	0.01
738.836	-0.1
739.015	-0.01
739.193	0.18
739.371	-0.14
739.55	-0.05
739.728	-0.04
739.906	0.2
740.085	0.29
740.263	0.02
740.441	-0.17
740.62	0.22
740.798	0.1
740.976	-0.11
741.154	-0.14
741.332	0.22
741.511	-0.03
741.689	0.07
741.867	0.09
742.045	-0.02
742.223	-0
742.401	-0.07
742.579	-0.05
742.757	0.09
742.935	-0.16
743.114	0.01
743.292	0.07
743.47	-0.03
743.648	0.06
743.826	-0.07
744.004	0.06
744.181	0.14
744.359	-0.06
744.537	0.07
744.715	-0.04
744.893	0.02
745.071	0.02
745.249	0.07
745.427	0.15
745.605	0.15
745.782	-0.01
745.96	-0
746.138	-0.04
746.316	0.1
746.493	0.09
746.671	-0.01
746.849	0.04
747.027	0.18
747.204	-0.05
747.382	0.14
747.56	-0.11
747.737	-0
747.915	-0.03
748.093	0.04
748.27	-0.11
748.448	-0.06
748.625	-0.19
748.803	-0.01
748.98	0.06
749.158	0.16
749.335	0.09
749.513	0.03
749.69	-0.01
749.868	0.03
750.045	0.09
750.223	0.01
750.4	-0.19
750.578	0.15
750.755	0.08
750.932	-0.08
751.11	0.18
751.287	-0.08
751.464	0.08
751.642	-0.07
751.819	0.06
751.996	0.02
752.173	0.01
752.351	0.01
752.528	0.04
752.705	0.05
752.882	-0
753.06	0.01
753.237	0.04
753.414	0.19
753.591	0.18
753.768	0.01
753.945	0.05
754.122	-0.04
754.299	0.13
754.476	-0
754.654	0.05
754.831	0.12
755.008	0.06
755.185	-0.03
755.362	-0.09
755.539	0.16
755.716	-0.04
755.892	0.03
756.069	-0.08
756.246	-0
756.423	0.07
756.6	0.22
756.777	-0.07
756.954	0.14
757.131	-0.03
757.307	-0.15
757.484	-0.12
757.661	0.14
757.838	0.04
758.015	-0.07
758.191	0.09
758.368	0.07
758.545	0.23
758.721	0.06
758.898	-0.02
759.075	0.15
759.251	0.2
759.428	0.01
759.605	-0.07
759.781	0.04
759.958	0.11
760.134	0.08
760.311	-0.04
760.488	0.21
760.664	0.23
760.841	-0.03
761.017	-0.05
761.194	0.08
761.37	0.05
761.547	0.04
761.723	-0
761.899	0.13
762.076	-0.09
762.252	-0.1
762.429	0
762.605	0.03
762.781	0.05
762.958	0.23
763.134	-0
763.31	0.07
763.486	0.18
763.663	-0.17
763.839	0.08
764.015	-0.13
764.191	0.01
764.368	0.03
764.544	-0.04
764.72	-0.01
764.896	0.1
765.072	-0.06
765.248	-0.02
765.425	-0.12
765.601	-0.02
765.777	0.03
765.953	-0.15
766.129	-0.08
766.305	0.02
766.481	0.08
766.657	0.22
766.833	0.17
767.009	-0.16
767.185	-0.05
767.361	-0.03
767.537	-0.09
767.713	0.28
767.889	-0.12
768.065	0.08
768.24	0.06
768.416	0.11
768.592	0.01
768.768	0.01
768.944	0.09
769.12	-0.14
769.295	-0.05
769.471	0.02
769.647	0.14
769.823	0.25
769.998	-0.01
770.174	-0.14
770.35	0.36
770.525	0.34
770.701	0.12
770.877	0.01
771.052	-0.06
771.228	0.13
771.403	0.07
771.579	0.17
771.755	0.39
771.93	-0.03
772.106	-0.05
772.281	-0.06
772.457	-0.03
772.632	0.15
772.808	-0.11
772.983	-0.03
773.159	-0.07
773.334	0.34
773.509	0.12
773.685	-0.11
773.86	0.37
774.036	0.33
774.211	0.05
774.386	0.05
774.562	-0.09
774.737	0.09
774.912	-0.05
775.087	0.08
775.263	-0.04
775.438	0.06
775.613	-0.1
775.788	-0.11
775.964	0.24
776.139	0.4
776.314	-0.14
776.489	0.08
776.664	0.14
776.839	-0.01
777.014	0.37
777.19	0.18
777.365	0.25
777.54	0.3
777.715	-0.12
777.89	-0.03
778.065	-0.08
778.24	0.11
778.415	0.03
778.59	-0.1
778.765	-0.1
778.94	0.18
779.115	0.02
779.289	-0.09
779.464	0.06
779.639	0.04
779.814	-0.28
779.989	-0.06
780.164	0.09
780.339	0.11
780.513	-0.22
780.688	-0.03
780.863	-0.2
781.038	0.29
781.212	-0.14
781.387	-0
781.562	0.22
781.737	-0
781.911	0.27
782.086	-0.14
782.261	0.01
782.435	0.23
782.61	-0.08
782.784	0.01
782.959	0.19
783.134	0.17
783.308	-0.17
783.483	0.01
783.657	0.4
783.832	0.2
784.006	-0.34
784.181	0.14
784.355	0.24
784.53	-0.28
784.704	-0.2
784.878	0.24
785.053	0.13
785.227	0.31
785.402	0.25
785.576	-0.09
785.75	-0.04
785.925	-0.02
786.099	0.12
786.273	0.02
786.448	0.12
786.622	0.34
786.796	0.13
786.97	0.08
787.145	0.42
787.319	-0.32
787.493	-0.08
787.667	-0.29
787.841	-0.02
788.015	0.34
788.19	0.03
788.364	0.04
788.538	0.26
788.712	0.22
788.886	-0.1
789.06	0.22
789.234	0.35
789.408	-0.17
789.582	0.15
789.756	-0.03
789.93	-0.03
790.104	-0.06
790.278	-0.22
790.452	-0.03
790.626	0.14
790.8	0.08
790.973	0.3
791.147	0.31
791.321	0.28
791.495	0.22
791.669	0.09
791.843	0.15
792.016	0.08
792.19	0.38
792.364	-0.03
792.538	0.68
792.711	0.38
792.885	-0.24
793.059	-0.24
793.233	-0.04
793.406	0.37
793.58	0.06
793.754	0.27
793.927	0.01
794.101	0.22
794.274	-0.12
794.448	0.17
794.622	0.06
794.795	0.35
794.969	-0
795.142	0.21
795.316	0.07
795.489	-0.18
795.663	0.45
795.836	0.04
796.009	-0.11
796.183	0.56
796.356	0.02
796.53	-0.03
796.703	-0.04
796.876	0.79
797.05	-0
797.223	0.04
797.396	0.22
797.57	0.2
797.743	0.52
797.916	0.14
798.09	0.03
798.263	0.44
798.436	0.15
798.609	-0.05
798.782	-0.01
798.956	0.03
799.129	0.24
799.302	-0.27
799.475	0.01
799.648	0.24
799.821	-0.33
799.994	0.03
800.167	-0.22
800.34	0.2
800.514	0.09
800.687	-0
800.86	-0.01
801.033	-0.01
801.206	0.25
801.379	-0.39
801.551	0.43
801.724	0.1
801.897	0.38
802.07	-0.17
802.243	-0.47
802.416	-0.05
802.589	-0.16
802.762	0.33
802.935	0.12
803.107	0.34
803.28	0.35
803.453	0.15
803.626	0.07
803.798	0.06
803.971	-0.1
804.144	0.09
804.317	0.04
804.489	0.37
804.662	0.29
804.835	0.08
805.007	-0.15
805.18	0.81
805.353	0.24
805.525	-0.05
805.698	-0.23
805.87	0.64
806.043	0.03
806.215	-0.24
806.388	-0.29
806.56	0.16
806.733	0.2
806.905	-0.03
807.078	0.16
807.25	-0.18
807.423	0.38
807.595	0.08
807.768	0.2
807.94	0.14
808.112	0.01
808.285	0.17
808.457	-0.22
808.629	0.24
808.802	0.12
808.974	0.25
809.146	0.04
809.318	-0.4
809.491	0.09
809.663	0.11
809.835	-0.07
810.007	0.45
810.18	0.02
810.352	-0.38
810.524	-0.02
810.696	0.18
810.868	0.61
811.04	0.3
811.212	0.01
811.384	0.09
811.556	0.27
811.728	0.17
811.901	0.72
812.073	-0.22
812.245	0.33
812.417	0.11
812.589	-0.39
812.76	0.32
812.932	0.12
813.104	0.45
813.276	-0.01
813.448	0.09
813.62	-0.01
813.792	0.18
813.964	0.11
814.136	0.34
814.307	0.01
814.479	-0.27
814.651	0.03
814.823	1.06
814.995	0.18
815.166	0.32
815.338	-0.1
815.51	-0.55
815.681	0.65
815.853	0.16
816.025	-0.44
816.196	0.68
816.368	0.3
816.54	-0.44
816.711	-0.8
816.883	0.05
817.054	1.18
817.226	-0.3
817.398	0.37
817.569	-0.45
817.741	0.38
817.912	0.18
818.084	-0.44
818.255	0.65
818.426	-0.28
818.598	-0.14
818.769	0.28
818.941	0.37
819.112	0.77
819.283	0.3
819.455	-0.44
819.626	0.14
819.798	0.29
819.969	0.09
820.14	0.15
820.311	-0.3
820.483	0.09
820.654	0.06
820.825	-0.32
820.996	-0.09
821.168	-0.62
821.339	-0.43
821.51	-0.59
821.681	-0.23
821.852	0.38
822.023	-0.36
822.195	-1.3
822.366	0.49
822.537	0.25
822.708	0.22
822.879	0.13
823.05	0.67
823.221	-0.17
823.392	0.44
823.563	-0.02
823.734	0.35
823.905	0.1
824.076	0.08
824.247	-0.2
824.418	-0.22
824.589	0.41
824.759	0.04
824.93	0.47
825.101	-0.35
825.272	1.07
825.443	0.63
825.614	0.05
825.784	-1.21
825.955	0.94
826.126	0.3
826.297	0.17
826.467	0.87
826.638	0.84
826.809	-1.07
826.98	0.17
827.15	0.57
827.321	0.02
827.492	0.5
827.662	-0.21
827.833	1.12
828.003	-0.07
828.174	-0.43
828.345	-0.18
828.515	0.84
828.686	0.05
828.856	-0.19
829.027	-0.02
829.197	0.22
829.368	0.6
829.538	-0.05
829.709	0.01
829.879	0.17
830.049	-0.31
830.22	-0.31
830.39	-0.39
830.56	0.26
830.731	-0.73
830.901	-0.37
831.072	-0.43
831.242	-0.1
831.412	-0.33
831.582	-0.06
831.753	-1.01
831.923	0.63
832.093	0.23
832.263	0.04
832.434	0.05
832.604	-0.46
832.774	0.75
832.944	0.53
833.114	-0.46
833.284	0.37
833.454	-0.78
833.624	-0.38
833.795	-0.47
833.965	0.67
834.135	0.25
834.305	-0.69
834.475	-0.6
834.645	-0.18
834.815	0.41
834.985	-0.25
835.155	-0.32
835.325	0.45
835.494	-0.12
835.664	-0.57
835.834	-0.37
836.004	0.22
836.174	0.17
836.344	0.64
836.514	-0.9
836.684	-0.2
836.853	0.31
837.023	0.13
837.193	-0.79
837.363	0.83
837.532	0.59
837.702	0.34
837.872	-0.28
838.041	0.59
838.211	1.94
838.381	-0.73
838.55	-0.17
838.72	2.76
838.89	1.71
839.059	-0.12
839.229	-0.72
839.398	0.93
839.568	0.26
839.738	-0.58
839.907	0.4
840.077	0.74
840.246	-0.66
840.416	-1.05
840.585	-0.83
840.755	0.63
840.924	0.59
841.093	-0.23
841.263	0.28
841.432	0.47
841.602	-0.03
841.771	-0.22
841.94	0.34
842.11	1.99
842.279	0.59
842.448	-0.6
842.617	-0.33
842.787	0.49
842.956	-0.59
843.125	0.18
843.294	0.18
843.464	0.64
843.633	-0
843.802	-0.74
843.971	0.01
844.14	0.71
844.309	0.65
844.479	-0.54
844.648	-0.21
844.817	0.01
844.986	0.15
845.155	-0.08
845.324	-0.26
845.493	-0.24
845.662	-0.01
845.831	0.87
846	-0.13
846.169	0.08
846.338	1.32
846.507	0.58
846.676	-0.04
846.844	0.23
847.013	1.54
847.182	0.26
847.351	0.32
847.52	0.23
847.689	1.3
847.858	0.53
848.026	-0.17
848.195	0.13
848.364	-0.57
848.533	-0.83
848.701	0.28
848.87	0.07
849.039	0.97
849.207	0.59
849.376	1.16
849.545	1.31
849.713	-0.6
849.882	-0.46
850.051	-0.06
850.219	0.67
850.388	0.97
850.556	-0.72
850.725	-0.18
850.893	0.33
851.062	0.26
851.23	1.23
851.399	-1.92
851.567	-0.7
851.736	-0.53
851.904	-0.45
852.073	0.48
852.241	0.66
852.41	-0.63
852.578	-0.33
852.746	0.6
852.915	0.53
853.083	-0.28
853.251	-0.48
853.42	-0.65
853.588	-0.65
853.756	0.67
853.924	0.56
854.093	-1.16
854.261	-0.01
854.429	-1.09
854.597	-0
854.765	-2.04
854.934	0.24
855.102	1
855.27	-0.08
855.438	0.18
855.606	0.3
855.774	0.59
855.942	-1.39
856.11	-1.07
856.278	0.73
856.446	1.4
856.614	-0.4
856.782	-0.97
856.95	0.19
857.118	0.67
857.286	0.19
857.454	-0.92
857.622	0.97
857.79	0.53
857.958	-1.8
858.126	-0.72
858.294	-1.9
858.462	0.04
858.629	0.86
858.797	0.04
858.965	-0.21
859.133	0.01
859.301	0.03
859.468	1.07
859.636	-0.5
859.804	1.69
859.971	0.67
860.139	-1.14
860.307	0.31
860.474	1.44
860.642	-0.42
860.81	-1.26
860.977	-0.6
861.145	1.77
861.313	0.21
861.48	0.01
861.648	1.51
861.815	0.07
861.983	-2.47
862.15	0.89
862.318	1.22
862.485	0.5
862.653	-0.99
862.82	-0.52
862.988	1.85
863.155	1.45
863.322	-1.74
863.49	-1.68
863.657	-0.05
863.824	2.35
863.992	1
864.159	-0.43
864.326	1.35
864.494	-0.46
864.661	3.24
864.828	-0.64
864.996	1.73
865.163	2.87
865.33	-0.93
865.497	-3.35
865.664	-0.18
865.832	-1.51
865.999	-0.82
866.166	-1.28
866.333	-0.99
866.5	-0.02
866.667	1.23
866.834	-0.32
867.001	2.46
867.168	-2.13
867.335	-0.26
867.502	-2.48
867.669	0.41
867.836	1.7
868.003	-1.13
868.17	1.17
868.337	1.77
868.504	3.35
868.671	-2.37
868.838	-0.89
869.005	0.24
869.172	0.98
869.339	-1.12
869.505	-0.07
869.672	0.39
869.839	0.86
870.006	0.42
870.173	-2.21
870.339	1.21
870.506	1.92
870.673	-0.08
870.84	0.28
871.006	0.23
871.173	0.58
871.34	1.11
871.506	-0.73
871.673	1.23
871.839	-1.34
872.006	0.34
872.173	-1.32
872.339	0.72
872.506	2.45
872.672	0.86
872.839	-3.57
873.005	1.13
873.172	3.71
873.338	1.68
873.505	2.09
873.671	-2.06
873.838	-0.58
874.004	-2.74
874.171	-0.21
874.337	0.06
874.503	2.33
874.67	0.17
874.836	0.15
875.002	1.91
875.169	1.47
875.335	-0.18
875.501	-0.97
875.668	1.14
875.834	-0.84
876	-0.2
876.166	2.18
876.332	1.88
876.499	2.72
876.665	-0.06
876.831	0.25
876.997	2.01
877.163	1.17
877.329	-1.58
877.495	-0.77
877.662	1.84
877.828	0.23
877.994	-2.01
878.16	-2.74
878.326	0.68
878.492	-0.6
878.658	-1.3
878.824	1.22
878.99	-0.19
879.156	-0.29
879.322	1.1
879.487	-0.42
879.653	1.73
879.819	-0.57
879.985	-1.47
880.151	-0.51
880.317	0.52
880.483	0.67
880.648	0.48
880.814	-1.72
880.98	0.95
881.146	-2.99
881.312	-1.77
881.477	-1.1
881.643	0.37
881.809	1.91
881.974	0.69
882.14	-1.4
882.306	2.31
882.471	3.69
882.637	0.24
882.803	0.41
882.968	2.95
883.134	2.63
883.299	1.32
883.465	1.56
883.63	1
883.796	0.98
883.961	2.01
884.127	0.89
884.292	-3.24
884.458	-1.13
884.623	-1.13
