Data from Apollo_Calib_20240827__AbsoluteIrradiance__361__05-10-00-739.txt Node

Date: Wed Aug 28 05:10:00 BST 2024
User: biology
Spectrometer: FLMT08252
Trigger mode: 0
Integration Time (sec): 5.000000E-1
Scans to average: 5
Electric dark correction enabled: true
Nonlinearity correction enabled: false
Boxcar width: 0
XAxis mode: Wavelengths
Number of Pixels in Spectrum: 3648
>>>>>Begin Spectral Data<<<<<
179.588	-0
179.809	-0
180.03	-0
180.251	-0
180.473	-0
180.694	0
180.915	0
181.136	-0
181.357	0
181.578	-0
181.799	-0
182.02	-0
182.241	0
182.462	-0
182.683	0
182.904	-0
183.125	-0
183.346	0
183.567	0
183.788	0
184.009	-0
184.23	0
184.451	0
184.672	-0
184.892	-0
185.113	0
185.334	0
185.555	-0
185.776	-0
185.996	0
186.217	0
186.438	0
186.659	-0
186.879	0
187.1	-0
187.321	0
187.541	-0
187.762	0
187.983	0
188.203	0
188.424	0
188.644	0
188.865	0
189.086	0
189.306	0
189.527	0
189.747	0
189.968	-0
190.188	0
190.409	0
190.629	0
190.849	0
191.07	0
191.29	0
191.511	0
191.731	0
191.951	-0
192.172	0
192.392	0
192.612	-0
192.833	0
193.053	0
193.273	0
193.493	0
193.714	-0
193.934	0
194.154	0
194.374	0
194.594	0
194.815	0
195.035	0
195.255	0
195.475	0
195.695	0
195.915	0
196.135	0
196.355	0
196.575	0
196.795	0
197.015	-0
197.235	0
197.455	0
197.675	0
197.895	0
198.115	-0
198.335	0
198.555	0
198.775	0
198.995	0
199.214	0
199.434	0
199.654	0
199.874	-0
200.094	1.77
200.313	0.33
200.533	-0.02
200.753	0.21
200.973	1.7
201.192	1.64
201.412	-0.21
201.632	0.07
201.851	1.37
202.071	0.24
202.291	0.09
202.51	-0.31
202.73	1.04
202.95	0.68
203.169	-0.17
203.389	0.35
203.608	0.66
203.828	-0.09
204.047	0.13
204.267	0.8
204.486	0.62
204.706	0.5
204.925	0.44
205.145	-0.04
205.364	1.12
205.583	0.86
205.803	-0.07
206.022	-0.19
206.242	0.31
206.461	0.31
206.68	0.13
206.9	0.45
207.119	0.76
207.338	1.12
207.557	0.14
207.777	-0.05
207.996	-0.11
208.215	0.76
208.434	0.05
208.654	-0.1
208.873	0.17
209.092	0.8
209.311	0.25
209.53	0.28
209.749	0.41
209.968	0.21
210.187	-0.06
210.407	-0.22
210.626	0.15
210.845	0.6
211.064	0.16
211.283	-0.26
211.502	0.48
211.721	0.2
211.94	0.19
212.159	0.34
212.377	0.35
212.596	0.62
212.815	0.3
213.034	0.09
213.253	0.43
213.472	0.41
213.691	0.12
213.91	0.01
214.128	-0.03
214.347	0.69
214.566	-0.2
214.785	-0.02
215.003	0.43
215.222	0.27
215.441	0.14
215.66	-0.11
215.878	0.25
216.097	0.29
216.316	-0.07
216.534	0.14
216.753	0.34
216.972	0.11
217.19	0.17
217.409	0.08
217.627	0.03
217.846	0.15
218.064	0.27
218.283	0.08
218.501	0.52
218.72	0.31
218.938	-0.15
219.157	-0.05
219.375	0.38
219.594	0.35
219.812	-0.15
220.031	0
220.249	0.44
220.467	0.48
220.686	0.04
220.904	0.05
221.122	-0.04
221.341	0.48
221.559	0.17
221.777	0.14
221.995	0.25
222.214	0.17
222.432	0.17
222.65	0.31
222.868	0.22
223.086	0.29
223.305	0.35
223.523	0.15
223.741	0.64
223.959	0.22
224.177	-0.12
224.395	0.07
224.613	0.19
224.831	0.38
225.049	0.06
225.267	0.04
225.485	0.14
225.703	0.32
225.921	0.13
226.139	0.09
226.357	0.25
226.575	0.19
226.793	0.07
227.011	0.81
227.229	0.16
227.447	0.42
227.665	0.08
227.883	0.06
228.1	0.21
228.318	0.17
228.536	-0.07
228.754	0.02
228.972	0.23
229.189	0.27
229.407	0.11
229.625	-0.04
229.843	0.33
230.06	0.33
230.278	0.05
230.496	0.21
230.713	0.1
230.931	0.32
231.149	0.01
231.366	-0.17
231.584	0.12
231.801	0.51
232.019	0.11
232.236	-0.11
232.454	-0.03
232.671	0.21
232.889	0.04
233.106	-0.03
233.324	0.16
233.541	0.08
233.759	0.09
233.976	0.01
234.194	0.15
234.411	0.17
234.628	0.09
234.846	0.01
235.063	0.12
235.28	0.17
235.498	0.05
235.715	-0.05
235.932	0.3
236.149	0.13
236.367	0.01
236.584	0.2
236.801	0.11
237.018	0.31
237.236	0.08
237.453	-0.06
237.67	0.28
237.887	0.13
238.104	0.12
238.321	0
238.538	0.07
238.755	0.19
238.973	0.02
239.19	0.06
239.407	0.11
239.624	0.17
239.841	0.01
240.058	0.05
240.275	0.14
240.492	0.08
240.709	0.16
240.925	0.05
241.142	0.11
241.359	-0
241.576	0.06
241.793	-0.05
242.01	0.12
242.227	0.23
242.444	0.12
242.66	0.19
242.877	0.13
243.094	0.03
243.311	0.1
243.527	0.13
243.744	0.23
243.961	0.14
244.178	0.02
244.394	0.11
244.611	0.2
244.828	0.25
245.044	-0.02
245.261	0.1
245.477	0.16
245.694	0.09
245.911	-0.01
246.127	0.14
246.344	0.33
246.56	0.14
246.777	0.08
246.993	0.04
247.21	0.05
247.426	0.18
247.643	0.09
247.859	0.02
248.076	-0.03
248.292	0.27
248.508	0.04
248.725	0.15
248.941	0.14
249.157	0.18
249.374	0.12
249.59	0.05
249.806	0.17
250.023	0.37
250.239	0.04
250.455	-0.02
250.671	0.14
250.888	0.23
251.104	0.17
251.32	0.06
251.536	0.11
251.752	0.09
251.969	0.16
252.185	0.14
252.401	0.26
252.617	0.12
252.833	0.04
253.049	0.08
253.265	0.03
253.481	0.17
253.697	0.01
253.913	-0.01
254.129	0.18
254.345	0.15
254.561	0.08
254.777	0.1
254.993	0.24
255.209	0.14
255.425	0.11
255.641	0.01
255.857	0.28
256.073	0.11
256.288	0.02
256.504	0.07
256.72	0.08
256.936	0.23
257.152	0.03
257.367	0.03
257.583	0.11
257.799	0.15
258.015	0.1
258.23	0.1
258.446	0.32
258.662	0.16
258.877	0.03
259.093	0.06
259.309	0.12
259.524	0.1
259.74	0.05
259.955	0.01
260.171	0.17
260.387	0.14
260.602	0.17
260.818	0.16
261.033	0.02
261.249	0.07
261.464	0.05
261.68	0.05
261.895	0.15
262.11	0.16
262.326	0.08
262.541	-0.04
262.757	0.17
262.972	0.1
263.187	0.17
263.403	0.05
263.618	0.19
263.833	0.1
264.049	0.05
264.264	0.12
264.479	0.1
264.694	0.19
264.91	0.04
265.125	0.11
265.34	0.15
265.555	0.29
265.77	0.08
265.986	0.04
266.201	0.19
266.416	0.14
266.631	0.06
266.846	0.08
267.061	0.15
267.276	0.14
267.491	-0.01
267.706	0.07
267.921	0.1
268.136	0.13
268.351	0.04
268.566	-0.03
268.781	0.23
268.996	0.14
269.211	0.07
269.426	0.02
269.641	0.01
269.856	0.13
270.071	0.02
270.285	0.04
270.5	0.18
270.715	0.14
270.93	0.08
271.145	0.14
271.359	0.18
271.574	0.04
271.789	0.08
272.004	0.05
272.218	0.08
272.433	0.22
272.648	0.03
272.862	0.17
273.077	0.14
273.292	0.13
273.506	-0.01
273.721	0.08
273.936	0.11
274.15	0.16
274.365	0.11
274.579	0.09
274.794	0.11
275.008	0.18
275.223	0.04
275.437	0.11
275.652	0.06
275.866	0.09
276.081	0.05
276.295	0.19
276.509	0.12
276.724	0.15
276.938	0.1
277.153	0.07
277.367	0.1
277.581	0.08
277.796	0.03
278.01	0.05
278.224	0.16
278.438	0.22
278.653	0.05
278.867	0.07
279.081	0.15
279.295	0.07
279.51	0.16
279.724	0.02
279.938	0.18
280.152	0.11
280.366	0.07
280.58	0.1
280.794	0.17
281.008	0.15
281.222	0.19
281.437	0.24
281.651	0.15
281.865	0.15
282.079	0.05
282.293	0.02
282.507	0.05
282.721	0.11
282.935	0.08
283.148	0.02
283.362	0.06
283.576	0.05
283.79	0.1
284.004	0.08
284.218	0.19
284.432	0.06
284.646	0.11
284.859	0.07
285.073	0.08
285.287	0.1
285.501	0.07
285.714	0.07
285.928	0.1
286.142	0.12
286.356	0.01
286.569	0.05
286.783	0.17
286.997	0.12
287.21	0.12
287.424	0.12
287.637	0.11
287.851	0.12
288.065	0.12
288.278	0.1
288.492	0.1
288.705	0.1
288.919	0.17
289.132	0.07
289.346	0.12
289.559	0.02
289.773	0.07
289.986	0.07
290.2	0.12
290.413	0.17
290.626	0.07
290.84	0.11
291.053	0.13
291.267	0.19
291.48	0.08
291.693	0.12
291.906	0.03
292.12	0.1
292.333	0.07
292.546	0.1
292.76	0.17
292.973	0.12
293.186	0.11
293.399	0.06
293.612	0.18
293.826	0.06
294.039	0.06
294.252	0.06
294.465	0.13
294.678	0.16
294.891	0.11
295.104	0
295.317	0.09
295.53	0.11
295.743	0.03
295.956	0.09
296.169	0.17
296.382	0.15
296.595	0.07
296.808	0.06
297.021	0.18
297.234	0.16
297.447	0.07
297.66	0.11
297.873	0.16
298.086	0.12
298.299	0.01
298.511	0.04
298.724	0.1
298.937	0.05
299.15	0.03
299.363	0.08
299.575	0.15
299.788	0.15
300.001	0.1
300.213	0.07
300.426	0.11
300.639	0.07
300.852	0.04
301.064	0.14
301.277	0.18
301.489	0.17
301.702	0.18
301.915	0.13
302.127	0.09
302.34	0.1
302.552	0.14
302.765	0.06
302.977	0.15
303.19	0.08
303.402	0.08
303.615	0.1
303.827	0.14
304.04	0.09
304.252	0.16
304.464	0.06
304.677	0.19
304.889	0.14
305.102	0.06
305.314	0.04
305.526	0.18
305.739	0.14
305.951	0.1
306.163	0.12
306.375	0.18
306.588	0.03
306.8	0.07
307.012	0.03
307.224	0.09
307.436	0.21
307.649	0.04
307.861	0.14
308.073	0.14
308.285	0.08
308.497	0.07
308.709	0.05
308.921	0.06
309.133	0.11
309.346	0.08
309.558	0.07
309.77	0.1
309.982	0.18
310.194	0.14
310.406	0.05
310.617	0.18
310.829	0.1
311.041	0.13
311.253	0.07
311.465	0.09
311.677	0.14
311.889	0.11
312.101	0.09
312.313	0.17
312.524	0.16
312.736	0.03
312.948	0.01
313.16	0.16
313.372	0.16
313.583	0.11
313.795	0.1
314.007	0.1
314.218	0.15
314.43	0.1
314.642	0.05
314.853	0.01
315.065	0.11
315.277	0.06
315.488	0.13
315.7	0.14
315.912	0.14
316.123	0.06
316.335	0.06
316.546	0.23
316.758	0.07
316.969	0.08
317.181	0.1
317.392	0.11
317.604	0.15
317.815	0.04
318.026	0.08
318.238	0.06
318.449	0.12
318.661	0.03
318.872	0.02
319.083	0.05
319.295	0.14
319.506	0.04
319.717	0.13
319.929	0.17
320.14	0.13
320.351	0.13
320.562	0.08
320.774	0.11
320.985	0.1
321.196	0.04
321.407	-0.01
321.618	0.17
321.829	0.12
322.041	0.11
322.252	0.1
322.463	0.13
322.674	0.2
322.885	0.06
323.096	0.08
323.307	0.08
323.518	0.14
323.729	0.04
323.94	0.09
324.151	0.06
324.362	0.14
324.573	0.1
324.784	0.08
324.995	0.15
325.206	0.15
325.417	0.14
325.628	0.07
325.838	0.11
326.049	0.09
326.26	0.12
326.471	0.11
326.682	0.14
326.892	0.14
327.103	0.04
327.314	0.06
327.525	0.17
327.735	0.1
327.946	0.09
328.157	0.03
328.368	0.14
328.578	0.1
328.789	0.14
328.999	0.09
329.21	0.06
329.421	0.15
329.631	0.06
329.842	0.05
330.052	0.13
330.263	0.14
330.473	0.14
330.684	0.12
330.894	0.12
331.105	0.12
331.315	0.09
331.526	0.05
331.736	0.22
331.947	0.11
332.157	0.1
332.367	0.05
332.578	0.15
332.788	0.21
332.999	0.11
333.209	0.08
333.419	0.03
333.629	0.14
333.84	0.14
334.05	0.09
334.26	0.15
334.47	0.1
334.681	0.12
334.891	0.08
335.101	0.11
335.311	0.16
335.521	0.1
335.732	0.05
335.942	0.21
336.152	0.11
336.362	0.09
336.572	0.1
336.782	0.17
336.992	0.13
337.202	0.07
337.412	0.07
337.622	0.12
337.832	0.07
338.042	0.09
338.252	0.09
338.462	0.1
338.672	0.11
338.882	0.04
339.092	0.07
339.302	0.17
339.511	0.17
339.721	0.07
339.931	0.05
340.141	0.2
340.351	0.16
340.561	0.11
340.77	0.13
340.98	0.16
341.19	0.11
341.4	0.08
341.609	0.07
341.819	0.07
342.029	0.05
342.238	0.14
342.448	0.05
342.658	0.13
342.867	0.11
343.077	0.12
343.286	0.12
343.496	0.12
343.706	0.17
343.915	0.05
344.125	0.05
344.334	0.12
344.544	0.05
344.753	0.09
344.963	0.09
345.172	0.07
345.381	0.05
345.591	0.09
345.8	0.12
346.01	0.13
346.219	0.13
346.428	-0.01
346.638	0.12
346.847	0.11
347.056	0.14
347.266	0.04
347.475	0.1
347.684	0.13
347.893	0.12
348.103	0.14
348.312	0.08
348.521	0.09
348.73	0.14
348.94	0.12
349.149	0.09
349.358	0.1
349.567	0.04
349.776	0.04
349.985	0.08
350.194	0.12
350.403	0.14
350.612	0.04
350.821	0.05
351.03	0.11
351.239	0.08
351.448	0.09
351.657	0.06
351.866	0.16
352.075	0.09
352.284	0.15
352.493	0.07
352.702	0.13
352.911	0.11
353.12	0.12
353.329	0.08
353.538	0.15
353.746	0.1
353.955	0.09
354.164	0.13
354.373	0.09
354.582	0.13
354.79	0.08
354.999	0.14
355.208	0.05
355.416	0.16
355.625	0.05
355.834	0.05
356.042	0.15
356.251	0.07
356.46	0.05
356.668	0.13
356.877	0.21
357.085	0.17
357.294	0
357.503	0.12
357.711	0.1
357.92	0.25
358.128	0.15
358.337	0.07
358.545	0.11
358.754	0.07
358.962	0.13
359.17	0.06
359.379	0.14
359.587	0.13
359.796	0.08
360.004	0.12
360.212	0.11
360.421	0.13
360.629	0.1
360.837	0.11
361.046	0.14
361.254	0.14
361.462	0.1
361.67	0.04
361.879	0.14
362.087	0.18
362.295	0.11
362.503	0.06
362.711	0.06
362.92	0.09
363.128	0.08
363.336	0.06
363.544	0.05
363.752	0.1
363.96	0.07
364.168	0.1
364.376	0.1
364.584	0.07
364.792	0.19
365	0.1
365.208	0.08
365.416	0.12
365.624	0.11
365.832	0.08
366.04	0.15
366.248	0.11
366.456	0.07
366.664	0.11
366.872	0.1
367.079	0.09
367.287	0.1
367.495	0.11
367.703	0.11
367.911	0.1
368.118	0.1
368.326	0.12
368.534	0.05
368.742	0.16
368.949	0.05
369.157	0.05
369.365	0.15
369.572	0.09
369.78	0.11
369.988	0.12
370.195	0.15
370.403	0.12
370.61	0.1
370.818	0.13
371.026	0.18
371.233	0.09
371.441	0.14
371.648	0.05
371.856	0.13
372.063	0.08
372.271	0.04
372.478	0.12
372.685	0.08
372.893	0.17
373.1	0.13
373.308	0.09
373.515	0.13
373.722	0.15
373.93	0.13
374.137	0.11
374.344	0.18
374.552	0.18
374.759	0.16
374.966	0.11
375.173	0.06
375.381	0.18
375.588	0.1
375.795	0.03
376.002	0.11
376.209	0.11
376.417	0.09
376.624	0.11
376.831	0.1
377.038	0.09
377.245	0.03
377.452	0.12
377.659	0.12
377.866	0.1
378.073	0.1
378.28	0.09
378.487	0.14
378.694	0.16
378.901	0.13
379.108	0.13
379.315	0.16
379.522	0.21
379.729	0.11
379.936	0.06
380.143	0.14
380.35	0.12
380.557	0.12
380.763	0.12
380.97	0.12
381.177	0.14
381.384	0.12
381.591	0.1
381.797	0.11
382.004	0.15
382.211	0.09
382.418	0.12
382.624	0.14
382.831	0.16
383.038	0.11
383.244	0.13
383.451	0.11
383.658	0.13
383.864	0.08
384.071	0.07
384.277	0.2
384.484	0.08
384.69	0.17
384.897	0.09
385.103	0.15
385.31	0.08
385.516	0.09
385.723	0.04
385.929	0.12
386.136	0.11
386.342	0.15
386.549	0.08
386.755	0.2
386.961	0.14
387.168	0.07
387.374	0.13
387.58	0.15
387.787	0.15
387.993	0.12
388.199	0.13
388.406	0.1
388.612	0.07
388.818	0.11
389.024	0.1
389.231	0.09
389.437	0.2
389.643	0.13
389.849	0.09
390.055	0.16
390.261	0.15
390.467	0.15
390.674	0.12
390.88	0.13
391.086	0.17
391.292	0.06
391.498	0.13
391.704	0.16
391.91	0.12
392.116	0.12
392.322	0.04
392.528	0.18
392.734	0.12
392.94	0.12
393.146	0.1
393.352	0.14
393.557	0.14
393.763	0.12
393.969	0.21
394.175	0.13
394.381	0.17
394.587	0.12
394.792	0.15
394.998	0.16
395.204	0.19
395.41	0.14
395.615	0.18
395.821	0.16
396.027	0.2
396.233	0.14
396.438	0.13
396.644	0.17
396.85	0.16
397.055	0.17
397.261	0.15
397.466	0.1
397.672	0.19
397.878	0.22
398.083	0.17
398.289	0.12
398.494	0.24
398.7	0.17
398.905	0.05
399.111	0.22
399.316	0.13
399.522	0.14
399.727	0.15
399.932	0.14
400.138	0.14
400.343	0.2
400.549	0.16
400.754	0.21
400.959	0.21
401.165	0.17
401.37	0.15
401.575	0.15
401.78	0.16
401.986	0.14
402.191	0.12
402.396	0.24
402.601	0.17
402.807	0.21
403.012	0.18
403.217	0.2
403.422	0.21
403.627	0.16
403.832	0.13
404.037	0.24
404.243	0.21
404.448	0.16
404.653	0.25
404.858	0.21
405.063	0.23
405.268	0.19
405.473	0.15
405.678	0.17
405.883	0.35
406.088	0.27
406.293	0.18
406.498	0.24
406.703	0.25
406.907	0.24
407.112	0.19
407.317	0.24
407.522	0.29
407.727	0.19
407.932	0.27
408.136	0.33
408.341	0.25
408.546	0.32
408.751	0.27
408.956	0.28
409.16	0.34
409.365	0.29
409.57	0.29
409.774	0.34
409.979	0.36
410.184	0.37
410.388	0.32
410.593	0.43
410.798	0.36
411.002	0.33
411.207	0.42
411.411	0.43
411.616	0.29
411.82	0.4
412.025	0.47
412.229	0.4
412.434	0.5
412.638	0.47
412.843	0.49
413.047	0.46
413.252	0.44
413.456	0.53
413.66	0.55
413.865	0.51
414.069	0.6
414.273	0.56
414.478	0.58
414.682	0.61
414.886	0.58
415.091	0.62
415.295	0.63
415.499	0.79
415.703	0.68
415.908	0.78
416.112	0.65
416.316	0.9
416.52	0.78
416.724	0.85
416.929	0.87
417.133	1.08
417.337	0.92
417.541	1.03
417.745	1.04
417.949	1.11
418.153	1.14
418.357	1.17
418.561	1.36
418.765	1.32
418.969	1.41
419.173	1.47
419.377	1.4
419.581	1.59
419.785	1.58
419.989	1.59
420.193	1.75
420.397	1.78
420.601	1.89
420.804	1.92
421.008	1.92
421.212	2.13
421.416	2.05
421.62	2.1
421.823	2.24
422.027	2.35
422.231	2.32
422.435	2.31
422.638	2.38
422.842	2.46
423.046	2.53
423.249	2.66
423.453	2.75
423.657	2.9
423.86	2.95
424.064	3.04
424.268	3.26
424.471	3.27
424.675	3.39
424.878	3.53
425.082	3.6
425.285	3.91
425.489	3.84
425.692	4.06
425.896	4
426.099	4.26
426.303	4.32
426.506	4.47
426.71	4.76
426.913	5.04
427.116	5.14
427.32	5.19
427.523	5.26
427.726	5.61
427.93	5.76
428.133	6.06
428.336	6.17
428.54	6.34
428.743	6.52
428.946	6.83
429.149	6.92
429.353	7.05
429.556	7.09
429.759	7.19
429.962	7.33
430.165	7.58
430.368	7.23
430.571	7.35
430.775	7.41
430.978	7.48
431.181	7.55
431.384	7.72
431.587	7.91
431.79	8.24
431.993	8.13
432.196	8.52
432.399	8.95
432.602	9.01
432.805	9.17
433.008	9.74
433.211	9.61
433.414	10.07
433.616	10.02
433.819	10.2
434.022	10.43
434.225	10.56
434.428	10.64
434.631	11.16
434.833	10.95
435.036	11.21
435.239	11.52
435.442	11.66
435.645	11.9
435.847	12.06
436.05	12.32
436.253	12.76
436.455	12.87
436.658	12.73
436.861	13.09
437.063	13.44
437.266	13.41
437.468	13.84
437.671	14.28
437.874	14.47
438.076	14.48
438.279	15.17
438.481	15.2
438.684	16.28
438.886	15.88
439.089	16.33
439.291	16.48
439.494	17.11
439.696	17.5
439.899	18.16
440.101	18.86
440.303	19.22
440.506	20.2
440.708	20.1
440.91	20.59
441.113	21.05
441.315	21.65
441.517	21.4
441.72	22.28
441.922	22.03
442.124	22.11
442.326	22.77
442.529	23.03
442.731	23.37
442.933	24.07
443.135	24.03
443.337	24.17
443.539	25.04
443.742	24.95
443.944	26
444.146	25.74
444.348	25.82
444.55	26.17
444.752	26.53
444.954	26.68
445.156	26.75
445.358	27.57
445.56	28.03
445.762	28
445.964	28.77
446.166	28.46
446.368	28.85
446.57	28.73
446.772	28.49
446.974	28.22
447.175	28.92
447.377	28.36
447.579	29.52
447.781	28.99
447.983	28.69
448.184	28.09
448.386	28.76
448.588	28.2
448.79	28.19
448.991	28.8
449.193	28.9
449.395	27.68
449.597	27.18
449.798	27.03
450	26.49
450.202	26.3
450.403	26.19
450.605	26.19
450.806	25.73
451.008	25.29
451.21	25.06
451.411	24.27
451.613	22.79
451.814	23.43
452.016	23.27
452.217	22.26
452.419	22.17
452.62	21.62
452.821	21.08
453.023	20.9
453.224	20.19
453.426	19.61
453.627	18.26
453.828	18.33
454.03	18.49
454.231	18.56
454.432	18.2
454.634	17.61
454.835	17.18
455.036	17.01
455.238	16.22
455.439	15.76
455.64	15.32
455.841	15.14
456.042	15.15
456.244	14.65
456.445	14.27
456.646	13.76
456.847	13.63
457.048	13.36
457.249	13.43
457.45	12.82
457.651	12.08
457.852	11.9
458.054	11.43
458.255	11.34
458.456	11.29
458.657	11.24
458.858	10.51
459.058	10.31
459.259	10.36
459.46	9.94
459.661	9.85
459.862	9.78
460.063	9.72
460.264	9.53
460.465	9.14
460.666	9.04
460.866	8.72
461.067	8.33
461.268	8.41
461.469	8.23
461.67	8.01
461.87	7.78
462.071	7.72
462.272	7.63
462.473	7.54
462.673	7.7
462.874	7.56
463.075	7.43
463.275	7.45
463.476	7.38
463.676	7.32
463.877	7.01
464.078	6.91
464.278	6.97
464.479	6.73
464.679	6.55
464.88	6.44
465.08	6.31
465.281	6.12
465.481	5.85
465.682	5.57
465.882	5.53
466.083	5.36
466.283	5.17
466.483	5.04
466.684	4.84
466.884	4.65
467.085	4.7
467.285	4.69
467.485	4.51
467.686	4.27
467.886	4.24
468.086	4.07
468.286	3.96
468.487	4.09
468.687	3.82
468.887	3.73
469.087	3.82
469.287	3.73
469.488	3.43
469.688	3.48
469.888	3.51
470.088	3.4
470.288	3.24
470.488	3.16
470.688	2.97
470.888	2.92
471.088	2.75
471.288	2.8
471.488	2.81
471.688	2.67
471.888	2.61
472.088	2.72
472.288	2.6
472.488	2.44
472.688	2.41
472.888	2.41
473.088	2.38
473.288	2.25
473.488	2.14
473.688	2.31
473.887	2.13
474.087	1.99
474.287	2.07
474.487	1.94
474.687	1.95
474.886	1.91
475.086	1.8
475.286	1.84
475.486	1.73
475.685	1.71
475.885	1.65
476.085	1.66
476.284	1.66
476.484	1.59
476.684	1.61
476.883	1.63
477.083	1.48
477.282	1.46
477.482	1.48
477.681	1.46
477.881	1.34
478.08	1.3
478.28	1.3
478.479	1.3
478.679	1.33
478.878	1.23
479.078	1.19
479.277	1.21
479.477	1.16
479.676	1.2
479.875	1.11
480.075	1.07
480.274	1.06
480.473	1.09
480.673	1.02
480.872	1.09
481.071	1.04
481.271	1
481.47	0.96
481.669	0.95
481.868	0.88
482.067	0.9
482.267	0.83
482.466	0.8
482.665	0.84
482.864	0.79
483.063	0.77
483.262	0.82
483.461	0.82
483.661	0.8
483.86	0.75
484.059	0.75
484.258	0.69
484.457	0.71
484.656	0.68
484.855	0.7
485.054	0.59
485.253	0.61
485.452	0.56
485.651	0.6
485.849	0.59
486.048	0.52
486.247	0.52
486.446	0.59
486.645	0.51
486.844	0.48
487.043	0.49
487.241	0.54
487.44	0.46
487.639	0.46
487.838	0.49
488.037	0.45
488.235	0.54
488.434	0.42
488.633	0.39
488.831	0.43
489.03	0.48
489.229	0.4
489.427	0.4
489.626	0.41
489.825	0.43
490.023	0.37
490.222	0.34
490.42	0.39
490.619	0.39
490.817	0.35
491.016	0.34
491.214	0.39
491.413	0.32
491.611	0.32
491.81	0.32
492.008	0.31
492.207	0.32
492.405	0.31
492.604	0.26
492.802	0.28
493	0.27
493.199	0.27
493.397	0.27
493.595	0.26
493.794	0.23
493.992	0.3
494.19	0.24
494.388	0.27
494.587	0.22
494.785	0.23
494.983	0.18
495.181	0.23
495.379	0.24
495.578	0.21
495.776	0.23
495.974	0.23
496.172	0.18
496.37	0.18
496.568	0.2
496.766	0.2
496.964	0.22
497.162	0.21
497.36	0.18
497.558	0.22
497.756	0.22
497.954	0.17
498.152	0.17
498.35	0.19
498.548	0.15
498.746	0.19
498.944	0.12
499.142	0.14
499.34	0.14
499.538	0.15
499.736	0.14
499.933	0.19
500.131	0.19
500.329	0.18
500.527	0.19
500.725	0.19
500.922	0.17
501.12	0.15
501.318	0.15
501.516	0.12
501.713	0.15
501.911	0.14
502.109	0.1
502.306	0.15
502.504	0.12
502.701	0.12
502.899	0.1
503.097	0.15
503.294	0.13
503.492	0.14
503.689	0.14
503.887	0.15
504.084	0.17
504.282	0.11
504.479	0.09
504.677	0.12
504.874	0.1
505.072	0.12
505.269	0.11
505.466	0.13
505.664	0.12
505.861	0.07
506.059	0.1
506.256	0.12
506.453	0.12
506.651	0.14
506.848	0.15
507.045	0.13
507.242	0.11
507.44	0.09
507.637	0.12
507.834	0.1
508.031	0.13
508.229	0.07
508.426	0.11
508.623	0.13
508.82	0.09
509.017	0.08
509.214	0.08
509.411	0.09
509.608	0.07
509.805	0.12
510.003	0.07
510.2	0.08
510.397	0.14
510.594	0.08
510.791	0.04
510.988	0.08
511.184	0.1
511.381	0.09
511.578	0.07
511.775	0.11
511.972	0.08
512.169	0.08
512.366	0.08
512.563	0.1
512.76	0.04
512.956	0.12
513.153	0.07
513.35	0.08
513.547	0.06
513.744	0.06
513.94	0.04
514.137	0.09
514.334	0.08
514.53	0.07
514.727	0.09
514.924	0.13
515.12	0.07
515.317	0.06
515.514	0.05
515.71	0.05
515.907	0.05
516.103	0.09
516.3	0.08
516.497	0.11
516.693	0.09
516.89	0.07
517.086	0.01
517.283	0.1
517.479	0.07
517.676	0.07
517.872	0.06
518.068	0.04
518.265	0.05
518.461	0.05
518.658	0.04
518.854	0.06
519.05	0.06
519.247	0.04
519.443	0.09
519.639	0.08
519.836	0.1
520.032	0.08
520.228	0.07
520.424	0.12
520.621	0.08
520.817	0.04
521.013	0.09
521.209	0.08
521.405	0.1
521.601	0.08
521.798	0.06
521.994	0.11
522.19	0.04
522.386	0.04
522.582	0.06
522.778	0.07
522.974	0.07
523.17	0.04
523.366	0.06
523.562	0.08
523.758	0.06
523.954	0.05
524.15	0.06
524.346	0.05
524.542	0.05
524.738	0.03
524.934	0.06
525.129	0.05
525.325	0.07
525.521	0.04
525.717	0.07
525.913	0.07
526.109	0.05
526.304	0.06
526.5	0.07
526.696	0.1
526.892	0.04
527.087	0.04
527.283	0.05
527.479	0.07
527.674	0.03
527.87	0.05
528.066	0.04
528.261	0.07
528.457	0.06
528.653	0.06
528.848	0.03
529.044	0.08
529.239	0.05
529.435	0.07
529.63	0.06
529.826	0.1
530.021	0.08
530.217	0.06
530.412	0.05
530.608	0.03
530.803	0.05
530.999	0.04
531.194	0.01
531.389	0.06
531.585	0.02
531.78	0.04
531.975	0.04
532.171	0.08
532.366	0.04
532.561	0.05
532.757	0.05
532.952	0.03
533.147	0.08
533.342	0.06
533.538	0.04
533.733	0.09
533.928	0.07
534.123	0.03
534.318	0.01
534.513	0.03
534.709	0.06
534.904	0.02
535.099	0.04
535.294	0.03
535.489	0.05
535.684	0.04
535.879	0.01
536.074	0.05
536.269	0.01
536.464	0.05
536.659	0.03
536.854	0.04
537.049	0.05
537.244	0.05
537.439	0.01
537.634	0.08
537.828	0.06
538.023	0.03
538.218	0
538.413	0.04
538.608	0
538.803	0.05
538.997	0.01
539.192	0.07
539.387	0.06
539.582	0.04
539.776	0.07
539.971	0.04
540.166	0.06
540.36	0.02
540.555	0.05
540.75	0.02
540.944	0.03
541.139	0.01
541.334	0.03
541.528	0.06
541.723	0.08
541.917	0.03
542.112	0
542.306	0.03
542.501	0.03
542.695	0.05
542.89	0.02
543.084	0.03
543.279	0.05
543.473	0.04
543.668	0.02
543.862	0.03
544.056	0.04
544.251	0.05
544.445	0.04
544.64	0.05
544.834	0.02
545.028	0.04
545.222	0.03
545.417	0.06
545.611	0.03
545.805	0.04
546	0.03
546.194	0.04
546.388	0.03
546.582	0.07
546.776	0.04
546.97	0.06
547.165	0.06
547.359	0.08
547.553	0.03
547.747	0.06
547.941	0.03
548.135	0.03
548.329	0.06
548.523	0.07
548.717	0.02
548.911	0
549.105	0.02
549.299	0.05
549.493	0.06
549.687	0.05
549.881	0.03
550.075	0.03
550.269	-0.02
550.463	0.05
550.657	0.01
550.85	0.03
551.044	0.02
551.238	0.04
551.432	0.02
551.626	0.04
551.82	0.03
552.013	0.01
552.207	0.04
552.401	0.05
552.594	0.04
552.788	0.05
552.982	0.04
553.176	0.01
553.369	0.04
553.563	0.06
553.756	0
553.95	0.04
554.144	0.03
554.337	0.07
554.531	0.04
554.724	0.02
554.918	0.05
555.111	0.05
555.305	0.05
555.498	0.1
555.692	0.07
555.885	0.03
556.079	0.05
556.272	0.02
556.466	0.06
556.659	0.06
556.852	0.01
557.046	0.03
557.239	0.06
557.432	0.02
557.626	0.02
557.819	0.06
558.012	0.05
558.206	0.05
558.399	0.03
558.592	0.05
558.785	0.04
558.979	0.06
559.172	0.05
559.365	0.05
559.558	0.04
559.751	0.04
559.944	0.06
560.138	0.04
560.331	0.03
560.524	0.03
560.717	0.04
560.91	0.06
561.103	0.06
561.296	0.05
561.489	0.05
561.682	0.02
561.875	0.08
562.068	0.04
562.261	0.04
562.454	0.08
562.647	0.05
562.84	0.04
563.032	0.05
563.225	0.05
563.418	0.03
563.611	0.03
563.804	0.01
563.997	-0
564.19	-0.01
564.382	0.05
564.575	0.04
564.768	0.02
564.961	0.03
565.153	0.02
565.346	0.07
565.539	0.06
565.731	0.06
565.924	0.06
566.117	0.08
566.309	0.06
566.502	0.03
566.695	0.04
566.887	0.03
567.08	-0.01
567.272	0.02
567.465	0.02
567.657	0.03
567.85	0.06
568.042	0.06
568.235	0.07
568.427	0.02
568.62	0.02
568.812	0.05
569.005	0.04
569.197	-0
569.389	0.04
569.582	0.05
569.774	0.04
569.966	0
570.159	-0.02
570.351	0.05
570.543	0.02
570.736	0.02
570.928	0
571.12	0.06
571.312	0.03
571.505	0
571.697	0.08
571.889	-0
572.081	0.01
572.273	-0
572.465	0.07
572.658	0.01
572.85	0.05
573.042	0.03
573.234	0.03
573.426	0.07
573.618	0
573.81	0.03
574.002	0.05
574.194	0.08
574.386	0
574.578	-0.05
574.77	-0.02
574.962	0.03
575.154	-0
575.346	0.03
575.538	0.05
575.729	-0
575.921	0.02
576.113	0.02
576.305	0.06
576.497	0.04
576.689	0.04
576.88	0.01
577.072	0.07
577.264	0.02
577.456	0.02
577.647	-0.06
577.839	0.01
578.031	0.07
578.223	-0
578.414	0.01
578.606	0.06
578.798	0.05
578.989	-0
579.181	0.02
579.372	0.01
579.564	0.02
579.755	0.03
579.947	0.02
580.139	0.06
580.33	-0.03
580.522	-0.02
580.713	-0.04
580.905	0.03
581.096	0.05
581.287	0.01
581.479	0.03
581.67	0.03
581.862	0.04
582.053	0
582.244	-0.01
582.436	0.05
582.627	0.03
582.818	0
583.01	0
583.201	0.04
583.392	0.07
583.583	0.01
583.775	0.02
583.966	0.02
584.157	0.04
584.348	0.02
584.54	-0.02
584.731	0.08
584.922	0.02
585.113	-0.01
585.304	0.06
585.495	0.04
585.686	0.03
585.877	0.06
586.068	0.03
586.259	0.03
586.45	0.05
586.641	-0
586.832	-0.03
587.023	0.03
587.214	0.03
587.405	0.05
587.596	-0
587.787	0.07
587.978	0.03
588.169	-0.02
588.36	-0.03
588.551	0.04
588.742	0.01
588.932	0.04
589.123	0.02
589.314	0.07
589.505	0.06
589.696	0.01
589.886	-0.01
590.077	0
590.268	0.06
590.458	-0.03
590.649	-0.01
590.84	0.05
591.03	-0.01
591.221	-0.02
591.412	-0.03
591.602	0.04
591.793	0.08
591.984	0
592.174	0.02
592.365	0.1
592.555	0.01
592.746	0.04
592.936	0.03
593.127	0.06
593.317	0.07
593.508	-0
593.698	0.02
593.889	0.04
594.079	0.01
594.269	-0.01
594.46	0.03
594.65	0.02
594.84	0
595.031	-0
595.221	0.02
595.411	-0.01
595.602	0.04
595.792	0.03
595.982	0
596.172	0.08
596.363	0.02
596.553	0.02
596.743	-0
596.933	0.08
597.123	0.06
597.314	0
597.504	0.02
597.694	0.06
597.884	0.01
598.074	0.02
598.264	0
598.454	0.04
598.644	0.01
598.834	0.03
599.024	-0.05
599.214	0.03
599.404	0.06
599.594	-0.02
599.784	-0
599.974	0.05
600.164	0.03
600.354	-0.01
600.544	-0.04
600.734	0.04
600.924	0.1
601.114	0.03
601.303	0.02
601.493	0.04
601.683	0.01
601.873	0.03
602.063	-0
602.252	0.04
602.442	-0.03
602.632	0.02
602.821	-0.02
603.011	0.05
603.201	-0.01
603.39	-0.03
603.58	-0.01
603.77	0.02
603.959	0.06
604.149	0.02
604.339	-0.01
604.528	0.07
604.718	0.04
604.907	0.01
605.097	0.01
605.286	-0
605.476	0.04
605.665	0.04
605.855	0.03
606.044	0.08
606.234	0.05
606.423	0.03
606.612	-0.01
606.802	0.04
606.991	0.06
607.181	0.02
607.37	-0
607.559	0.02
607.749	-0.02
607.938	0.02
608.127	-0
608.316	0.01
608.506	0.05
608.695	0.03
608.884	-0.03
609.073	0.01
609.263	0.04
609.452	0.04
609.641	0.02
609.83	-0.03
610.019	0.01
610.208	-0.01
610.397	0.02
610.586	0.05
610.775	-0.01
610.965	-0
611.154	0.01
611.343	0.01
611.532	0.03
611.721	-0.02
611.91	0.02
612.099	0.03
612.287	0
612.476	-0.01
612.665	0.03
612.854	-0.02
613.043	0.06
613.232	0.01
613.421	0
613.61	0.03
613.798	-0.01
613.987	0.05
614.176	0.04
614.365	0.04
614.554	0.03
614.742	0.03
614.931	0
615.12	0.05
615.309	0.01
615.497	0.03
615.686	-0.02
615.875	0.01
616.063	0.04
616.252	0.01
616.44	-0.01
616.629	0.03
616.818	0.03
617.006	-0.01
617.195	0
617.383	0.03
617.572	0.01
617.76	-0.01
617.949	0.03
618.137	0.08
618.326	0.09
618.514	-0.01
618.703	0.01
618.891	0.08
619.079	-0.03
619.268	0.01
619.456	-0.01
619.644	0.05
619.833	0.03
620.021	0
620.209	-0.03
620.398	0.05
620.586	0.02
620.774	0.05
620.962	0.01
621.151	0.08
621.339	0.04
621.527	-0.01
621.715	-0.02
621.903	-0.01
622.092	0
622.28	0.03
622.468	0.03
622.656	-0.02
622.844	0.06
623.032	-0
623.22	-0.04
623.408	0.05
623.596	0.03
623.784	0.06
623.972	-0.01
624.16	-0.01
624.348	0.08
624.536	-0.02
624.724	0.01
624.912	0.09
625.1	0.06
625.288	-0.04
625.476	-0.01
625.664	0.07
625.851	0
626.039	0.02
626.227	0.04
626.415	0.03
626.603	-0.04
626.79	0.03
626.978	-0.02
627.166	0.03
627.354	0.02
627.541	0.02
627.729	-0.07
627.917	0.07
628.104	0.05
628.292	0.04
628.48	0.01
628.667	0.03
628.855	0.08
629.042	0.05
629.23	0
629.418	0
629.605	-0.01
629.793	-0
629.98	-0.03
630.168	0.02
630.355	0.04
630.543	0.03
630.73	0
630.917	0.04
631.105	0.09
631.292	-0.01
631.48	0.02
631.667	0.08
631.854	0.03
632.042	-0.02
632.229	-0.04
632.416	0.03
632.604	-0.01
632.791	-0.01
632.978	0.05
633.165	0.03
633.353	0.1
633.54	0.05
633.727	-0.04
633.914	-0
634.101	-0.05
634.289	0.04
634.476	-0.04
634.663	-0.01
634.85	0.03
635.037	0.02
635.224	-0.06
635.411	0.08
635.598	0.08
635.785	-0.03
635.972	0.02
636.159	0.05
636.346	-0.02
636.533	-0.01
636.72	0.01
636.907	-0.01
637.094	0.06
637.281	0.03
637.468	0.06
637.655	0.03
637.842	0.02
638.029	-0.03
638.215	0.02
638.402	0.01
638.589	-0.04
638.776	-0
638.963	0.02
639.149	0.06
639.336	0.12
639.523	0.02
639.709	0.04
639.896	-0.01
640.083	0.06
640.27	0.04
640.456	0.01
640.643	0.03
640.829	-0.04
641.016	-0
641.203	-0.03
641.389	0.05
641.576	0.05
641.762	0
641.949	0.01
642.135	0.03
642.322	0.03
642.508	-0.04
642.695	-0.02
642.881	-0.01
643.068	0.01
643.254	0.04
643.441	0.03
643.627	0.01
643.813	-0.03
644	0.06
644.186	0
644.372	0.04
644.559	0.04
644.745	0.02
644.931	-0.01
645.118	0
645.304	0.01
645.49	-0
645.676	-0
645.862	0.04
646.049	0.07
646.235	0.02
646.421	0.06
646.607	0.05
646.793	-0.02
646.979	-0.01
647.165	0.03
647.352	0.03
647.538	0.09
647.724	-0
647.91	0.01
648.096	0.05
648.282	0.05
648.468	0.01
648.654	0.04
648.84	0.03
649.026	0
649.212	0.01
649.397	-0.02
649.583	-0.03
649.769	0.02
649.955	0.02
650.141	0.03
650.327	0.07
650.513	-0.02
650.698	0.05
650.884	-0.06
651.07	0.02
651.256	0.02
651.442	-0.01
651.627	0.03
651.813	0.02
651.999	0.01
652.184	0.03
652.37	0.02
652.556	0
652.741	0.05
652.927	-0.06
653.113	0
653.298	0.02
653.484	-0
653.669	-0.02
653.855	0.02
654.04	0.04
654.226	0.01
654.412	-0.01
654.597	-0.02
654.782	-0
654.968	0.05
655.153	0.02
655.339	0.01
655.524	-0.01
655.71	0.05
655.895	-0.01
656.08	-0
656.266	0.03
656.451	0.02
656.636	-0.01
656.822	0.02
657.007	-0
657.192	-0.01
657.378	-0.05
657.563	0.02
657.748	0.02
657.933	0
658.118	0.04
658.304	-0.01
658.489	0.07
658.674	0.04
658.859	-0
659.044	0.02
659.229	0.01
659.414	-0.01
659.599	0.02
659.785	-0.03
659.97	0
660.155	0.06
660.34	0.03
660.525	0.01
660.71	-0.01
660.895	0.08
661.08	-0.03
661.264	0
661.449	0.08
661.634	0.05
661.819	0.05
662.004	0.05
662.189	-0.09
662.374	-0.03
662.559	-0.05
662.743	-0.06
662.928	0.01
663.113	-0.01
663.298	-0.02
663.483	-0.03
663.667	-0
663.852	-0.03
664.037	0.05
664.221	-0.02
664.406	0.03
664.591	0.03
664.775	0.05
664.96	0.01
665.145	0.04
665.329	0.02
665.514	-0.01
665.698	0.01
665.883	-0.02
666.068	0.05
666.252	0.05
666.437	-0.04
666.621	0.02
666.806	0.03
666.99	-0.01
667.174	-0.05
667.359	0.07
667.543	0.01
667.728	-0
667.912	-0.08
668.096	0.06
668.281	0.02
668.465	0.02
668.649	0.02
668.834	-0.01
669.018	-0
669.202	-0.03
669.387	-0.01
669.571	0.05
669.755	-0.03
669.939	0.01
670.124	-0.01
670.308	0.08
670.492	0.06
670.676	-0.01
670.86	0.02
671.044	-0.02
671.228	0.05
671.413	-0.03
671.597	-0
671.781	-0
671.965	0.01
672.149	-0.01
672.333	-0.01
672.517	-0.05
672.701	0.07
672.885	-0
673.069	-0.07
673.253	0.06
673.437	-0
673.621	-0.02
673.804	-0.03
673.988	0.02
674.172	0.01
674.356	-0.05
674.54	0.01
674.724	0.12
674.908	0.03
675.091	0.07
675.275	0.01
675.459	0.06
675.643	0.09
675.826	0.05
676.01	0.04
676.194	0.02
676.377	0.05
676.561	0.06
676.745	0.04
676.928	0.05
677.112	0.01
677.296	0.01
677.479	0.01
677.663	-0.03
677.846	0.08
678.03	-0.02
678.213	-0.05
678.397	0.01
678.58	0.01
678.764	-0
678.947	0
679.131	-0.01
679.314	0.06
679.498	0.01
679.681	0.03
679.865	0.02
680.048	0.02
680.231	-0.01
680.415	0.01
680.598	-0.03
680.781	0.03
680.965	-0.03
681.148	0.04
681.331	0.02
681.514	0.03
681.698	-0.01
681.881	0.03
682.064	0
682.247	0.04
682.43	-0.04
682.614	0.01
682.797	0.05
682.98	0.06
683.163	-0.05
683.346	0.07
683.529	-0
683.712	-0.02
683.895	0.07
684.078	-0.05
684.261	0
684.444	0.03
684.627	0.07
684.81	0
684.993	0.01
685.176	0.04
685.359	-0.03
685.542	-0.03
685.725	0.09
685.908	-0.02
686.091	-0.01
686.274	0.08
686.457	0.08
686.639	-0.01
686.822	0.04
687.005	0
687.188	0.06
687.371	0.11
687.553	0.04
687.736	0.04
687.919	0.06
688.102	0.15
688.284	0.04
688.467	-0.01
688.65	-0.02
688.832	-0.01
689.015	0.02
689.197	-0.04
689.38	0.12
689.563	0.09
689.745	-0
689.928	-0.02
690.11	0
690.293	0.04
690.475	-0.04
690.658	0.05
690.84	-0.03
691.023	0.02
691.205	-0
691.388	0.02
691.57	0.06
691.752	0.04
691.935	-0.04
692.117	-0.03
692.3	0.03
692.482	0.06
692.664	0.01
692.847	0.06
693.029	0.1
693.211	0.06
693.393	-0.01
693.576	0
693.758	0.01
693.94	-0
694.122	-0.03
694.304	0.03
694.487	0
694.669	0.11
694.851	-0.08
695.033	0.02
695.215	-0.03
695.397	-0.06
695.579	0.05
695.761	0.01
695.943	-0.03
696.125	0.1
696.308	0.09
696.49	-0.05
696.671	0.15
696.853	0.02
697.035	0.15
697.217	0.03
697.399	0.06
697.581	-0.04
697.763	0.03
697.945	-0.02
698.127	0.06
698.309	0.05
698.491	0.02
698.672	0
698.854	0.09
699.036	0.09
699.218	-0.04
699.399	0.07
699.581	0.07
699.763	0.07
699.945	-0.07
700.126	0.02
700.308	0.04
700.49	-0.01
700.671	-0.05
700.853	-0.02
701.035	-0
701.216	0.01
701.398	-0.04
701.579	0.01
701.761	0.07
701.943	-0.02
702.124	-0.03
702.306	0
702.487	0.14
702.669	0.02
702.85	0
703.031	-0.08
703.213	0.15
703.394	0.13
703.576	-0.05
703.757	0.08
703.938	0.12
704.12	0.19
704.301	-0.04
704.483	-0.06
704.664	0.04
704.845	0.06
705.026	0.08
705.208	0.03
705.389	0.08
705.57	0.13
705.751	-0.03
705.933	-0
706.114	0.06
706.295	0.03
706.476	-0.05
706.657	0.09
706.838	0.03
707.02	0.04
707.201	-0.02
707.382	-0
707.563	0.09
707.744	0.03
707.925	0.02
708.106	-0.03
708.287	0.04
708.468	0.11
708.649	-0.02
708.83	0.06
709.011	0.04
709.192	0.05
709.373	-0.03
709.554	-0.01
709.734	0.08
709.915	0.07
710.096	0
710.277	-0.06
710.458	0.05
710.639	0.08
710.819	-0.07
711	0.03
711.181	0.1
711.362	0.05
711.542	0.09
711.723	0.03
711.904	0.16
712.085	0.14
712.265	-0.03
712.446	-0.07
712.627	0.04
712.807	0.01
712.988	0
713.168	0.01
713.349	0.08
713.53	-0.08
713.71	-0.04
713.891	0.01
714.071	-0.02
714.252	-0.02
714.432	-0.04
714.613	-0.06
714.793	0.05
714.974	0.14
715.154	0.1
715.334	0.1
715.515	0.08
715.695	-0.09
715.876	-0
716.056	-0
716.236	0
716.417	0.04
716.597	-0.04
716.777	0.16
716.957	0.03
717.138	0.01
717.318	0.04
717.498	-0.11
717.678	-0.01
717.859	-0.05
718.039	-0.04
718.219	0.05
718.399	0.09
718.579	-0.05
718.759	-0.09
718.939	0.08
719.12	-0.02
719.3	0.03
719.48	-0.15
719.66	-0.17
719.84	0.14
720.02	-0.07
720.2	-0.02
720.38	0.06
720.56	0.14
720.74	0.02
720.92	0.06
721.1	0.1
721.279	0.05
721.459	-0.02
721.639	-0.11
721.819	0.01
721.999	-0.05
722.179	0.07
722.359	-0.07
722.538	0.06
722.718	0
722.898	0.01
723.078	-0
723.257	-0.04
723.437	0.02
723.617	0.1
723.797	-0.06
723.976	0.01
724.156	0.1
724.336	0.14
724.515	0.17
724.695	-0.16
724.874	0.01
725.054	0.09
725.234	-0.04
725.413	0.02
725.593	-0.07
725.772	-0.02
725.952	-0.01
726.131	0.01
726.311	0
726.49	0.01
726.67	-0.11
726.849	-0.02
727.028	-0.01
727.208	-0.09
727.387	0.06
727.567	-0.09
727.746	0.04
727.925	-0.02
728.105	-0.16
728.284	0.05
728.463	-0.05
728.643	0.09
728.822	-0.11
729.001	0.09
729.18	0
729.359	0.07
729.539	0.06
729.718	-0.06
729.897	0.2
730.076	-0.05
730.255	-0.11
730.434	0.03
730.614	0.04
730.793	0.09
730.972	-0.04
731.151	0.06
731.33	0.09
731.509	0.15
731.688	-0.04
731.867	-0.02
732.046	-0.09
732.225	0.19
732.404	-0.07
732.583	-0.03
732.762	-0.01
732.941	0.04
733.12	0.07
733.298	-0.04
733.477	0.13
733.656	-0.02
733.835	-0.04
734.014	-0.01
734.193	-0.01
734.371	0.11
734.55	0.07
734.729	-0.07
734.908	0.11
735.086	0.05
735.265	0.11
735.444	-0.19
735.623	-0.03
735.801	-0.04
735.98	0.19
736.159	-0.06
736.337	0.05
736.516	-0.05
736.694	0.12
736.873	-0.09
737.052	0.1
737.23	0.13
737.409	-0.08
737.587	0.14
737.766	-0.1
737.944	-0.02
738.123	0.12
738.301	0.1
738.479	-0.01
738.658	0.05
738.836	-0.12
739.015	0.14
739.193	0.17
739.371	-0.09
739.55	-0.03
739.728	-0.21
739.906	0.2
740.085	0.13
740.263	0.07
740.441	-0.18
740.62	0.17
740.798	0.13
740.976	-0
741.154	-0.15
741.332	0.2
741.511	-0.05
741.689	0.04
741.867	0.12
742.045	-0.05
742.223	-0.04
742.401	-0.12
742.579	0.01
742.757	0.04
742.935	-0.09
743.114	0
743.292	-0.04
743.47	0.01
743.648	0.02
743.826	-0.21
744.004	0.04
744.181	0.12
744.359	-0.04
744.537	0.13
744.715	0.09
744.893	0.07
745.071	-0.05
745.249	-0
745.427	0
745.605	0.09
745.782	0.04
745.96	0.07
746.138	0.03
746.316	0.13
746.493	0.01
746.671	-0.04
746.849	-0.06
747.027	0.18
747.204	-0.02
747.382	0.1
747.56	-0.14
747.737	-0.1
747.915	0
748.093	0.23
748.27	0.02
748.448	-0.02
748.625	-0.17
748.803	-0.13
748.98	-0.01
749.158	0.11
749.335	0.08
749.513	-0.05
749.69	0.05
749.868	-0.09
750.045	0.1
750.223	-0.02
750.4	-0.11
750.578	0.17
750.755	0.08
750.932	-0.16
751.11	0.16
751.287	-0.15
751.464	0.13
751.642	-0.08
751.819	-0.03
751.996	-0.01
752.173	-0.06
752.351	-0.16
752.528	-0.03
752.705	0.03
752.882	-0.11
753.06	0.01
753.237	0.09
753.414	0.28
753.591	0.17
753.768	0.08
753.945	-0.03
754.122	-0.02
754.299	0.07
754.476	-0.05
754.654	0
754.831	0.16
755.008	0.12
755.185	0.04
755.362	-0.08
755.539	0.1
755.716	-0.07
755.892	-0.04
756.069	0.03
756.246	-0
756.423	-0.04
756.6	0.06
756.777	-0.01
756.954	0.1
757.131	0.09
757.307	-0.07
757.484	-0.19
757.661	0.03
757.838	-0
758.015	-0.12
758.191	0.06
758.368	0.08
758.545	0.1
758.721	0.08
758.898	-0.05
759.075	0.07
759.251	0.16
759.428	0.11
759.605	-0.16
759.781	0.03
759.958	0.15
760.134	0
760.311	-0.13
760.488	0.18
760.664	0.08
760.841	-0.05
761.017	0.02
761.194	0.14
761.37	0.06
761.547	-0.08
761.723	0.08
761.899	0.01
762.076	-0.05
762.252	-0.11
762.429	-0.05
762.605	0.19
762.781	0.02
762.958	0.17
763.134	0.06
763.31	-0.1
763.486	0.14
763.663	-0.18
763.839	-0.04
764.015	-0.18
764.191	-0.2
764.368	0.13
764.544	-0.07
764.72	0.11
764.896	-0.02
765.072	0.16
765.248	-0.03
765.425	0.03
765.601	0.1
765.777	0.06
765.953	-0.21
766.129	-0.06
766.305	-0.09
766.481	0.04
766.657	0.1
766.833	0.19
767.009	-0.1
767.185	-0.02
767.361	-0.04
767.537	-0.17
767.713	0.24
767.889	-0.08
768.065	-0.03
768.24	0.03
768.416	0.03
768.592	-0.17
768.768	-0.03
768.944	0.11
769.12	0.05
769.295	0
769.471	-0.05
769.647	-0.03
769.823	0.25
769.998	-0.21
770.174	-0.03
770.35	0.32
770.525	0.36
770.701	0.03
770.877	-0
771.052	-0.11
771.228	0.06
771.403	0.1
771.579	-0
771.755	0.32
771.93	-0.05
772.106	-0.09
772.281	-0.03
772.457	-0.03
772.632	0.03
772.808	-0.06
772.983	0.03
773.159	-0.19
773.334	0.02
773.509	0.03
773.685	-0.11
773.86	0.5
774.036	0.29
774.211	-0.04
774.386	0.03
774.562	0.01
774.737	0.21
774.912	-0.03
775.087	0.09
775.263	-0.04
775.438	0.13
775.613	-0.12
775.788	0.01
775.964	0.11
776.139	0.28
776.314	-0.17
776.489	-0.17
776.664	0.08
776.839	-0.03
777.014	0.12
777.19	0.14
777.365	0.26
777.54	0.24
777.715	-0.03
777.89	0.07
778.065	-0.06
778.24	-0.02
778.415	0.11
778.59	-0.09
778.765	0.04
778.94	0.17
779.115	0.06
779.289	0.05
779.464	-0.01
779.639	0.09
779.814	-0.18
779.989	-0.19
780.164	0.15
780.339	0.12
780.513	-0.02
780.688	-0.1
780.863	-0.1
781.038	0.12
781.212	-0.16
781.387	0.13
781.562	0.35
781.737	-0.13
781.911	0.2
782.086	-0.15
782.261	-0.06
782.435	0.3
782.61	-0.12
782.784	-0.13
782.959	0.14
783.134	-0.05
783.308	-0.1
783.483	0.04
783.657	0.34
783.832	0.23
784.006	-0.27
784.181	0.11
784.355	0.28
784.53	-0.1
784.704	-0.36
784.878	0.34
785.053	0.14
785.227	0.14
785.402	0.15
785.576	-0.23
785.75	-0.02
785.925	-0.17
786.099	0.07
786.273	0.02
786.448	-0
786.622	0.22
786.796	-0
786.97	-0.01
787.145	0.76
787.319	-0.25
787.493	-0.22
787.667	-0.29
787.841	-0.06
788.015	0.32
788.19	-0.09
788.364	0.06
788.538	0.18
788.712	0.11
788.886	0.08
789.06	0.19
789.234	0.11
789.408	-0.46
789.582	-0.09
789.756	-0.08
789.93	-0.15
790.104	-0.01
790.278	-0.06
790.452	-0.15
790.626	0.16
790.8	-0.29
790.973	0.29
791.147	0.18
791.321	0.21
791.495	0.2
791.669	0.01
791.843	0.11
792.016	-0.02
792.19	0.38
792.364	-0.05
792.538	0.44
792.711	0.24
792.885	-0
793.059	-0.33
793.233	-0.12
793.406	0.35
793.58	0.04
793.754	0.02
793.927	0.07
794.101	0.22
794.274	0.05
794.448	0.34
794.622	-0.4
794.795	0.37
794.969	-0.21
795.142	0.49
795.316	0.06
795.489	-0.18
795.663	0.28
795.836	0.02
796.009	-0.23
796.183	0.38
796.356	0.11
796.53	0.08
796.703	-0.05
796.876	0.67
797.05	-0.19
797.223	0.06
797.396	0.02
797.57	-0.27
797.743	0.48
797.916	0.1
798.09	0.12
798.263	0.27
798.436	-0.15
798.609	-0.06
798.782	-0.07
798.956	0.17
799.129	-0.08
799.302	0
799.475	-0.1
799.648	-0.1
799.821	-0.25
799.994	-0
800.167	-0.19
800.34	0.07
800.514	0.04
800.687	0.02
800.86	-0.17
801.033	0.16
801.206	0.01
801.379	0.06
801.551	0.1
801.724	0.11
801.897	0.3
802.07	-0.09
802.243	-0.57
802.416	-0.05
802.589	-0.09
802.762	0.09
802.935	-0.05
803.107	0.11
803.28	0.45
803.453	0.05
803.626	-0.27
803.798	-0.05
803.971	-0.18
804.144	0.07
804.317	0
804.489	0.22
804.662	0.2
804.835	-0.42
805.007	-0.36
805.18	0.33
805.353	0.3
805.525	-0.25
805.698	-0.31
805.87	0.28
806.043	0.37
806.215	-0.22
806.388	-0.3
806.56	0.24
806.733	0.42
806.905	-0.13
807.078	-0.07
807.25	-0.34
807.423	0.25
807.595	0.17
807.768	0.19
807.94	0.37
808.112	-0.08
808.285	0.27
808.457	-0.15
808.629	0.1
808.802	0.33
808.974	0.18
809.146	-0.32
809.318	-0.29
809.491	-0.03
809.663	-0.06
809.835	-0.25
810.007	0.23
810.18	-0.31
810.352	-0.43
810.524	-0.32
810.696	0.29
810.868	0.3
811.04	0.05
811.212	-0.06
811.384	0.45
811.556	0.16
811.728	-0.31
811.901	0.26
812.073	-0.15
812.245	0.17
812.417	0.06
812.589	-0.83
812.76	0.28
812.932	0.41
813.104	0.06
813.276	-0.12
813.448	0.44
813.62	-0.12
813.792	0.01
813.964	-0.18
814.136	-0.11
814.307	-0.27
814.479	-0.23
814.651	-0.15
814.823	0.87
814.995	0.03
815.166	0.34
815.338	-0.28
815.51	-0.75
815.681	0.8
815.853	0.03
816.025	-0.08
816.196	0.23
816.368	0.3
816.54	-0.44
816.711	-0.5
816.883	0.13
817.054	0.96
817.226	-0.38
817.398	-0.09
817.569	-0.34
817.741	-0.01
817.912	-0
818.084	-0.17
818.255	0.28
818.426	-0.35
818.598	-0.05
818.769	-0.08
818.941	-0.07
819.112	0.39
819.283	-0.06
819.455	-0.28
819.626	0.29
819.798	0.13
819.969	0.23
820.14	-0.06
820.311	-0.28
820.483	0.41
820.654	0.37
820.825	0.03
820.996	-0.36
821.168	-0.65
821.339	0.14
821.51	-0.6
821.681	-0.02
821.852	0.33
822.023	-0.58
822.195	-0.92
822.366	0.41
822.537	0.37
822.708	0.28
822.879	-0.38
823.05	0.76
823.221	-0.21
823.392	0.34
823.563	-0.06
823.734	0.3
823.905	-0
824.076	-0.06
824.247	-0.51
824.418	-0.32
824.589	0.59
824.759	0.15
824.93	-0.38
825.101	-0.61
825.272	0.13
825.443	-0.08
825.614	-0.14
825.784	-1.25
825.955	1.12
826.126	0.16
826.297	0.29
826.467	1.02
826.638	0.95
826.809	-0.38
826.98	-0.69
827.15	0.06
827.321	-0.26
827.492	0.38
827.662	-0.25
827.833	0.72
828.003	0.03
828.174	-0.37
828.345	-0.69
828.515	1.13
828.686	0.56
828.856	-0.24
829.027	0.32
829.197	0.49
829.368	0.39
829.538	-0.41
829.709	-0.65
829.879	0.55
830.049	-0.17
830.22	-0.09
830.39	0.06
830.56	0.85
830.731	-0.51
830.901	-0.53
831.072	-0.29
831.242	0.26
831.412	0.03
831.582	-0.24
831.753	-0.38
831.923	0.26
832.093	-0.07
832.263	-0.19
832.434	-0.49
832.604	-0.32
832.774	-0.11
832.944	-0.47
833.114	-0.41
833.284	0.11
833.454	-0.66
833.624	-0.72
833.795	-0.36
833.965	0.83
834.135	0.51
834.305	-1.14
834.475	-0.57
834.645	0.41
834.815	-0.07
834.985	-0.05
835.155	-0.05
835.325	0.07
835.494	0.04
835.664	-0.74
835.834	-0.48
836.004	-0.34
836.174	0.24
836.344	-0.2
836.514	-0.9
836.684	-0.7
836.853	0.62
837.023	-0.24
837.193	-0.89
837.363	1.07
837.532	0.15
837.702	0.03
837.872	-0.06
838.041	0.69
838.211	1.62
838.381	-0.57
838.55	-0.11
838.72	1.44
838.89	1.3
839.059	0.36
839.229	-0.78
839.398	0.75
839.568	0.04
839.738	-0.26
839.907	0.38
840.077	0.96
840.246	-0.12
840.416	0.13
840.585	-0.67
840.755	1.86
840.924	0.44
841.093	-0.23
841.263	-0.3
841.432	0.18
841.602	-0.6
841.771	-0.48
841.94	-0.23
842.11	1.74
842.279	0.91
842.448	-0.56
842.617	-1.07
842.787	0.75
842.956	-0.5
843.125	-0.3
843.294	0.44
843.464	0.63
843.633	0.55
843.802	-1.14
843.971	-0.1
844.14	0.54
844.309	0.61
844.479	-1.24
844.648	-0.34
844.817	0.42
844.986	0.6
845.155	-0.45
845.324	-0.17
845.493	-0.3
845.662	-0.82
845.831	0.45
846	0.02
846.169	-0.25
846.338	1.14
846.507	0.07
846.676	-0.62
846.844	-0.21
847.013	0.73
847.182	-0.25
847.351	-0.17
847.52	0.09
847.689	0.78
847.858	0.08
848.026	-0.03
848.195	-0.67
848.364	-0.77
848.533	-0.2
848.701	-0.5
848.87	0.58
849.039	1.19
849.207	0.27
849.376	1.06
849.545	0.98
849.713	-0.57
849.882	0.11
850.051	-0.29
850.219	0.14
850.388	1.36
850.556	-0.76
850.725	-0.71
850.893	0.18
851.062	0.69
851.23	1.01
851.399	-1.29
851.567	-0.78
851.736	-0.55
851.904	-0.48
852.073	0.64
852.241	0.7
852.41	-0.88
852.578	-0.41
852.746	-0.82
852.915	0.31
853.083	-0.64
853.251	-0.92
853.42	-0.22
853.588	-0
853.756	1.47
853.924	-0.27
854.093	0.26
854.261	-0.81
854.429	-1.65
854.597	0.3
854.765	-0.18
854.934	0.54
855.102	0.72
855.27	-0.04
855.438	0.64
855.606	1.4
855.774	2.05
855.942	-1.41
856.11	-1.68
856.278	-0.15
856.446	1.83
856.614	-0.74
856.782	-0.95
856.95	1.08
857.118	0.08
857.286	0.07
857.454	-1.31
857.622	1.74
857.79	0.34
857.958	-0.28
858.126	-0.09
858.294	-3.29
858.462	-0.09
858.629	-0.45
858.797	-0.58
858.965	-0.21
859.133	-0.55
859.301	-0.66
859.468	-0.16
859.636	-0.53
859.804	1.44
859.971	1.49
860.139	-0.74
860.307	1.07
860.474	0.24
860.642	-2.08
860.81	-1.25
860.977	-0.78
861.145	1.18
861.313	0.52
861.48	0.98
861.648	0.75
861.815	-0.87
861.983	-1.03
862.15	-0
862.318	0.2
862.485	1.23
862.653	-1.01
862.82	-0.15
862.988	2.32
863.155	0.37
863.322	-1.91
863.49	-1.14
863.657	-1.32
863.824	2.36
863.992	1.18
864.159	-0.09
864.326	1.62
864.494	-1.77
864.661	2.26
864.828	-2.13
864.996	1.65
865.163	1.96
865.33	-0.8
865.497	-2
865.664	-0.85
865.832	-1.9
865.999	-1.7
866.166	-1.08
866.333	-0.87
866.5	-0.36
866.667	-0.08
866.834	-1.23
867.001	1.79
867.168	-3.22
867.335	-0.86
867.502	-1.29
867.669	-0.08
867.836	0.32
868.003	0.29
868.17	0.9
868.337	2.64
868.504	2.9
868.671	-2.05
868.838	-1.81
869.005	0.15
869.172	0.29
869.339	-0.65
869.505	-0.51
869.672	-0.71
869.839	1.78
870.006	1.6
870.173	-1.09
870.339	0.93
870.506	3.68
870.673	-2.1
870.84	1.8
871.006	1.38
871.173	-0.29
871.34	0.57
871.506	-3.26
871.673	-0.68
871.839	-0.67
872.006	-0.98
872.173	-0.66
872.339	0.87
872.506	2.35
872.672	0.03
872.839	-0.19
873.005	-0.54
873.172	2.15
873.338	1.11
873.505	0.72
873.671	0.72
873.838	0.66
874.004	-1.62
874.171	-0.58
874.337	0.63
874.503	1.72
874.67	-1.33
874.836	0.17
875.002	2.02
875.169	0.95
875.335	0.08
875.501	0.56
875.668	1.44
875.834	-1.05
876	-1.37
876.166	0.48
876.332	0.45
876.499	3.44
876.665	-0.96
876.831	-1.06
876.997	3.93
877.163	0.66
877.329	-0.61
877.495	-0.2
877.662	0.89
877.828	1.46
877.994	0.35
878.16	-4.25
878.326	-0.96
878.492	0.66
878.658	-0.37
878.824	-0.73
878.99	1.78
879.156	-0.64
879.322	2.95
879.487	-0.58
879.653	0.63
879.819	-0.52
879.985	-1.88
880.151	0.02
880.317	0.02
880.483	0.41
880.648	2.11
880.814	-3.81
880.98	2.32
881.146	-2.69
881.312	-1.02
881.477	-0.6
881.643	-0.13
881.809	1.58
881.974	1.44
882.14	-2.52
882.306	-0.06
882.471	3.69
882.637	-1.9
882.803	1.51
882.968	2.5
883.134	4.26
883.299	1.21
883.465	-0.43
883.63	1.51
883.796	0.56
883.961	1.5
884.127	-0.9
884.292	-5.59
884.458	-2.14
884.623	-2.14
