Data from Apollo_Calib_20240827__AbsoluteIrradiance__355__05-04-02-354.txt Node

Date: Wed Aug 28 05:04:02 BST 2024
User: biology
Spectrometer: FLMT08252
Trigger mode: 0
Integration Time (sec): 5.000000E-1
Scans to average: 5
Electric dark correction enabled: true
Nonlinearity correction enabled: false
Boxcar width: 0
XAxis mode: Wavelengths
Number of Pixels in Spectrum: 3648
>>>>>Begin Spectral Data<<<<<
179.588	-0
179.809	-0
180.03	-0
180.251	-0
180.473	-0
180.694	0
180.915	0
181.136	-0
181.357	0
181.578	-0
181.799	-0
182.02	-0
182.241	0
182.462	-0
182.683	0
182.904	-0
183.125	0
183.346	0
183.567	0
183.788	0
184.009	-0
184.23	0
184.451	0
184.672	0
184.892	-0
185.113	0
185.334	0
185.555	0
185.776	-0
185.996	0
186.217	0
186.438	0
186.659	-0
186.879	0
187.1	0
187.321	0
187.541	0
187.762	0
187.983	0
188.203	0
188.424	0
188.644	0
188.865	0
189.086	0
189.306	0
189.527	0
189.747	0
189.968	-0
190.188	0
190.409	0
190.629	0
190.849	0
191.07	0
191.29	0
191.511	0
191.731	0
191.951	-0
192.172	0
192.392	0
192.612	0
192.833	0
193.053	0
193.273	0
193.493	0
193.714	0
193.934	0
194.154	0
194.374	0
194.594	0
194.815	0
195.035	0
195.255	0
195.475	-0
195.695	0
195.915	0
196.135	0
196.355	0
196.575	0
196.795	0
197.015	0
197.235	-0
197.455	-0
197.675	0
197.895	0
198.115	0
198.335	0
198.555	0
198.775	0
198.995	0
199.214	0
199.434	0
199.654	-0
199.874	0
200.094	1.21
200.313	0.64
200.533	0.08
200.753	-0.22
200.973	1.42
201.192	1.14
201.412	-0.5
201.632	-0.03
201.851	1.31
202.071	-0.16
202.291	-0.1
202.51	-0.32
202.73	1.18
202.95	0.43
203.169	-0.34
203.389	0.43
203.608	0.6
203.828	-0.04
204.047	0.51
204.267	0.93
204.486	0.53
204.706	0.68
204.925	0.45
205.145	0.25
205.364	0.5
205.583	0.91
205.803	0.14
206.022	0.16
206.242	0.59
206.461	0.53
206.68	0.03
206.9	0.07
207.119	0.93
207.338	0.74
207.557	0.32
207.777	0.06
207.996	0.34
208.215	0.91
208.434	0.13
208.654	-0.07
208.873	0.45
209.092	1.03
209.311	0.35
209.53	0.11
209.749	0.29
209.968	0.32
210.187	0.03
210.407	-0.07
210.626	0.33
210.845	0.45
211.064	0.31
211.283	0.12
211.502	0.38
211.721	0.15
211.94	0.03
212.159	0.44
212.377	0.56
212.596	0.51
212.815	0.28
213.034	0.45
213.253	0.42
213.472	0.53
213.691	0.09
213.91	-0.08
214.128	0.13
214.347	0.68
214.566	-0.05
214.785	-0.13
215.003	0.55
215.222	0.17
215.441	0.19
215.66	-0.09
215.878	0.22
216.097	0.45
216.316	-0.02
216.534	0.1
216.753	0.32
216.972	0.11
217.19	0.15
217.409	-0.07
217.627	0.17
217.846	0.21
218.064	0.21
218.283	-0.05
218.501	0.68
218.72	0.47
218.938	0.05
219.157	0.13
219.375	0.48
219.594	0.28
219.812	0.08
220.031	0.02
220.249	0.56
220.467	0.56
220.686	0.09
220.904	-0.01
221.122	-0.02
221.341	0.48
221.559	0.1
221.777	-0.04
221.995	0.09
222.214	0.38
222.432	-0.07
222.65	0.34
222.868	0.17
223.086	0.35
223.305	0.26
223.523	0.15
223.741	0.53
223.959	0.1
224.177	-0.05
224.395	0.05
224.613	0.14
224.831	0.26
225.049	-0.1
225.267	0.06
225.485	0.24
225.703	0.19
225.921	0.25
226.139	-0.06
226.357	0.43
226.575	0.2
226.793	0.03
227.011	0.77
227.229	0.35
227.447	0.34
227.665	0.13
227.883	-0.13
228.1	0.17
228.318	0.33
228.536	-0.11
228.754	0.14
228.972	0.11
229.189	0.25
229.407	0.09
229.625	0.05
229.843	0.45
230.06	0.28
230.278	0.12
230.496	0.14
230.713	0.09
230.931	0.36
231.149	0.08
231.366	-0.12
231.584	0.02
231.801	0.56
232.019	0.1
232.236	0.03
232.454	0.02
232.671	0.15
232.889	0.17
233.106	-0.02
233.324	0.19
233.541	0.15
233.759	0.18
233.976	0.05
234.194	0.14
234.411	0.15
234.628	0.05
234.846	0.08
235.063	0.12
235.28	0.12
235.498	0.1
235.715	-0.03
235.932	0.25
236.149	0.09
236.367	-0.02
236.584	0.12
236.801	0.2
237.018	0.18
237.236	0.2
237.453	-0.04
237.67	0.29
237.887	0.06
238.104	0.19
238.321	0.04
238.538	0.09
238.755	0.34
238.973	-0.04
239.19	0.12
239.407	0.2
239.624	0.17
239.841	0.05
240.058	0.09
240.275	0.12
240.492	0.13
240.709	0.14
240.925	0.09
241.142	0.16
241.359	0.02
241.576	0
241.793	0.03
242.01	0.09
242.227	0.26
242.444	0.16
242.66	0.15
242.877	0.09
243.094	0.08
243.311	0.14
243.527	0.14
243.744	0.16
243.961	0.24
244.178	0.04
244.394	0.11
244.611	0.23
244.828	0.35
245.044	0.02
245.261	0.04
245.477	0.22
245.694	0.12
245.911	0.08
246.127	0.12
246.344	0.13
246.56	0.21
246.777	0.15
246.993	0.17
247.21	0.16
247.426	0.19
247.643	0.05
247.859	-0.02
248.076	0.04
248.292	0.28
248.508	0.08
248.725	0.13
248.941	0.2
249.157	0.17
249.374	0.04
249.59	0.05
249.806	0.19
250.023	0.29
250.239	0.05
250.455	-0.02
250.671	0.09
250.888	0.1
251.104	0.18
251.32	0.01
251.536	0.15
251.752	0.11
251.969	0.04
252.185	0.06
252.401	0.3
252.617	0.15
252.833	0.02
253.049	0.21
253.265	0.11
253.481	0.14
253.697	0.05
253.913	0.06
254.129	0.11
254.345	0.13
254.561	0.05
254.777	0.13
254.993	0.22
255.209	0.15
255.425	0.11
255.641	0
255.857	0.17
256.073	0.09
256.288	-0.04
256.504	0.06
256.72	0.16
256.936	0.26
257.152	0.17
257.367	0
257.583	0.14
257.799	0.25
258.015	0.07
258.23	0.04
258.446	0.22
258.662	0.06
258.877	0.04
259.093	0.01
259.309	0.14
259.524	0.14
259.74	0.11
259.955	-0.05
260.171	0.13
260.387	0.14
260.602	0.17
260.818	0.12
261.033	0.03
261.249	0.15
261.464	0.09
261.68	-0.02
261.895	0.15
262.11	0.18
262.326	0.09
262.541	0.01
262.757	0.19
262.972	0.22
263.187	0.12
263.403	0.12
263.618	0.16
263.833	0.15
264.049	0.06
264.264	0.03
264.479	0.14
264.694	0.21
264.91	0.03
265.125	0.02
265.34	0.17
265.555	0.34
265.77	0.1
265.986	0.03
266.201	0.12
266.416	0.23
266.631	0.06
266.846	0.06
267.061	0.17
267.276	0.14
267.491	-0.04
267.706	0.17
267.921	0.19
268.136	0.21
268.351	0.12
268.566	-0.04
268.781	0.22
268.996	0.22
269.211	0.05
269.426	0
269.641	0.07
269.856	0.16
270.071	0.09
270.285	0.03
270.5	0.22
270.715	0.19
270.93	0.1
271.145	0.13
271.359	0.18
271.574	0.08
271.789	0.09
272.004	0.09
272.218	0.11
272.433	0.14
272.648	0.08
272.862	0.17
273.077	0.1
273.292	0.1
273.506	0.03
273.721	0.08
273.936	0.22
274.15	0.2
274.365	0.03
274.579	0.19
274.794	0.15
275.008	0.13
275.223	0.01
275.437	0.09
275.652	0.19
275.866	0.15
276.081	0.1
276.295	0.15
276.509	0.12
276.724	0.11
276.938	0.14
277.153	0.15
277.367	0.14
277.581	0.02
277.796	0.11
278.01	0.06
278.224	0.22
278.438	0.27
278.653	0.13
278.867	0.06
279.081	0.18
279.295	0.08
279.51	0.12
279.724	-0
279.938	0.14
280.152	0.14
280.366	0.06
280.58	0.13
280.794	0.19
281.008	0.16
281.222	0.2
281.437	0.25
281.651	0.14
281.865	0.13
282.079	0.1
282.293	-0
282.507	0.05
282.721	0.11
282.935	0.11
283.148	0.01
283.362	0.14
283.576	-0.01
283.79	0.12
284.004	0.02
284.218	0.16
284.432	0.08
284.646	0.07
284.859	0.05
285.073	0.07
285.287	0.15
285.501	0.06
285.714	0.07
285.928	0.11
286.142	0.12
286.356	0.03
286.569	0.1
286.783	0.22
286.997	0.18
287.21	0.1
287.424	0.17
287.637	0.09
287.851	0.13
288.065	0.16
288.278	0.05
288.492	0.16
288.705	0.07
288.919	0.1
289.132	0.06
289.346	0.1
289.559	0.03
289.773	0.01
289.986	0.09
290.2	0.13
290.413	0.18
290.626	0.04
290.84	0.08
291.053	0.1
291.267	0.17
291.48	0.11
291.693	0.09
291.906	0.08
292.12	0.11
292.333	0.04
292.546	0.11
292.76	0.2
292.973	0.12
293.186	0.15
293.399	0.04
293.612	0.15
293.826	0.06
294.039	0.11
294.252	0.06
294.465	0.14
294.678	0.13
294.891	0.11
295.104	0.06
295.317	0.1
295.53	0.14
295.743	0.09
295.956	0.09
296.169	0.19
296.382	0.16
296.595	0.07
296.808	0.08
297.021	0.14
297.234	0.13
297.447	0.07
297.66	0.13
297.873	0.13
298.086	0.12
298.299	0.08
298.511	0.04
298.724	0.04
298.937	0.08
299.15	0.06
299.363	0.06
299.575	0.15
299.788	0.15
300.001	0.07
300.213	0.06
300.426	0.11
300.639	0.1
300.852	0.04
301.064	0.14
301.277	0.18
301.489	0.12
301.702	0.13
301.915	0.11
302.127	0.11
302.34	0.11
302.552	0.13
302.765	0.09
302.977	0.2
303.19	0.08
303.402	0.11
303.615	0.1
303.827	0.09
304.04	0.08
304.252	0.11
304.464	0.09
304.677	0.25
304.889	0.16
305.102	0.07
305.314	0.03
305.526	0.17
305.739	0.09
305.951	0.04
306.163	0.07
306.375	0.2
306.588	0.07
306.8	0.09
307.012	0.02
307.224	0.09
307.436	0.16
307.649	0.04
307.861	0.07
308.073	0.1
308.285	0.09
308.497	0.06
308.709	0.09
308.921	0.11
309.133	0.14
309.346	0.08
309.558	0.07
309.77	0.17
309.982	0.17
310.194	0.14
310.406	0.07
310.617	0.21
310.829	0.08
311.041	0.15
311.253	0.05
311.465	0.13
311.677	0.08
311.889	0.14
312.101	0.07
312.313	0.14
312.524	0.16
312.736	0.06
312.948	0.11
313.16	0.21
313.372	0.13
313.583	0.15
313.795	0.08
314.007	0.07
314.218	0.15
314.43	0.06
314.642	0.08
314.853	0.04
315.065	0.12
315.277	0.1
315.488	0.13
315.7	0.13
315.912	0.11
316.123	0.11
316.335	0.08
316.546	0.22
316.758	0.1
316.969	0.05
317.181	0.11
317.392	0.11
317.604	0.16
317.815	0.06
318.026	0.07
318.238	0.1
318.449	0.12
318.661	-0.01
318.872	0.06
319.083	0.05
319.295	0.14
319.506	0.07
319.717	0.13
319.929	0.16
320.14	0.12
320.351	0.09
320.562	0.09
320.774	0.1
320.985	0.14
321.196	0.07
321.407	0.01
321.618	0.15
321.829	0.08
322.041	0.12
322.252	0.13
322.463	0.1
322.674	0.13
322.885	0.02
323.096	0.08
323.307	0.1
323.518	0.13
323.729	0.07
323.94	0.11
324.151	0.08
324.362	0.08
324.573	0.12
324.784	0.01
324.995	0.16
325.206	0.14
325.417	0.06
325.628	0.08
325.838	0.09
326.049	0.09
326.26	0.13
326.471	0.1
326.682	0.18
326.892	0.07
327.103	0.05
327.314	0.02
327.525	0.14
327.735	0.09
327.946	0.1
328.157	0.09
328.368	0.09
328.578	0.11
328.789	0.12
328.999	0.09
329.21	0.1
329.421	0.12
329.631	0.05
329.842	0.1
330.052	0.12
330.263	0.1
330.473	0.16
330.684	0.08
330.894	0.11
331.105	0.1
331.315	0.11
331.526	0.03
331.736	0.15
331.947	0.15
332.157	0.13
332.367	0.03
332.578	0.13
332.788	0.18
332.999	0.14
333.209	0.1
333.419	0.05
333.629	0.16
333.84	0.12
334.05	0.1
334.26	0.18
334.47	0.07
334.681	0.12
334.891	0.09
335.101	0.09
335.311	0.18
335.521	0.07
335.732	0.08
335.942	0.17
336.152	0.14
336.362	0.12
336.572	0.1
336.782	0.14
336.992	0.1
337.202	0.07
337.412	0.06
337.622	0.11
337.832	0.1
338.042	0.08
338.252	0.1
338.462	0.14
338.672	0.11
338.882	0.05
339.092	0.12
339.302	0.2
339.511	0.13
339.721	0.09
339.931	0.07
340.141	0.16
340.351	0.16
340.561	0.11
340.77	0.12
340.98	0.15
341.19	0.12
341.4	0.09
341.609	0.08
341.819	0.09
342.029	0.05
342.238	0.09
342.448	0.06
342.658	0.11
342.867	0.12
343.077	0.12
343.286	0.08
343.496	0.11
343.706	0.15
343.915	0.07
344.125	0.1
344.334	0.13
344.544	0.06
344.753	0.1
344.963	0.07
345.172	0.04
345.381	0.08
345.591	0.07
345.8	0.09
346.01	0.18
346.219	0.18
346.428	-0.01
346.638	0.1
346.847	0.11
347.056	0.17
347.266	0.08
347.475	0.08
347.684	0.13
347.893	0.12
348.103	0.12
348.312	0.04
348.521	0.09
348.73	0.1
348.94	0.11
349.149	0.11
349.358	0.1
349.567	0.09
349.776	0.02
349.985	0.07
350.194	0.16
350.403	0.17
350.612	0.04
350.821	0.05
351.03	0.08
351.239	0.09
351.448	0.13
351.657	0.11
351.866	0.16
352.075	0.1
352.284	0.13
352.493	0.03
352.702	0.15
352.911	0.13
353.12	0.12
353.329	0.08
353.538	0.13
353.746	0.09
353.955	0.04
354.164	0.13
354.373	0.11
354.582	0.15
354.79	0.1
354.999	0.11
355.208	0.1
355.416	0.15
355.625	0.08
355.834	0.12
356.042	0.1
356.251	0.08
356.46	0.05
356.668	0.12
356.877	0.21
357.085	0.14
357.294	0.01
357.503	0.14
357.711	0.09
357.92	0.19
358.128	0.07
358.337	0.06
358.545	0.11
358.754	0.08
358.962	0.1
359.17	0.11
359.379	0.1
359.587	0.09
359.796	0.09
360.004	0.14
360.212	0.18
360.421	0.12
360.629	0.09
360.837	0.08
361.046	0.14
361.254	0.21
361.462	0.1
361.67	0.05
361.879	0.1
362.087	0.16
362.295	0.09
362.503	0.09
362.711	0.08
362.92	0.1
363.128	0.09
363.336	0.06
363.544	0.06
363.752	0.12
363.96	0.06
364.168	0.05
364.376	0.09
364.584	0.11
364.792	0.14
365	0.11
365.208	0.12
365.416	0.13
365.624	0.14
365.832	0.07
366.04	0.14
366.248	0.12
366.456	0.12
366.664	0.13
366.872	0.14
367.079	0.09
367.287	0.09
367.495	0.12
367.703	0.11
367.911	0.09
368.118	0.08
368.326	0.12
368.534	0.07
368.742	0.12
368.949	0.06
369.157	0.1
369.365	0.11
369.572	0.08
369.78	0.07
369.988	0.14
370.195	0.16
370.403	0.16
370.61	0.08
370.818	0.1
371.026	0.18
371.233	0.08
371.441	0.07
371.648	0.07
371.856	0.11
372.063	0.14
372.271	0.09
372.478	0.08
372.685	0.11
372.893	0.11
373.1	0.08
373.308	0.12
373.515	0.22
373.722	0.15
373.93	0.1
374.137	0.13
374.344	0.2
374.552	0.15
374.759	0.1
374.966	0.13
375.173	0.07
375.381	0.15
375.588	0.1
375.795	0.08
376.002	0.1
376.209	0.07
376.417	0.12
376.624	0.08
376.831	0.15
377.038	0.09
377.245	0.07
377.452	0.08
377.659	0.1
377.866	0.11
378.073	0.08
378.28	0.13
378.487	0.16
378.694	0.16
378.901	0.11
379.108	0.14
379.315	0.13
379.522	0.21
379.729	0.13
379.936	0.06
380.143	0.13
380.35	0.1
380.557	0.1
380.763	0.14
380.97	0.07
381.177	0.14
381.384	0.14
381.591	0.08
381.797	0.14
382.004	0.16
382.211	0.13
382.418	0.15
382.624	0.16
382.831	0.15
383.038	0.14
383.244	0.13
383.451	0.09
383.658	0.1
383.864	0.11
384.071	0.11
384.277	0.21
384.484	0.09
384.69	0.17
384.897	0.12
385.103	0.09
385.31	0.11
385.516	0.09
385.723	0.1
385.929	0.12
386.136	0.07
386.342	0.15
386.549	0.14
386.755	0.16
386.961	0.14
387.168	0.11
387.374	0.12
387.58	0.18
387.787	0.17
387.993	0.16
388.199	0.11
388.406	0.1
388.612	0.11
388.818	0.11
389.024	0.06
389.231	0.13
389.437	0.22
389.643	0.15
389.849	0.14
390.055	0.13
390.261	0.13
390.467	0.14
390.674	0.12
390.88	0.14
391.086	0.18
391.292	0.09
391.498	0.16
391.704	0.15
391.91	0.09
392.116	0.11
392.322	0.06
392.528	0.17
392.734	0.13
392.94	0.16
393.146	0.1
393.352	0.13
393.557	0.1
393.763	0.09
393.969	0.17
394.175	0.11
394.381	0.16
394.587	0.08
394.792	0.12
394.998	0.17
395.204	0.18
395.41	0.15
395.615	0.15
395.821	0.15
396.027	0.2
396.233	0.13
396.438	0.15
396.644	0.24
396.85	0.18
397.055	0.18
397.261	0.18
397.466	0.2
397.672	0.15
397.878	0.19
398.083	0.16
398.289	0.11
398.494	0.19
398.7	0.21
398.905	0.09
399.111	0.23
399.316	0.07
399.522	0.14
399.727	0.13
399.932	0.12
400.138	0.15
400.343	0.23
400.549	0.16
400.754	0.18
400.959	0.19
401.165	0.13
401.37	0.16
401.575	0.28
401.78	0.21
401.986	0.09
402.191	0.15
402.396	0.15
402.601	0.17
402.807	0.19
403.012	0.17
403.217	0.22
403.422	0.19
403.627	0.24
403.832	0.14
404.037	0.27
404.243	0.24
404.448	0.18
404.653	0.15
404.858	0.17
405.063	0.23
405.268	0.2
405.473	0.16
405.678	0.18
405.883	0.34
406.088	0.24
406.293	0.18
406.498	0.19
406.703	0.2
406.907	0.2
407.112	0.2
407.317	0.26
407.522	0.26
407.727	0.19
407.932	0.24
408.136	0.4
408.341	0.28
408.546	0.24
408.751	0.25
408.956	0.28
409.16	0.29
409.365	0.26
409.57	0.26
409.774	0.27
409.979	0.34
410.184	0.33
410.388	0.26
410.593	0.38
410.798	0.33
411.002	0.31
411.207	0.39
411.411	0.38
411.616	0.31
411.82	0.35
412.025	0.43
412.229	0.4
412.434	0.47
412.638	0.37
412.843	0.45
413.047	0.43
413.252	0.44
413.456	0.46
413.66	0.51
413.865	0.47
414.069	0.59
414.273	0.49
414.478	0.52
414.682	0.55
414.886	0.61
415.091	0.54
415.295	0.56
415.499	0.67
415.703	0.64
415.908	0.74
416.112	0.61
416.316	0.8
416.52	0.7
416.724	0.75
416.929	0.8
417.133	0.93
417.337	0.84
417.541	0.86
417.745	0.88
417.949	1.04
418.153	1.01
418.357	1.05
418.561	1.25
418.765	1.15
418.969	1.3
419.173	1.28
419.377	1.25
419.581	1.43
419.785	1.36
419.989	1.45
420.193	1.58
420.397	1.62
420.601	1.68
420.804	1.8
421.008	1.7
421.212	1.9
421.416	1.89
421.62	1.89
421.823	1.92
422.027	2.13
422.231	2.1
422.435	2.1
422.638	2.17
422.842	2.21
423.046	2.3
423.249	2.47
423.453	2.39
423.657	2.59
423.86	2.66
424.064	2.8
424.268	2.92
424.471	2.91
424.675	3.1
424.878	3.19
425.082	3.21
425.285	3.57
425.489	3.52
425.692	3.6
425.896	3.62
426.099	3.9
426.303	3.95
426.506	4.06
426.71	4.34
426.913	4.55
427.116	4.71
427.32	4.68
427.523	4.85
427.726	4.96
427.93	5.2
428.133	5.48
428.336	5.56
428.54	5.78
428.743	5.96
428.946	6.27
429.149	6.25
429.353	6.3
429.556	6.43
429.759	6.53
429.962	6.57
430.165	6.74
430.368	6.55
430.571	6.62
430.775	6.72
430.978	6.76
431.181	6.84
431.384	6.9
431.587	7.15
431.79	7.44
431.993	7.48
432.196	7.65
432.399	7.94
432.602	8.19
432.805	8.21
433.008	8.73
433.211	8.66
433.414	9.02
433.616	9.08
433.819	9.06
434.022	9.3
434.225	9.57
434.428	9.51
434.631	9.96
434.833	9.81
435.036	10.15
435.239	10.39
435.442	10.32
435.645	10.61
435.847	10.85
436.05	11.19
436.253	11.47
436.455	11.55
436.658	11.47
436.861	11.81
437.063	12.06
437.266	12.1
437.468	12.39
437.671	12.88
437.874	13.03
438.076	12.95
438.279	13.61
438.481	13.7
438.684	14.7
438.886	14.31
439.089	14.75
439.291	14.79
439.494	15.34
439.696	15.67
439.899	16.38
440.101	16.95
440.303	17.28
440.506	18.34
440.708	18.08
440.91	18.61
441.113	18.99
441.315	19.43
441.517	19.42
441.72	20.01
441.922	19.9
442.124	20.09
442.326	20.53
442.529	21.04
442.731	21.15
442.933	21.77
443.135	21.8
443.337	21.94
443.539	22.92
443.742	22.57
443.944	23.55
444.146	23.58
444.348	23.68
444.55	23.71
444.752	24.33
444.954	24.38
445.156	24.51
445.358	25.24
445.56	25.92
445.762	25.63
445.964	26.21
446.166	26.04
446.368	26.33
446.57	26.57
446.772	26.11
446.974	25.88
447.175	26.38
447.377	26.17
447.579	26.85
447.781	26.64
447.983	26.19
448.184	25.6
448.386	26.37
448.588	25.87
448.79	25.76
448.991	26.43
449.193	26.5
449.395	25.58
449.597	24.83
449.798	24.79
450	24.27
450.202	24.17
450.403	24.19
450.605	23.96
450.806	23.55
451.008	23.34
451.21	23.01
451.411	22.13
451.613	21
451.814	21.51
452.016	21.34
452.217	20.22
452.419	20.21
452.62	19.72
452.821	19.29
453.023	19.09
453.224	18.5
453.426	17.79
453.627	16.64
453.828	16.76
454.03	16.72
454.231	16.74
454.432	16.54
454.634	15.9
454.835	15.65
455.036	15.41
455.238	14.79
455.439	14.33
455.64	14.01
455.841	13.83
456.042	13.66
456.244	13.32
456.445	12.96
456.646	12.38
456.847	12.38
457.048	12.23
457.249	12.14
457.45	11.55
457.651	11.05
457.852	10.77
458.054	10.27
458.255	10.26
458.456	10.24
458.657	10.21
458.858	9.43
459.058	9.39
459.259	9.42
459.46	9.19
459.661	8.96
459.862	8.84
460.063	8.86
460.264	8.63
460.465	8.3
460.666	8.34
460.866	7.85
461.067	7.5
461.268	7.6
461.469	7.49
461.67	7.37
461.87	7.08
462.071	7.02
462.272	6.97
462.473	6.85
462.673	7.01
462.874	6.85
463.075	6.76
463.275	6.78
463.476	6.79
463.676	6.57
463.877	6.37
464.078	6.31
464.278	6.38
464.479	6.15
464.679	5.93
464.88	5.89
465.08	5.78
465.281	5.58
465.481	5.4
465.682	4.97
465.882	4.95
466.083	4.85
466.283	4.86
466.483	4.58
466.684	4.43
466.884	4.23
467.085	4.27
467.285	4.26
467.485	4.04
467.686	3.91
467.886	3.77
468.086	3.68
468.286	3.65
468.487	3.67
468.687	3.48
468.887	3.4
469.087	3.5
469.287	3.29
469.488	3.15
469.688	3.19
469.888	3.1
470.088	3.02
470.288	2.93
470.488	2.83
470.688	2.68
470.888	2.64
471.088	2.45
471.288	2.54
471.488	2.44
471.688	2.49
471.888	2.33
472.088	2.47
472.288	2.26
472.488	2.21
472.688	2.14
472.888	2.12
473.088	2.13
473.288	2
473.488	1.95
473.688	2.06
473.887	1.91
474.087	1.87
474.287	1.84
474.487	1.78
474.687	1.82
474.886	1.73
475.086	1.64
475.286	1.62
475.486	1.61
475.685	1.55
475.885	1.44
476.085	1.53
476.284	1.52
476.484	1.47
476.684	1.44
476.883	1.49
477.083	1.37
477.282	1.29
477.482	1.35
477.681	1.36
477.881	1.21
478.08	1.18
478.28	1.18
478.479	1.17
478.679	1.23
478.878	1.11
479.078	1.09
479.277	1.07
479.477	1.06
479.676	1.07
479.875	0.98
480.075	0.94
480.274	1.01
480.473	0.99
480.673	0.91
480.872	0.97
481.071	0.94
481.271	0.94
481.47	0.86
481.669	0.86
481.868	0.82
482.067	0.78
482.267	0.8
482.466	0.71
482.665	0.73
482.864	0.71
483.063	0.68
483.262	0.72
483.461	0.77
483.661	0.73
483.86	0.68
484.059	0.67
484.258	0.66
484.457	0.62
484.656	0.63
484.855	0.65
485.054	0.52
485.253	0.54
485.452	0.53
485.651	0.53
485.849	0.54
486.048	0.5
486.247	0.49
486.446	0.52
486.645	0.44
486.844	0.46
487.043	0.45
487.241	0.45
487.44	0.41
487.639	0.44
487.838	0.46
488.037	0.42
488.235	0.46
488.434	0.41
488.633	0.34
488.831	0.41
489.03	0.41
489.229	0.37
489.427	0.34
489.626	0.43
489.825	0.4
490.023	0.37
490.222	0.29
490.42	0.37
490.619	0.35
490.817	0.33
491.016	0.27
491.214	0.36
491.413	0.27
491.611	0.28
491.81	0.26
492.008	0.3
492.207	0.3
492.405	0.24
492.604	0.24
492.802	0.27
493	0.27
493.199	0.25
493.397	0.23
493.595	0.22
493.794	0.22
493.992	0.28
494.19	0.23
494.388	0.23
494.587	0.19
494.785	0.23
494.983	0.16
495.181	0.22
495.379	0.21
495.578	0.2
495.776	0.21
495.974	0.22
496.172	0.18
496.37	0.17
496.568	0.18
496.766	0.17
496.964	0.19
497.162	0.18
497.36	0.15
497.558	0.2
497.756	0.19
497.954	0.17
498.152	0.14
498.35	0.17
498.548	0.14
498.746	0.16
498.944	0.13
499.142	0.15
499.34	0.15
499.538	0.14
499.736	0.13
499.933	0.19
500.131	0.18
500.329	0.14
500.527	0.16
500.725	0.16
500.922	0.16
501.12	0.15
501.318	0.13
501.516	0.13
501.713	0.13
501.911	0.12
502.109	0.13
502.306	0.14
502.504	0.12
502.701	0.12
502.899	0.13
503.097	0.16
503.294	0.12
503.492	0.13
503.689	0.14
503.887	0.16
504.084	0.15
504.282	0.12
504.479	0.06
504.677	0.13
504.874	0.07
505.072	0.11
505.269	0.1
505.466	0.13
505.664	0.12
505.861	0.08
506.059	0.11
506.256	0.12
506.453	0.11
506.651	0.13
506.848	0.12
507.045	0.12
507.242	0.09
507.44	0.07
507.637	0.1
507.834	0.09
508.031	0.12
508.229	0.09
508.426	0.09
508.623	0.12
508.82	0.08
509.017	0.08
509.214	0.06
509.411	0.12
509.608	0.09
509.805	0.09
510.003	0.07
510.2	0.08
510.397	0.13
510.594	0.07
510.791	0.06
510.988	0.08
511.184	0.11
511.381	0.07
511.578	0.06
511.775	0.09
511.972	0.08
512.169	0.07
512.366	0.08
512.563	0.1
512.76	0.07
512.956	0.11
513.153	0.06
513.35	0.08
513.547	0.07
513.744	0.07
513.94	0.05
514.137	0.08
514.334	0.09
514.53	0.09
514.727	0.07
514.924	0.14
515.12	0.06
515.317	0.05
515.514	0.06
515.71	0.06
515.907	0.07
516.103	0.09
516.3	0.08
516.497	0.09
516.693	0.11
516.89	0.08
517.086	0.06
517.283	0.09
517.479	0.08
517.676	0.06
517.872	0.05
518.068	0.06
518.265	0.06
518.461	0.08
518.658	0.04
518.854	0.08
519.05	0.05
519.247	0.04
519.443	0.09
519.639	0.08
519.836	0.08
520.032	0.08
520.228	0.07
520.424	0.13
520.621	0.08
520.817	0.08
521.013	0.06
521.209	0.09
521.405	0.08
521.601	0.08
521.798	0.07
521.994	0.11
522.19	0.04
522.386	0.03
522.582	0.06
522.778	0.05
522.974	0.05
523.17	0.06
523.366	0.07
523.562	0.08
523.758	0.07
523.954	0.04
524.15	0.06
524.346	0.06
524.542	0.04
524.738	0.01
524.934	0.05
525.129	0.06
525.325	0.06
525.521	0.07
525.717	0.09
525.913	0.07
526.109	0.04
526.304	0.06
526.5	0.06
526.696	0.09
526.892	0.06
527.087	0.05
527.283	0.02
527.479	0.08
527.674	0.04
527.87	0.06
528.066	0.06
528.261	0.07
528.457	0.05
528.653	0.05
528.848	0.02
529.044	0.07
529.239	0.06
529.435	0.06
529.63	0.06
529.826	0.09
530.021	0.06
530.217	0.05
530.412	0.04
530.608	0.03
530.803	0.06
530.999	0.04
531.194	-0.02
531.389	0.08
531.585	0
531.78	0.04
531.975	0.06
532.171	0.08
532.366	0.06
532.561	0.06
532.757	0.05
532.952	0.07
533.147	0.08
533.342	0.06
533.538	0.01
533.733	0.08
533.928	0.05
534.123	0.04
534.318	0.01
534.513	0.06
534.709	0.05
534.904	0.04
535.099	0.02
535.294	0.06
535.489	0.04
535.684	0.05
535.879	0.02
536.074	0.07
536.269	0.04
536.464	0.05
536.659	0.05
536.854	0.05
537.049	0.06
537.244	0.04
537.439	0.03
537.634	0.09
537.828	0.05
538.023	0.04
538.218	0.01
538.413	0.05
538.608	0.02
538.803	0.07
538.997	0.01
539.192	0.08
539.387	0.06
539.582	0.04
539.776	0.05
539.971	0.04
540.166	0.03
540.36	0.01
540.555	0.05
540.75	0.04
540.944	0.04
541.139	0
541.334	0.03
541.528	0.07
541.723	0.06
541.917	0.05
542.112	0
542.306	0.04
542.501	0.03
542.695	0.04
542.89	0.02
543.084	0.05
543.279	0.05
543.473	0.02
543.668	0.03
543.862	0.02
544.056	0.06
544.251	0.04
544.445	0.06
544.64	0.03
544.834	0.02
545.028	0.05
545.222	0.06
545.417	0.08
545.611	0.04
545.805	0.04
546	0.04
546.194	0.02
546.388	0.02
546.582	0.06
546.776	0.03
546.97	0.05
547.165	0.05
547.359	0.06
547.553	0.02
547.747	0.06
547.941	0.03
548.135	0.04
548.329	0.06
548.523	0.05
548.717	0.04
548.911	0.04
549.105	0.05
549.299	0.05
549.493	0.06
549.687	0.06
549.881	0.06
550.075	0.05
550.269	0
550.463	0.05
550.657	0.04
550.85	0.04
551.044	0.01
551.238	0.05
551.432	0.03
551.626	0.01
551.82	0.04
552.013	0.03
552.207	0.07
552.401	0.07
552.594	0.05
552.788	0.04
552.982	0.05
553.176	0.01
553.369	0.06
553.563	0.07
553.756	0
553.95	0.01
554.144	0.03
554.337	0.06
554.531	0.04
554.724	0.05
554.918	0.03
555.111	0.05
555.305	0.06
555.498	0.09
555.692	0.05
555.885	0.03
556.079	0.04
556.272	0.01
556.466	0.07
556.659	0.04
556.852	0.01
557.046	0.01
557.239	0.08
557.432	0.01
557.626	0.01
557.819	0.03
558.012	0.04
558.206	0.06
558.399	0.04
558.592	0.05
558.785	0.02
558.979	0.05
559.172	0.03
559.365	0.05
559.558	0.04
559.751	0.04
559.944	0.03
560.138	0.02
560.331	0.04
560.524	0.02
560.717	0.04
560.91	0.02
561.103	0.06
561.296	0.02
561.489	0.03
561.682	0.03
561.875	0.06
562.068	0.06
562.261	0.04
562.454	0.08
562.647	0.05
562.84	0.06
563.032	0.04
563.225	0.07
563.418	0.03
563.611	0.01
563.804	0.04
563.997	0.02
564.19	-0.02
564.382	0.05
564.575	0.02
564.768	0.05
564.961	0.04
565.153	0
565.346	0.05
565.539	0.06
565.731	0.07
565.924	0.03
566.117	0.09
566.309	0.02
566.502	0.04
566.695	0.03
566.887	0.05
567.08	0.01
567.272	0.03
567.465	0.03
567.657	0.01
567.85	0.03
568.042	0.04
568.235	0.09
568.427	0.04
568.62	0.04
568.812	0.04
569.005	0.02
569.197	0
569.389	0.04
569.582	0.04
569.774	0.02
569.966	0.02
570.159	0.02
570.351	0.03
570.543	0.02
570.736	0.04
570.928	0.01
571.12	0.03
571.312	-0.01
571.505	-0.01
571.697	0.06
571.889	0.02
572.081	0.02
572.273	0.01
572.465	0.07
572.658	0.03
572.85	0.05
573.042	0.02
573.234	0
573.426	0.06
573.618	0.02
573.81	0.05
574.002	0.08
574.194	0.09
574.386	-0.01
574.578	-0.06
574.77	-0.01
574.962	0.02
575.154	0
575.346	0.03
575.538	0.05
575.729	0.02
575.921	0
576.113	0.03
576.305	0.03
576.497	0.03
576.689	0.01
576.88	0.03
577.072	0.06
577.264	0.02
577.456	0.02
577.647	-0.06
577.839	0.02
578.031	0.07
578.223	0.01
578.414	-0.01
578.606	0.05
578.798	0.04
578.989	0.02
579.181	0.02
579.372	0.03
579.564	0.01
579.755	0.04
579.947	0.03
580.139	0.06
580.33	-0
580.522	0.02
580.713	-0.03
580.905	0.02
581.096	0.06
581.287	0.01
581.479	0.02
581.67	0.07
581.862	0.04
582.053	-0
582.244	-0.02
582.436	0.02
582.627	0.04
582.818	0
583.01	0.01
583.201	0.06
583.392	0.08
583.583	0.01
583.775	0.02
583.966	-0
584.157	0.03
584.348	0.03
584.54	0.01
584.731	0.03
584.922	0.03
585.113	-0.02
585.304	0.03
585.495	0.05
585.686	0.04
585.877	0.05
586.068	0.03
586.259	0.05
586.45	0.04
586.641	-0
586.832	-0.03
587.023	0.03
587.214	0.03
587.405	0.05
587.596	0.01
587.787	0.09
587.978	0.05
588.169	0.01
588.36	0
588.551	0.06
588.742	0.03
588.932	0.05
589.123	0.02
589.314	0.08
589.505	0.06
589.696	0.04
589.886	0.01
590.077	-0.02
590.268	0.05
590.458	-0.01
590.649	-0.01
590.84	0.05
591.03	-0.02
591.221	-0.01
591.412	-0.01
591.602	0.05
591.793	0.07
591.984	-0.02
592.174	0.03
592.365	0.1
592.555	0.01
592.746	0.04
592.936	0.01
593.127	0.04
593.317	0.06
593.508	-0
593.698	0.02
593.889	0.07
594.079	0.04
594.269	0.01
594.46	0.02
594.65	0.03
594.84	0.04
595.031	0.01
595.221	0.02
595.411	-0.03
595.602	0.07
595.792	0.02
595.982	0.02
596.172	0.08
596.363	0.01
596.553	0.03
596.743	0.03
596.933	0.05
597.123	0.07
597.314	0.01
597.504	0.02
597.694	0.07
597.884	0.04
598.074	0.01
598.264	0.02
598.454	0.06
598.644	0.01
598.834	0.02
599.024	-0.03
599.214	0.02
599.404	0.06
599.594	0.02
599.784	-0
599.974	0.07
600.164	0.05
600.354	-0.01
600.544	-0
600.734	0.04
600.924	0.08
601.114	0.01
601.303	0.01
601.493	0.02
601.683	0.02
601.873	0.05
602.063	-0.03
602.252	0.07
602.442	-0.02
602.632	-0.02
602.821	-0.01
603.011	0.05
603.201	0.03
603.39	-0
603.58	-0
603.77	0.03
603.959	0.05
604.149	0.02
604.339	0.01
604.528	0.08
604.718	0.03
604.907	0.04
605.097	0.01
605.286	-0.01
605.476	0.09
605.665	0.04
605.855	-0.01
606.044	0.09
606.234	0.04
606.423	0.01
606.612	-0
606.802	0.03
606.991	0.06
607.181	0.06
607.37	0
607.559	0
607.749	-0.02
607.938	0.03
608.127	0.02
608.316	0.01
608.506	0.03
608.695	0.02
608.884	-0.01
609.073	0.01
609.263	0.06
609.452	0.02
609.641	0.03
609.83	-0.03
610.019	0.04
610.208	0.01
610.397	0.04
610.586	0.07
610.775	0.03
610.965	0.01
611.154	-0.01
611.343	0.03
611.532	0
611.721	-0
611.91	-0.01
612.099	0.03
612.287	0.03
612.476	-0
612.665	0.04
612.854	0.05
613.043	0.07
613.232	-0.01
613.421	-0.01
613.61	0.02
613.798	0.02
613.987	0.05
614.176	0.04
614.365	0.08
614.554	0.05
614.742	0.04
614.931	0.01
615.12	0.07
615.309	0.04
615.497	0.01
615.686	0.01
615.875	0.01
616.063	0.05
616.252	0.01
616.44	0
616.629	0.04
616.818	0.05
617.006	-0.02
617.195	0.02
617.383	0.06
617.572	0.03
617.76	0.02
617.949	0.04
618.137	0.06
618.326	0.04
618.514	-0.01
618.703	0
618.891	0.09
619.079	-0.07
619.268	0.04
619.456	0
619.644	0.08
619.833	0.01
620.021	-0.01
620.209	-0.01
620.398	0.04
620.586	0.02
620.774	0.01
620.962	0.02
621.151	0.07
621.339	0
621.527	-0.02
621.715	-0.01
621.903	-0.02
622.092	0
622.28	0.02
622.468	0.03
622.656	0
622.844	0.07
623.032	-0
623.22	-0.04
623.408	0.04
623.596	0.03
623.784	0.03
623.972	0.01
624.16	-0.02
624.348	0.09
624.536	0.01
624.724	0.01
624.912	0.07
625.1	0.06
625.288	-0
625.476	0.01
625.664	0.04
625.851	0.01
626.039	0.01
626.227	0.06
626.415	0.06
626.603	-0.03
626.79	-0
626.978	0.01
627.166	0.03
627.354	0.04
627.541	-0.01
627.729	-0.05
627.917	0.01
628.104	0.09
628.292	0.04
628.48	0.02
628.667	0.05
628.855	0.05
629.042	0.01
629.23	0
629.418	0.02
629.605	0.04
629.793	0.04
629.98	-0
630.168	0.05
630.355	0
630.543	0.02
630.73	0.01
630.917	0.05
631.105	0.08
631.292	0.01
631.48	0.04
631.667	0.09
631.854	0.03
632.042	0.02
632.229	-0.04
632.416	0.01
632.604	0.04
632.791	-0.02
632.978	0.05
633.165	0.07
633.353	0.08
633.54	0.06
633.727	-0.03
633.914	-0.01
634.101	-0.06
634.289	0.06
634.476	-0.01
634.663	-0
634.85	0.03
635.037	-0.02
635.224	-0.04
635.411	0.06
635.598	0.07
635.785	0.02
635.972	-0.01
636.159	0.04
636.346	-0.01
636.533	0.01
636.72	0.01
636.907	0.01
637.094	0.05
637.281	-0.01
637.468	0.05
637.655	0.02
637.842	0.01
638.029	-0.03
638.215	0.05
638.402	0.02
638.589	0.02
638.776	0.01
638.963	-0.01
639.149	0.04
639.336	0.13
639.523	0.03
639.709	0.02
639.896	0
640.083	0.1
640.27	0.01
640.456	0
640.643	0.07
640.829	-0.01
641.016	0.03
641.203	-0.02
641.389	0.04
641.576	0.06
641.762	0.05
641.949	0.01
642.135	0.04
642.322	0.06
642.508	-0.04
642.695	0.03
642.881	-0.03
643.068	-0
643.254	0.03
643.441	0.06
643.627	0.04
643.813	-0
644	0.07
644.186	-0.02
644.372	0.03
644.559	0.06
644.745	0.01
644.931	-0
645.118	0.03
645.304	0.01
645.49	-0
645.676	-0.02
645.862	0
646.049	0.09
646.235	-0
646.421	0.09
646.607	0.08
646.793	0.02
646.979	-0.02
647.165	0.02
647.352	0.04
647.538	0.07
647.724	0.02
647.91	0.04
648.096	0.05
648.282	0.06
648.468	0.03
648.654	0.03
648.84	0.02
649.026	0.03
649.212	0.04
649.397	-0.02
649.583	-0.01
649.769	0.03
649.955	0.02
650.141	0.04
650.327	0.09
650.513	-0.02
650.698	0
650.884	-0.06
651.07	0.02
651.256	0.04
651.442	0.03
651.627	-0
651.813	0.07
651.999	0.02
652.184	0.04
652.37	0.02
652.556	-0
652.741	0.08
652.927	-0.07
653.113	-0
653.298	0.04
653.484	0.02
653.669	-0.04
653.855	0.03
654.04	0.02
654.226	0.03
654.412	0.02
654.597	0.01
654.782	0.01
654.968	0.06
655.153	0.04
655.339	-0.02
655.524	-0.04
655.71	0.06
655.895	0
656.08	0.01
656.266	0.05
656.451	0.04
656.636	0.01
656.822	-0
657.007	-0.04
657.192	-0.01
657.378	-0.05
657.563	0.03
657.748	0.02
657.933	0.06
658.118	0.03
658.304	0.01
658.489	0.05
658.674	0.03
658.859	-0.01
659.044	0.02
659.229	0.05
659.414	-0
659.599	-0
659.785	0.01
659.97	0.04
660.155	0.03
660.34	0.03
660.525	-0.01
660.71	0.03
660.895	0.06
661.08	0.02
661.264	0.01
661.449	0.08
661.634	0.08
661.819	0.06
662.004	0.02
662.189	-0.04
662.374	-0.03
662.559	-0
662.743	-0.05
662.928	0.01
663.113	0.03
663.298	-0.03
663.483	0
663.667	0.03
663.852	-0.03
664.037	0.04
664.221	-0.01
664.406	0.02
664.591	0.04
664.775	0.01
664.96	-0.04
665.145	0.03
665.329	0.07
665.514	0.02
665.698	-0
665.883	-0.04
666.068	0.07
666.252	0
666.437	0.01
666.621	0.02
666.806	0.06
666.99	0.02
667.174	-0
667.359	0.1
667.543	0.01
667.728	0.02
667.912	-0.05
668.096	0.06
668.281	0.02
668.465	0.03
668.649	0.03
668.834	-0.01
669.018	0.03
669.202	-0.01
669.387	0.01
669.571	0.08
669.755	0.02
669.939	-0
670.124	0.03
670.308	0.07
670.492	0.07
670.676	0.04
670.86	0.01
671.044	0.01
671.228	0.05
671.413	-0.05
671.597	0
671.781	-0.02
671.965	0.05
672.149	0.01
672.333	0.02
672.517	-0.02
672.701	0.06
672.885	0.06
673.069	-0.07
673.253	0.07
673.437	-0.04
673.621	-0.01
673.804	-0.02
673.988	0.01
674.172	-0
674.356	-0.03
674.54	0.05
674.724	0.11
674.908	0.01
675.091	0.01
675.275	0.02
675.459	0.03
675.643	0.04
675.826	0.03
676.01	0.04
676.194	0.02
676.377	0.05
676.561	0.07
676.745	0.03
676.928	0.06
677.112	0.04
677.296	0
677.479	0.01
677.663	-0.01
677.846	0.09
678.03	0
678.213	-0.02
678.397	0.02
678.58	0.02
678.764	-0.03
678.947	0.02
679.131	-0.04
679.314	0.06
679.498	0.02
679.681	0.03
679.865	0.04
680.048	0.02
680.231	0
680.415	-0.03
680.598	-0.03
680.781	0
680.965	0.05
681.148	0.02
681.331	0.01
681.514	0.02
681.698	-0.03
681.881	0.07
682.064	-0.01
682.247	0.05
682.43	-0.02
682.614	0.01
682.797	0.07
682.98	0.06
683.163	-0.05
683.346	0.04
683.529	0
683.712	-0.03
683.895	0.05
684.078	-0.04
684.261	0.02
684.444	0.01
684.627	0.06
684.81	0.05
684.993	0.01
685.176	0.01
685.359	0.02
685.542	0.02
685.725	0.05
685.908	-0
686.091	0.02
686.274	0.07
686.457	0.07
686.639	0.11
686.822	0.09
687.005	0.05
687.188	-0.01
687.371	0.11
687.553	0.02
687.736	0.01
687.919	0.09
688.102	0.1
688.284	-0.01
688.467	0.06
688.65	0.03
688.832	-0.03
689.015	0.03
689.197	0
689.38	0.13
689.563	0.13
689.745	-0.01
689.928	0.01
690.11	0.04
690.293	0.05
690.475	-0.03
690.658	0.02
690.84	0.06
691.023	-0
691.205	0.07
691.388	0.04
691.57	0.08
691.752	0.04
691.935	-0.05
692.117	0.03
692.3	0.04
692.482	0.03
692.664	0.04
692.847	0.05
693.029	0.03
693.211	0.07
693.393	0.03
693.576	0.05
693.758	0
693.94	0.01
694.122	-0.02
694.304	-0.04
694.487	-0.01
694.669	0.13
694.851	-0.03
695.033	0.06
695.215	-0.03
695.397	0.04
695.579	0.09
695.761	-0.03
695.943	-0.02
696.125	0.08
696.308	0.02
696.49	-0.06
696.671	0.16
696.853	0.01
697.035	0.18
697.217	0.04
697.399	0.07
697.581	-0.03
697.763	-0
697.945	-0.04
698.127	0.05
698.309	0.09
698.491	0.06
698.672	0.07
698.854	0.06
699.036	0.11
699.218	-0.02
699.399	0.14
699.581	0.08
699.763	0.08
699.945	-0.01
700.126	-0.06
700.308	0.01
700.49	0.03
700.671	-0.04
700.853	-0.02
701.035	0.04
701.216	0.01
701.398	-0.07
701.579	0.03
701.761	0.08
701.943	-0.02
702.124	0
702.306	0.01
702.487	0.17
702.669	0.03
702.85	-0.09
703.031	0
703.213	0.12
703.394	0.12
703.576	-0.02
703.757	0.11
703.938	0.12
704.12	0.21
704.301	0.04
704.483	0.03
704.664	0.05
704.845	0.13
705.026	0.13
705.208	0.05
705.389	0.09
705.57	-0.01
705.751	-0.01
705.933	0.02
706.114	0.11
706.295	0.06
706.476	-0.01
706.657	0.13
706.838	0.1
707.02	0.03
707.201	-0.01
707.382	0.04
707.563	0.06
707.744	0.09
707.925	-0.05
708.106	0
708.287	0.03
708.468	0.1
708.649	0.03
708.83	0.06
709.011	0.05
709.192	0.16
709.373	-0.06
709.554	0.05
709.734	0.07
709.915	0.07
710.096	0.03
710.277	-0.03
710.458	0.06
710.639	0.05
710.819	-0.04
711	0.03
711.181	0.13
711.362	0.09
711.542	0.01
711.723	0.04
711.904	0.17
712.085	0.04
712.265	0.06
712.446	-0.05
712.627	-0.01
712.807	0.06
712.988	0.05
713.168	-0.05
713.349	0.08
713.53	-0.07
713.71	-0.02
713.891	-0.02
714.071	0.03
714.252	-0.01
714.432	0.02
714.613	-0.09
714.793	0.06
714.974	0.12
715.154	0.08
715.334	0.1
715.515	0.1
715.695	0.01
715.876	0.04
716.056	0.01
716.236	0.05
716.417	0.03
716.597	-0.04
716.777	0.1
716.957	0.09
717.138	0.06
717.318	0.05
717.498	-0.11
717.678	0.08
717.859	0.1
718.039	-0.05
718.219	0.03
718.399	0.06
718.579	0
718.759	-0.08
718.939	0.1
719.12	0.05
719.3	0.08
719.48	-0.04
719.66	-0.04
719.84	0.1
720.02	-0.01
720.2	0.02
720.38	0.03
720.56	0.17
720.74	0.03
720.92	0.01
721.1	0.14
721.279	0.16
721.459	0.07
721.639	-0.07
721.819	0.08
721.999	0.04
722.179	0.07
722.359	-0.06
722.538	0.07
722.718	0.01
722.898	-0.02
723.078	-0.01
723.257	0.02
723.437	0.09
723.617	0.03
723.797	0.04
723.976	0.07
724.156	0.06
724.336	0.12
724.515	0.15
724.695	-0.12
724.874	0.03
725.054	0.07
725.234	-0.02
725.413	0.07
725.593	0.08
725.772	-0.03
725.952	-0
726.131	0.02
726.311	0.05
726.49	-0
726.67	-0.04
726.849	-0.03
727.028	0.12
727.208	0.03
727.387	0.09
727.567	-0.07
727.746	0.08
727.925	-0.04
728.105	-0.09
728.284	0.05
728.463	0.06
728.643	0.11
728.822	-0.03
729.001	0.08
729.18	0.05
729.359	0.1
729.539	-0.03
729.718	0.05
729.897	0.06
730.076	-0.06
730.255	-0.12
730.434	0.07
730.614	0.05
730.793	0.04
730.972	0.05
731.151	0.03
731.33	0.15
731.509	0.09
731.688	0.05
731.867	0.11
732.046	-0.04
732.225	0.26
732.404	-0.09
732.583	-0.07
732.762	0.04
732.941	0.15
733.12	0.15
733.298	0.08
733.477	0.16
733.656	-0
733.835	-0.1
734.014	0.07
734.193	0.11
734.371	0.12
734.55	0.1
734.729	-0.1
734.908	0.09
735.086	0.06
735.265	0.1
735.444	-0.12
735.623	-0.02
735.801	-0.12
735.98	0
736.159	-0.05
736.337	0.2
736.516	0
736.694	0.09
736.873	0.08
737.052	0.29
737.23	0.14
737.409	0.01
737.587	0.21
737.766	-0.12
737.944	-0.01
738.123	0.03
738.301	0.12
738.479	0.01
738.658	0.13
738.836	-0.13
739.015	0.07
739.193	0.24
739.371	-0
739.55	0.02
739.728	0.01
739.906	0.17
740.085	0.28
740.263	0.05
740.441	-0.07
740.62	0.24
740.798	0.15
740.976	-0.08
741.154	0.06
741.332	0.18
741.511	-0.02
741.689	0.09
741.867	-0.04
742.045	0.08
742.223	-0.02
742.401	-0.03
742.579	-0.02
742.757	0.11
742.935	-0.02
743.114	0.03
743.292	0.07
743.47	-0.11
743.648	0.09
743.826	0.02
744.004	0.09
744.181	0.21
744.359	0.02
744.537	0.06
744.715	-0.04
744.893	0.1
745.071	-0.05
745.249	-0
745.427	0.07
745.605	0.1
745.782	0.15
745.96	0.12
746.138	0.09
746.316	0.17
746.493	0.1
746.671	0.12
746.849	0.07
747.027	0.21
747.204	0.05
747.382	0.09
747.56	-0.02
747.737	0.07
747.915	-0.06
748.093	0.12
748.27	-0.08
748.448	0.04
748.625	-0.13
748.803	-0
748.98	-0.07
749.158	0.13
749.335	0.17
749.513	0.06
749.69	0.04
749.868	-0.01
750.045	0.09
750.223	-0.02
750.4	-0.3
750.578	0.31
750.755	0.05
750.932	-0.07
751.11	0.08
751.287	-0.14
751.464	0.05
751.642	0.1
751.819	0.15
751.996	0.08
752.173	-0.04
752.351	-0.05
752.528	0.06
752.705	-0.02
752.882	-0.03
753.06	0.1
753.237	0.15
753.414	0.34
753.591	0.19
753.768	0.11
753.945	-0.07
754.122	-0.04
754.299	0.13
754.476	-0.06
754.654	0.13
754.831	0.12
755.008	0.03
755.185	-0.01
755.362	-0.07
755.539	0.08
755.716	-0.04
755.892	-0.03
756.069	0
756.246	-0.05
756.423	-0.03
756.6	0.24
756.777	-0.01
756.954	0.15
757.131	-0.02
757.307	0.03
757.484	0.01
757.661	0.02
757.838	0.09
758.015	-0.09
758.191	0.1
758.368	0.02
758.545	0.21
758.721	0.09
758.898	0.03
759.075	0.08
759.251	0.13
759.428	0.12
759.605	-0.19
759.781	-0.01
759.958	0.03
760.134	0.2
760.311	0.05
760.488	0.13
760.664	0.13
760.841	-0.03
761.017	-0.21
761.194	0.12
761.37	0.14
761.547	0.13
761.723	0.07
761.899	0.11
762.076	-0.07
762.252	-0.05
762.429	-0.05
762.605	0.06
762.781	-0.01
762.958	0.13
763.134	0.01
763.31	0.03
763.486	0.16
763.663	-0.16
763.839	0.09
764.015	-0.14
764.191	-0.06
764.368	0.05
764.544	-0.01
764.72	0.09
764.896	0.13
765.072	0.03
765.248	0.13
765.425	0.01
765.601	-0.06
765.777	0.06
765.953	-0.17
766.129	-0.04
766.305	0.01
766.481	0.03
766.657	0.05
766.833	0.18
767.009	-0.08
767.185	-0.08
767.361	0.06
767.537	-0.04
767.713	0.25
767.889	0.04
768.065	0.09
768.24	-0.23
768.416	0.24
768.592	-0.11
768.768	-0.03
768.944	0.05
769.12	0.04
769.295	0.04
769.471	0.1
769.647	0.06
769.823	0.25
769.998	-0.1
770.174	-0.04
770.35	0.36
770.525	0.18
770.701	0.11
770.877	0.07
771.052	0.03
771.228	0.15
771.403	0.11
771.579	0.06
771.755	0.34
771.93	-0.05
772.106	-0.13
772.281	-0.2
772.457	0.21
772.632	0.16
772.808	-0.17
772.983	-0.08
773.159	-0.25
773.334	0.19
773.509	-0.08
773.685	-0.07
773.86	0.35
774.036	0.23
774.211	0.01
774.386	0.11
774.562	0.12
774.737	0.16
774.912	-0.04
775.087	0.14
775.263	0.07
775.438	0.05
775.613	-0.05
775.788	0.01
775.964	0.31
776.139	0.31
776.314	-0.08
776.489	0.08
776.664	0.09
776.839	-0.12
777.014	0.12
777.19	0.3
777.365	0.34
777.54	0.24
777.715	0.02
777.89	0.06
778.065	-0.12
778.24	0.06
778.415	0.33
778.59	-0.01
778.765	-0.01
778.94	0.16
779.115	0.04
779.289	0.08
779.464	0
779.639	-0.05
779.814	-0.17
779.989	-0.09
780.164	0.26
780.339	-0.01
780.513	0.04
780.688	-0.11
780.863	0.21
781.038	0.21
781.212	-0.11
781.387	0.02
781.562	0.29
781.737	0.02
781.911	0.02
782.086	-0.17
782.261	0.04
782.435	0.29
782.61	-0.03
782.784	-0.05
782.959	0.47
783.134	0.07
783.308	-0
783.483	0.1
783.657	0.6
783.832	0.2
784.006	-0.11
784.181	-0.1
784.355	0.16
784.53	-0.14
784.704	-0.12
784.878	0.24
785.053	0.05
785.227	0.28
785.402	0.57
785.576	-0.19
785.75	0.23
785.925	-0.01
786.099	0.1
786.273	0.2
786.448	0.4
786.622	0.24
786.796	0.05
786.97	-0.01
787.145	0.57
787.319	-0.06
787.493	-0.1
787.667	-0.23
787.841	0.05
788.015	0.45
788.19	-0.01
788.364	0.11
788.538	0.28
788.712	0.33
788.886	0.01
789.06	0.28
789.234	0.37
789.408	-0.09
789.582	-0.16
789.756	0.01
789.93	-0.06
790.104	0.17
790.278	-0.04
790.452	-0.22
790.626	0.34
790.8	0.02
790.973	0.24
791.147	0.35
791.321	0.44
791.495	0.36
791.669	0.06
791.843	0.15
792.016	0.2
792.19	0.42
792.364	-0.12
792.538	0.59
792.711	0.33
792.885	0.04
793.059	-0.17
793.233	-0.06
793.406	0.37
793.58	0.06
793.754	0.19
793.927	-0.11
794.101	0.41
794.274	0.12
794.448	0.52
794.622	-0.21
794.795	0.27
794.969	-0.08
795.142	0.24
795.316	-0.12
795.489	-0.26
795.663	0.52
795.836	-0.2
796.009	0
796.183	0.33
796.356	0.18
796.53	0.25
796.703	0.33
796.876	0.59
797.05	-0.22
797.223	0.14
797.396	0.1
797.57	0.02
797.743	0.5
797.916	0.23
798.09	0.01
798.263	0.38
798.436	0.31
798.609	0.09
798.782	0.04
798.956	0.11
799.129	0.22
799.302	-0.1
799.475	-0.1
799.648	-0
799.821	-0.15
799.994	0.1
800.167	-0.38
800.34	0.1
800.514	0.1
800.687	0.06
800.86	-0.12
801.033	0
801.206	0.12
801.379	-0.07
801.551	0.27
801.724	0.25
801.897	0.58
802.07	0.06
802.243	-0.73
802.416	0.06
802.589	-0.14
802.762	0.23
802.935	0.13
803.107	0.18
803.28	0.41
803.453	0.24
803.626	-0.07
803.798	0.19
803.971	0.11
804.144	0.07
804.317	0.35
804.489	0.3
804.662	-0.15
804.835	0.29
805.007	-0.31
805.18	0.58
805.353	0.05
805.525	-0.16
805.698	-0.25
805.87	0.36
806.043	0.43
806.215	-0.29
806.388	-0.14
806.56	0.07
806.733	0.61
806.905	0.39
807.078	0.09
807.25	-0.1
807.423	0.29
807.595	-0.19
807.768	0.29
807.94	0.36
808.112	0.66
808.285	0.28
808.457	0.13
808.629	0.2
808.802	0.56
808.974	0.44
809.146	-0.15
809.318	-0.43
809.491	0.42
809.663	0.51
809.835	-0.07
810.007	0.1
810.18	-0.02
810.352	-0.34
810.524	-0
810.696	0.44
810.868	0.39
811.04	0.11
811.212	-0.3
811.384	0.12
811.556	0.28
811.728	-0.08
811.901	0.45
812.073	-0.12
812.245	0.45
812.417	-0.05
812.589	-0.5
812.76	0.07
812.932	0.23
813.104	0.49
813.276	0.17
813.448	0.42
813.62	0.08
813.792	0.46
813.964	0.02
814.136	0.09
814.307	-0.22
814.479	-0.2
814.651	-0.14
814.823	0.89
814.995	0.1
815.166	0.21
815.338	-0.05
815.51	-0.49
815.681	0.63
815.853	-0.43
816.025	0.18
816.196	0.65
816.368	0.37
816.54	-0.39
816.711	-0.52
816.883	0.5
817.054	1.38
817.226	-0.74
817.398	0.56
817.569	-0.23
817.741	-0.05
817.912	0.29
818.084	0.03
818.255	0.36
818.426	-0.58
818.598	-0.14
818.769	0.15
818.941	0.59
819.112	0.76
819.283	0.4
819.455	-0.18
819.626	0.07
819.798	0.27
819.969	0.07
820.14	-0.06
820.311	0.07
820.483	-0.07
820.654	0.42
820.825	0.31
820.996	0.21
821.168	-0.4
821.339	0.1
821.51	-0.54
821.681	-0.26
821.852	0.04
822.023	-0.5
822.195	-0.88
822.366	0.53
822.537	0.37
822.708	0.31
822.879	-0.26
823.05	0.79
823.221	-0.09
823.392	0.12
823.563	-0.08
823.734	0.12
823.905	-0.19
824.076	0.11
824.247	-0.31
824.418	-0.21
824.589	0.64
824.759	-0.03
824.93	-0.2
825.101	0.22
825.272	0.52
825.443	0.28
825.614	0.51
825.784	-0.22
825.955	0.85
826.126	0.53
826.297	0.33
826.467	1.37
826.638	0.41
826.809	-0.82
826.98	-0.14
827.15	0.34
827.321	0.79
827.492	0.82
827.662	-0.26
827.833	1.16
828.003	0.92
828.174	-0.3
828.345	-0.53
828.515	0.33
828.686	0.23
828.856	0.21
829.027	-0.01
829.197	0.22
829.368	0.65
829.538	0.1
829.709	0.26
829.879	0.09
830.049	0.37
830.22	-0.5
830.39	-0.02
830.56	0.8
830.731	0.35
830.901	0.04
831.072	0.53
831.242	0.36
831.412	0.28
831.582	0.53
831.753	-0.79
831.923	0.07
832.093	0.15
832.263	-0.19
832.434	-0.83
832.604	0.2
832.774	0.72
832.944	0.01
833.114	-0.61
833.284	0.24
833.454	-0.45
833.624	-0.22
833.795	-0.5
833.965	0.34
834.135	0.67
834.305	-0.5
834.475	0.17
834.645	-0.05
834.815	-0.21
834.985	-0.19
835.155	-0.22
835.325	0.67
835.494	0.46
835.664	-0.12
835.834	-0.31
836.004	-0.35
836.174	0.11
836.344	0.03
836.514	-0.64
836.684	-0.32
836.853	0.4
837.023	0.33
837.193	-0.41
837.363	0.59
837.532	0.29
837.702	0.14
837.872	-0.36
838.041	1.15
838.211	1.25
838.381	-0.55
838.55	0.54
838.72	2.18
838.89	1.36
839.059	0.25
839.229	-0.36
839.398	2.51
839.568	0.31
839.738	0.21
839.907	1.33
840.077	0.56
840.246	-0.49
840.416	-0.63
840.585	-0.75
840.755	1.68
840.924	0.92
841.093	-0.57
841.263	0.02
841.432	0.19
841.602	-0.94
841.771	-0.59
841.94	0.31
842.11	1.8
842.279	1.96
842.448	-0.39
842.617	-0.64
842.787	0.7
842.956	-0.67
843.125	-0.5
843.294	0.12
843.464	1.57
843.633	0.45
843.802	-0.5
843.971	0.61
844.14	1.2
844.309	0.91
844.479	-0.68
844.648	-0.7
844.817	0.34
844.986	0.48
845.155	0.12
845.324	0.18
845.493	0.69
845.662	-0.16
845.831	0.94
846	0.76
846.169	0.41
846.338	1.59
846.507	0.64
846.676	0.36
846.844	-1.11
847.013	0.34
847.182	-0.29
847.351	-0.91
847.52	0.16
847.689	0.59
847.858	-0.19
848.026	-0.55
848.195	0.12
848.364	-0.08
848.533	-0.17
848.701	0.15
848.87	0.14
849.039	2.05
849.207	1.42
849.376	1.21
849.545	1.43
849.713	0.21
849.882	0.44
850.051	0.55
850.219	0.57
850.388	0.95
850.556	-0.29
850.725	-0.05
850.893	0.19
851.062	-0.01
851.23	1.38
851.399	-0.68
851.567	-0.24
851.736	-0.51
851.904	-0.54
852.073	0.76
852.241	1.08
852.41	-0.06
852.578	-0.28
852.746	0.28
852.915	0.95
853.083	0.55
853.251	-1.62
853.42	-0.22
853.588	1.21
853.756	1.14
853.924	0.06
854.093	0.18
854.261	0.25
854.429	-0.96
854.597	0.63
854.765	-0.51
854.934	1.24
855.102	2.49
855.27	-0.22
855.438	0.37
855.606	1.91
855.774	2.67
855.942	-0.06
856.11	-1.49
856.278	0.46
856.446	1.34
856.614	0.7
856.782	0.15
856.95	1.56
857.118	1.58
857.286	-0.21
857.454	0.03
857.622	1.74
857.79	1.2
857.958	-1.51
858.126	0.37
858.294	-3.16
858.462	-0.44
858.629	-0.67
858.797	-0.69
858.965	-0.54
859.133	0.46
859.301	-0.65
859.468	1.86
859.636	-1.33
859.804	1.82
859.971	0.47
860.139	-0.97
860.307	1.1
860.474	0.55
860.642	-0.66
860.81	-0.81
860.977	-0.48
861.145	1.13
861.313	-0.32
861.48	1.22
861.648	1.87
861.815	-1.21
861.983	-1.35
862.15	0.13
862.318	1.57
862.485	1.65
862.653	-0.64
862.82	-0.27
862.988	1.77
863.155	0.84
863.322	-2.36
863.49	-0.91
863.657	-0.25
863.824	2.17
863.992	1.16
864.159	2.25
864.326	0.51
864.494	-0.98
864.661	3.11
864.828	-0.89
864.996	1.52
865.163	1.97
865.33	-0.81
865.497	-2.25
865.664	-0.16
865.832	-2.55
865.999	0.39
866.166	-1.42
866.333	-0.39
866.5	0.16
866.667	-0.44
866.834	-0.74
867.001	2.5
867.168	-1.27
867.335	0.38
867.502	-0.5
867.669	1.96
867.836	2.52
868.003	-0.42
868.17	0.98
868.337	1.39
868.504	3.46
868.671	-1.38
868.838	-0.49
869.005	0.71
869.172	-0.17
869.339	0.81
869.505	0.72
869.672	-1.35
869.839	3.02
870.006	1.12
870.173	-2.7
870.339	0.88
870.506	3.5
870.673	-1.04
870.84	2.51
871.006	-0.13
871.173	-0.59
871.34	1.21
871.506	-0.92
871.673	0.31
871.839	-1.78
872.006	0.49
872.173	-1.47
872.339	-0.3
872.506	1.92
872.672	-0.02
872.839	-1.52
873.005	0.35
873.172	3.82
873.338	2.25
873.505	0.75
873.671	0.3
873.838	1.34
874.004	-1.17
874.171	-0.21
874.337	0.55
874.503	0.27
874.67	-0.4
874.836	-0.14
875.002	2.9
875.169	2.6
875.335	0.23
875.501	-0.7
875.668	2.92
875.834	0.65
876	0.85
876.166	1.88
876.332	0.59
876.499	4.29
876.665	0.98
876.831	1.26
876.997	3.38
877.163	-0.46
877.329	-0.4
877.495	-0.72
877.662	-0.09
877.828	1.7
877.994	1.18
878.16	-2.03
878.326	-0.56
878.492	1.28
878.658	-0.28
878.824	2.19
878.99	1.82
879.156	0.84
879.322	0.91
879.487	-0.09
879.653	1.44
879.819	-0.26
879.985	-1.8
880.151	0.61
880.317	1.27
880.483	1.4
880.648	1.53
880.814	-2.05
880.98	0.82
881.146	-2.54
881.312	-2.46
881.477	-1.13
881.643	0.19
881.809	2.03
881.974	0.45
882.14	-1.24
882.306	1.28
882.471	2.32
882.637	-1.43
882.803	0.24
882.968	4.6
883.134	4.64
883.299	0.2
883.465	0.11
883.63	2.55
883.796	0.99
883.961	1.64
884.127	0.8
884.292	-4.72
884.458	-2.09
884.623	-2.08
