Data from Apollo_Calib_20240827__AbsoluteIrradiance__343__04-52-02-380.txt Node

Date: Wed Aug 28 04:52:02 BST 2024
User: biology
Spectrometer: FLMT08252
Trigger mode: 0
Integration Time (sec): 5.000000E-1
Scans to average: 5
Electric dark correction enabled: true
Nonlinearity correction enabled: false
Boxcar width: 0
XAxis mode: Wavelengths
Number of Pixels in Spectrum: 3648
>>>>>Begin Spectral Data<<<<<
179.588	-0
179.809	-0
180.03	-0
180.251	-0
180.473	-0
180.694	0
180.915	0
181.136	-0
181.357	0
181.578	-0
181.799	0
182.02	-0
182.241	-0
182.462	-0
182.683	0
182.904	-0
183.125	-0
183.346	0
183.567	0
183.788	0
184.009	-0
184.23	0
184.451	0
184.672	-0
184.892	-0
185.113	0
185.334	0
185.555	-0
185.776	0
185.996	0
186.217	-0
186.438	0
186.659	-0
186.879	0
187.1	0
187.321	-0
187.541	-0
187.762	0
187.983	0
188.203	0
188.424	0
188.644	0
188.865	0
189.086	0
189.306	0
189.527	0
189.747	0
189.968	-0
190.188	0
190.409	0
190.629	0
190.849	-0
191.07	0
191.29	0
191.511	0
191.731	-0
191.951	-0
192.172	0
192.392	0
192.612	-0
192.833	0
193.053	0
193.273	0
193.493	0
193.714	-0
193.934	0
194.154	0
194.374	0
194.594	0
194.815	0
195.035	0
195.255	0
195.475	-0
195.695	0
195.915	0
196.135	0
196.355	0
196.575	0
196.795	0
197.015	-0
197.235	-0
197.455	0
197.675	0
197.895	0
198.115	-0
198.335	0
198.555	-0
198.775	0
198.995	0
199.214	0
199.434	0
199.654	0
199.874	0
200.094	1.57
200.313	0.08
200.533	0.08
200.753	-0.17
200.973	1.39
201.192	1.31
201.412	-0.31
201.632	0.04
201.851	1.05
202.071	0.17
202.291	0.16
202.51	0.06
202.73	0.69
202.95	-0.03
203.169	-0.17
203.389	0.32
203.608	0.62
203.828	0.11
204.047	-0.01
204.267	0.92
204.486	0.58
204.706	0.46
204.925	0.2
205.145	0.53
205.364	0.81
205.583	1.05
205.803	0.01
206.022	-0.2
206.242	0.31
206.461	0.5
206.68	0.13
206.9	0.5
207.119	1.15
207.338	0.82
207.557	0.16
207.777	0.2
207.996	0.34
208.215	0.82
208.434	0.1
208.654	-0.29
208.873	0.34
209.092	0.73
209.311	-0.16
209.53	0.17
209.749	0.37
209.968	0.29
210.187	0.02
210.407	-0.26
210.626	0.32
210.845	0.25
211.064	0.2
211.283	-0.04
211.502	0.41
211.721	0.22
211.94	0.22
212.159	0.57
212.377	0.26
212.596	0.51
212.815	0.22
213.034	0.3
213.253	0.64
213.472	0.4
213.691	-0.03
213.91	-0.26
214.128	0.01
214.347	0.76
214.566	-0.17
214.785	-0.21
215.003	0.3
215.222	0.4
215.441	0.18
215.66	-0.19
215.878	0.28
216.097	0.39
216.316	0.12
216.534	-0.07
216.753	0.28
216.972	0.18
217.19	0.11
217.409	-0.1
217.627	-0.06
217.846	0.21
218.064	0.13
218.283	-0.02
218.501	0.48
218.72	0.3
218.938	-0.18
219.157	-0
219.375	0.49
219.594	0.3
219.812	-0.03
220.031	-0.05
220.249	0.54
220.467	0.5
220.686	0.1
220.904	-0.14
221.122	0.08
221.341	0.64
221.559	0.26
221.777	-0.11
221.995	0.26
222.214	0.35
222.432	0.02
222.65	0.35
222.868	0.17
223.086	0.3
223.305	0.31
223.523	0.06
223.741	0.43
223.959	-0.06
224.177	-0.02
224.395	0.12
224.613	0.24
224.831	0.42
225.049	-0.1
225.267	0.1
225.485	0.28
225.703	-0.04
225.921	0.15
226.139	0.01
226.357	0.31
226.575	0.25
226.793	-0.06
227.011	0.72
227.229	0.19
227.447	0.44
227.665	0.09
227.883	-0.14
228.1	0.05
228.318	0.09
228.536	-0.2
228.754	0.01
228.972	0.17
229.189	0.26
229.407	0.04
229.625	0.09
229.843	0.29
230.06	0.33
230.278	0.09
230.496	0.11
230.713	0.14
230.931	0.26
231.149	-0.02
231.366	-0.12
231.584	0.08
231.801	0.48
232.019	0.12
232.236	-0.02
232.454	0.03
232.671	0.23
232.889	0.15
233.106	0.03
233.324	0.2
233.541	0.1
233.759	0.07
233.976	0.01
234.194	0.18
234.411	0.03
234.628	-0.06
234.846	0.16
235.063	0.13
235.28	0.14
235.498	0.13
235.715	-0.06
235.932	0.21
236.149	0.08
236.367	0.06
236.584	0.26
236.801	0.06
237.018	0.16
237.236	0.16
237.453	-0.05
237.67	0.28
237.887	0.13
238.104	0.14
238.321	0.01
238.538	0
238.755	0.24
238.973	0.01
239.19	0.09
239.407	0.23
239.624	0.14
239.841	-0.04
240.058	-0.03
240.275	0.19
240.492	-0.01
240.709	0.03
240.925	0.12
241.142	0.15
241.359	-0.03
241.576	-0.01
241.793	0.01
242.01	0.02
242.227	0.23
242.444	0.06
242.66	0.16
242.877	0.13
243.094	0
243.311	0.13
243.527	0.03
243.744	0.04
243.961	0.17
244.178	-0.01
244.394	0.14
244.611	0.2
244.828	0.25
245.044	0.06
245.261	-0.01
245.477	0.11
245.694	0.06
245.911	0.03
246.127	0.15
246.344	0.26
246.56	0.15
246.777	0.02
246.993	0.11
247.21	0.11
247.426	0.13
247.643	0.04
247.859	-0
248.076	0.02
248.292	0.35
248.508	0.07
248.725	0.06
248.941	0.11
249.157	0.26
249.374	0.05
249.59	0.07
249.806	0.08
250.023	0.26
250.239	0.03
250.455	-0.01
250.671	0.12
250.888	0.15
251.104	0.12
251.32	0.04
251.536	0.11
251.752	0.1
251.969	0.11
252.185	0.14
252.401	0.29
252.617	0.16
252.833	0
253.049	0.02
253.265	0.11
253.481	0.12
253.697	0.12
253.913	-0.06
254.129	0.18
254.345	0.08
254.561	0.05
254.777	0.13
254.993	0.16
255.209	0.13
255.425	0.07
255.641	-0
255.857	0.15
256.073	0.08
256.288	-0.02
256.504	0.07
256.72	0.09
256.936	0.22
257.152	0.04
257.367	-0.02
257.583	0.18
257.799	0.13
258.015	0.04
258.23	0.03
258.446	0.26
258.662	0.09
258.877	0.02
259.093	0.03
259.309	0.14
259.524	0.11
259.74	0.02
259.955	-0.04
260.171	0.04
260.387	0.09
260.602	0.12
260.818	0.11
261.033	-0.01
261.249	0.09
261.464	0.05
261.68	-0.05
261.895	0.06
262.11	0.12
262.326	0.11
262.541	-0.01
262.757	0.23
262.972	0.16
263.187	0.07
263.403	0.13
263.618	0.15
263.833	0.09
264.049	0.04
264.264	0.06
264.479	0.13
264.694	0.2
264.91	0.04
265.125	0.02
265.34	0.11
265.555	0.23
265.77	0.09
265.986	0.03
266.201	0.11
266.416	0.18
266.631	0.06
266.846	0.05
267.061	0.16
267.276	0.14
267.491	-0.04
267.706	0.16
267.921	0.12
268.136	0.15
268.351	0.1
268.566	-0
268.781	0.15
268.996	0.19
269.211	0.08
269.426	0.01
269.641	0.04
269.856	0.18
270.071	-0.03
270.285	0.02
270.5	0.12
270.715	0.12
270.93	0.04
271.145	0.05
271.359	0.1
271.574	0.09
271.789	0.02
272.004	-0.01
272.218	0.04
272.433	0.14
272.648	0
272.862	0.15
273.077	0.09
273.292	0.04
273.506	0.06
273.721	0.09
273.936	0.15
274.15	0.12
274.365	0.04
274.579	0.03
274.794	0.09
275.008	0.16
275.223	-0.02
275.437	0.07
275.652	0.16
275.866	0.12
276.081	0.07
276.295	0.18
276.509	0.11
276.724	0.09
276.938	0.11
277.153	0.12
277.367	0.17
277.581	0.06
277.796	0.02
278.01	0.02
278.224	0.11
278.438	0.22
278.653	0.01
278.867	0.02
279.081	-0.04
279.295	0.05
279.51	0.09
279.724	-0
279.938	0.15
280.152	0.11
280.366	0.04
280.58	0.09
280.794	0.15
281.008	0.08
281.222	0.16
281.437	0.18
281.651	0.07
281.865	0.21
282.079	0.07
282.293	0.04
282.507	0.09
282.721	0.07
282.935	0.07
283.148	-0.02
283.362	0.02
283.576	0.02
283.79	0.07
284.004	0.07
284.218	0.16
284.432	0.07
284.646	0.12
284.859	0.02
285.073	0.08
285.287	0.08
285.501	0.1
285.714	0.07
285.928	0.12
286.142	0.09
286.356	0.1
286.569	0.06
286.783	0.16
286.997	0.11
287.21	0.11
287.424	0.1
287.637	0.06
287.851	0.09
288.065	0.11
288.278	0.06
288.492	0.09
288.705	0.08
288.919	0.13
289.132	0.06
289.346	0.15
289.559	0.01
289.773	0
289.986	0.07
290.2	0.08
290.413	0.14
290.626	0.04
290.84	0.02
291.053	0.09
291.267	0.22
291.48	0.09
291.693	0.1
291.906	0.06
292.12	0.04
292.333	0.05
292.546	-0.01
292.76	0.14
292.973	0.1
293.186	0.15
293.399	0.04
293.612	0.14
293.826	0.09
294.039	0.05
294.252	0.06
294.465	0.06
294.678	0.09
294.891	0.1
295.104	0.05
295.317	0.06
295.53	0.11
295.743	0.1
295.956	0.08
296.169	0.16
296.382	0.09
296.595	0.04
296.808	0.05
297.021	0.14
297.234	0.13
297.447	0.06
297.66	0.1
297.873	0.12
298.086	0.15
298.299	0.05
298.511	0.04
298.724	0.09
298.937	0.02
299.15	0.05
299.363	0.09
299.575	0.12
299.788	0.13
300.001	0.08
300.213	0.05
300.426	0.09
300.639	0.04
300.852	0.08
301.064	0.16
301.277	0.14
301.489	0.07
301.702	0.11
301.915	0.14
302.127	0.07
302.34	0.07
302.552	0.08
302.765	0.06
302.977	0.1
303.19	0.07
303.402	0.08
303.615	0.06
303.827	0.09
304.04	0.06
304.252	0.1
304.464	0.07
304.677	0.19
304.889	0.11
305.102	-0.01
305.314	0.04
305.526	0.1
305.739	0.19
305.951	0.03
306.163	0.04
306.375	0.14
306.588	0.08
306.8	0.06
307.012	0.02
307.224	0.11
307.436	0.14
307.649	0.01
307.861	0.08
308.073	0.11
308.285	0.05
308.497	0.05
308.709	0.08
308.921	0.08
309.133	0.12
309.346	0.07
309.558	0.05
309.77	0.15
309.982	0.12
310.194	0.14
310.406	0.05
310.617	0.18
310.829	0.09
311.041	0.14
311.253	0.06
311.465	0.1
311.677	0.07
311.889	0.09
312.101	0.06
312.313	0.16
312.524	0.11
312.736	0.05
312.948	0.09
313.16	0.19
313.372	0.11
313.583	0.1
313.795	0.05
314.007	0.06
314.218	0.09
314.43	0.07
314.642	0.07
314.853	0.03
315.065	0.12
315.277	0.09
315.488	0.11
315.7	0.1
315.912	0.07
316.123	0.07
316.335	0.09
316.546	0.19
316.758	0.07
316.969	0.04
317.181	0.09
317.392	0.08
317.604	0.11
317.815	0.02
318.026	0.08
318.238	0.06
318.449	0.11
318.661	0.04
318.872	0.01
319.083	0.05
319.295	0.11
319.506	0.08
319.717	0.09
319.929	0.08
320.14	0.09
320.351	0.12
320.562	0.03
320.774	0.08
320.985	0.07
321.196	0.03
321.407	0.05
321.618	0.13
321.829	0.06
322.041	0.09
322.252	0.04
322.463	0.11
322.674	0.08
322.885	0.03
323.096	0.04
323.307	0.06
323.518	0.14
323.729	0.06
323.94	0.06
324.151	0.06
324.362	0.07
324.573	0.06
324.784	0.06
324.995	0.1
325.206	0.1
325.417	0.04
325.628	0.09
325.838	0.09
326.049	0.1
326.26	0.11
326.471	0.08
326.682	0.15
326.892	0.1
327.103	0.01
327.314	0.05
327.525	0.16
327.735	0.09
327.946	0.08
328.157	0.04
328.368	0.14
328.578	0.05
328.789	0.1
328.999	0.09
329.21	0.11
329.421	0.11
329.631	0.04
329.842	0.04
330.052	0.1
330.263	0.11
330.473	0.11
330.684	0.05
330.894	0.08
331.105	0.11
331.315	0.05
331.526	0.04
331.736	0.13
331.947	0.12
332.157	0.07
332.367	0.01
332.578	0.15
332.788	0.12
332.999	0.11
333.209	0.08
333.419	0.04
333.629	0.14
333.84	0.14
334.05	0.06
334.26	0.16
334.47	0.05
334.681	0.19
334.891	0.05
335.101	0.13
335.311	0.22
335.521	0.05
335.732	0.04
335.942	0.13
336.152	0.13
336.362	0.08
336.572	0.08
336.782	0.17
336.992	0.07
337.202	0.03
337.412	0.06
337.622	0.13
337.832	0.09
338.042	0.05
338.252	0.06
338.462	0.07
338.672	0.1
338.882	0.04
339.092	0.1
339.302	0.14
339.511	0.11
339.721	0.04
339.931	0.05
340.141	0.13
340.351	0.13
340.561	0.09
340.77	0.08
340.98	0.09
341.19	0.09
341.4	0.05
341.609	0.05
341.819	0.12
342.029	0.04
342.238	0.13
342.448	0.05
342.658	0.14
342.867	0.06
343.077	0.07
343.286	0.13
343.496	0.07
343.706	0.13
343.915	0.03
344.125	0.06
344.334	0.11
344.544	0.04
344.753	0.05
344.963	0.07
345.172	0.07
345.381	0.06
345.591	0.06
345.8	0.1
346.01	0.19
346.219	0.11
346.428	-0.03
346.638	0.06
346.847	0.1
347.056	0.17
347.266	0.05
347.475	0.06
347.684	0.12
347.893	0.14
348.103	0.09
348.312	0.06
348.521	0.07
348.73	0.09
348.94	0.09
349.149	0.04
349.358	0.1
349.567	0.06
349.776	0.01
349.985	0.06
350.194	0.11
350.403	0.13
350.612	0.03
350.821	0.04
351.03	0.11
351.239	0.06
351.448	0.06
351.657	0.06
351.866	0.19
352.075	0.05
352.284	0.11
352.493	0.01
352.702	0.11
352.911	0.11
353.12	0.09
353.329	0.05
353.538	0.1
353.746	0.09
353.955	0.04
354.164	0.11
354.373	0.03
354.582	0.09
354.79	0.07
354.999	0.14
355.208	0.08
355.416	0.14
355.625	0.02
355.834	0.05
356.042	0.12
356.251	0.05
356.46	0.02
356.668	0.09
356.877	0.21
357.085	0.11
357.294	-0.01
357.503	0.11
357.711	0.06
357.92	0.2
358.128	0.04
358.337	0.06
358.545	0.09
358.754	0.07
358.962	0.1
359.17	0.05
359.379	0.08
359.587	0.1
359.796	0.1
360.004	0.15
360.212	0.13
360.421	0.12
360.629	0.05
360.837	0.08
361.046	0.12
361.254	0.17
361.462	0.08
361.67	0.11
361.879	0.07
362.087	0.15
362.295	0.1
362.503	0.09
362.711	0.03
362.92	0.07
363.128	0.06
363.336	0.04
363.544	0.03
363.752	0.05
363.96	0.07
364.168	0.05
364.376	0.08
364.584	0.08
364.792	0.14
365	0.14
365.208	0.09
365.416	0.11
365.624	0.13
365.832	0.1
366.04	0.13
366.248	0.1
366.456	0.11
366.664	0.07
366.872	0.08
367.079	0.1
367.287	0.08
367.495	0.1
367.703	0.05
367.911	0.09
368.118	0.07
368.326	0.04
368.534	0.04
368.742	0.12
368.949	0.05
369.157	0.06
369.365	0.14
369.572	0.04
369.78	0.03
369.988	0.12
370.195	0.13
370.403	0.15
370.61	0.05
370.818	0.09
371.026	0.13
371.233	0.05
371.441	0.12
371.648	0.06
371.856	0.09
372.063	0.12
372.271	0.06
372.478	0.07
372.685	0.04
372.893	0.12
373.1	0.07
373.308	0.05
373.515	0.16
373.722	0.14
373.93	0.08
374.137	0.09
374.344	0.19
374.552	0.15
374.759	0.11
374.966	0.08
375.173	0.09
375.381	0.13
375.588	0.07
375.795	0.03
376.002	0.09
376.209	0.03
376.417	0.07
376.624	0.08
376.831	0.12
377.038	0.08
377.245	0
377.452	0.07
377.659	0.1
377.866	0.1
378.073	0.06
378.28	0.08
378.487	0.14
378.694	0.16
378.901	0.08
379.108	0.1
379.315	0.11
379.522	0.17
379.729	0.08
379.936	0.08
380.143	0.11
380.35	0.1
380.557	0.07
380.763	0.12
380.97	0.07
381.177	0.09
381.384	0.1
381.591	0.07
381.797	0.13
382.004	0.15
382.211	0.1
382.418	0.08
382.624	0.12
382.831	0.13
383.038	0.08
383.244	0.06
383.451	0.08
383.658	0.09
383.864	0.07
384.071	0.09
384.277	0.16
384.484	0.05
384.69	0.14
384.897	0.08
385.103	0.06
385.31	0.05
385.516	0.05
385.723	0.07
385.929	0.1
386.136	0.06
386.342	0.11
386.549	0.06
386.755	0.16
386.961	0.08
387.168	0.06
387.374	0.11
387.58	0.14
387.787	0.11
387.993	0.12
388.199	0.1
388.406	0.1
388.612	0.05
388.818	0.08
389.024	0.06
389.231	0.1
389.437	0.14
389.643	0.13
389.849	0.09
390.055	0.1
390.261	0.07
390.467	0.12
390.674	0.05
390.88	0.13
391.086	0.13
391.292	0.09
391.498	0.14
391.704	0.14
391.91	0.1
392.116	0.1
392.322	-0.02
392.528	0.12
392.734	0.07
392.94	0.12
393.146	0.1
393.352	0.14
393.557	0.09
393.763	0.09
393.969	0.14
394.175	0.08
394.381	0.12
394.587	0.06
394.792	0.1
394.998	0.16
395.204	0.16
395.41	0.12
395.615	0.11
395.821	0.16
396.027	0.13
396.233	0.08
396.438	0.12
396.644	0.24
396.85	0.14
397.055	0.11
397.261	0.12
397.466	0.1
397.672	0.12
397.878	0.16
398.083	0.13
398.289	0.07
398.494	0.19
398.7	0.15
398.905	0.04
399.111	0.2
399.316	0.05
399.522	0.12
399.727	0.1
399.932	0.08
400.138	0.11
400.343	0.16
400.549	0.15
400.754	0.14
400.959	0.19
401.165	0.13
401.37	0.15
401.575	0.13
401.78	0.21
401.986	0.12
402.191	0.11
402.396	0.12
402.601	0.15
402.807	0.17
403.012	0.14
403.217	0.2
403.422	0.14
403.627	0.13
403.832	0.09
404.037	0.18
404.243	0.19
404.448	0.14
404.653	0.15
404.858	0.18
405.063	0.21
405.268	0.12
405.473	0.11
405.678	0.14
405.883	0.28
406.088	0.2
406.293	0.15
406.498	0.17
406.703	0.22
406.907	0.13
407.112	0.11
407.317	0.18
407.522	0.21
407.727	0.14
407.932	0.19
408.136	0.3
408.341	0.19
408.546	0.19
408.751	0.18
408.956	0.2
409.16	0.26
409.365	0.18
409.57	0.21
409.774	0.21
409.979	0.26
410.184	0.24
410.388	0.19
410.593	0.29
410.798	0.24
411.002	0.23
411.207	0.28
411.411	0.26
411.616	0.27
411.82	0.3
412.025	0.33
412.229	0.28
412.434	0.38
412.638	0.32
412.843	0.27
413.047	0.35
413.252	0.33
413.456	0.35
413.66	0.35
413.865	0.38
414.069	0.44
414.273	0.39
414.478	0.33
414.682	0.38
414.886	0.4
415.091	0.42
415.295	0.43
415.499	0.54
415.703	0.48
415.908	0.56
416.112	0.46
416.316	0.62
416.52	0.59
416.724	0.53
416.929	0.58
417.133	0.75
417.337	0.69
417.541	0.65
417.745	0.72
417.949	0.77
418.153	0.8
418.357	0.75
418.561	0.95
418.765	0.86
418.969	0.95
419.173	1
419.377	0.97
419.581	1.1
419.785	1.04
419.989	1.04
420.193	1.09
420.397	1.2
420.601	1.33
420.804	1.33
421.008	1.29
421.212	1.45
421.416	1.42
421.62	1.47
421.823	1.45
422.027	1.58
422.231	1.53
422.435	1.6
422.638	1.66
422.842	1.74
423.046	1.72
423.249	1.91
423.453	1.89
423.657	2.02
423.86	2.07
424.064	2.12
424.268	2.3
424.471	2.22
424.675	2.44
424.878	2.39
425.082	2.5
425.285	2.66
425.489	2.75
425.692	2.79
425.896	2.81
426.099	2.92
426.303	2.96
426.506	3.1
426.71	3.29
426.913	3.4
427.116	3.52
427.32	3.61
427.523	3.65
427.726	3.92
427.93	3.91
428.133	4.09
428.336	4.27
428.54	4.38
428.743	4.58
428.946	4.68
429.149	4.7
429.353	4.87
429.556	4.9
429.759	4.91
429.962	4.97
430.165	5.21
430.368	4.95
430.571	4.9
430.775	5.03
430.978	5.03
431.181	5.15
431.384	5.27
431.587	5.34
431.79	5.56
431.993	5.54
432.196	5.86
432.399	6.09
432.602	6.16
432.805	6.23
433.008	6.68
433.211	6.58
433.414	6.79
433.616	6.98
433.819	6.81
434.022	6.99
434.225	7.21
434.428	7.34
434.631	7.55
434.833	7.44
435.036	7.73
435.239	7.79
435.442	7.94
435.645	8.13
435.847	8.23
436.05	8.5
436.253	8.72
436.455	8.74
436.658	8.66
436.861	8.99
437.063	9.14
437.266	9.2
437.468	9.55
437.671	9.89
437.874	9.93
438.076	9.91
438.279	10.43
438.481	10.46
438.684	11.19
438.886	10.96
439.089	11.25
439.291	11.45
439.494	11.81
439.696	12.02
439.899	12.58
440.101	13.06
440.303	13.3
440.506	14.25
440.708	14.02
440.91	14.39
441.113	14.7
441.315	14.96
441.517	15.12
441.72	15.65
441.922	15.52
442.124	15.66
442.326	16.07
442.529	16.53
442.731	16.66
442.933	17.18
443.135	17.04
443.337	17.32
443.539	18.04
443.742	17.86
443.944	18.67
444.146	18.51
444.348	18.64
444.55	18.89
444.752	19.19
444.954	19.34
445.156	19.51
445.358	20.27
445.56	20.44
445.762	20.56
445.964	20.97
446.166	20.79
446.368	20.95
446.57	21.23
446.772	20.94
446.974	20.75
447.175	21.31
447.377	21.04
447.579	21.61
447.781	21.39
447.983	21.23
448.184	20.87
448.386	21.34
448.588	20.83
448.79	20.85
448.991	21.15
449.193	21.29
449.395	20.47
449.597	20.09
449.798	20.08
450	19.67
450.202	19.38
450.403	19.63
450.605	19.46
450.806	19.06
451.008	18.78
451.21	18.51
451.411	18.03
451.613	16.94
451.814	17.33
452.016	17.15
452.217	16.47
452.419	16.33
452.62	15.84
452.821	15.61
453.023	15.31
453.224	14.92
453.426	14.36
453.627	13.38
453.828	13.47
454.03	13.6
454.231	13.47
454.432	13.18
454.634	12.86
454.835	12.4
455.036	12.4
455.238	11.86
455.439	11.41
455.64	11.24
455.841	10.91
456.042	11.05
456.244	10.69
456.445	10.34
456.646	9.89
456.847	9.84
457.048	9.73
457.249	9.61
457.45	9.2
457.651	8.75
457.852	8.53
458.054	8.17
458.255	8.11
458.456	8.25
458.657	8.07
458.858	7.53
459.058	7.44
459.259	7.56
459.46	7.14
459.661	7.12
459.862	7.08
460.063	6.97
460.264	6.87
460.465	6.51
460.666	6.6
460.866	6.31
461.067	5.98
461.268	6
461.469	5.94
461.67	5.8
461.87	5.61
462.071	5.62
462.272	5.49
462.473	5.36
462.673	5.56
462.874	5.48
463.075	5.36
463.275	5.32
463.476	5.38
463.676	5.32
463.877	5.13
464.078	4.99
464.278	5.11
464.479	4.82
464.679	4.73
464.88	4.64
465.08	4.54
465.281	4.45
465.481	4.17
465.682	4.02
465.882	4.02
466.083	3.87
466.283	3.81
466.483	3.63
466.684	3.49
466.884	3.33
467.085	3.39
467.285	3.37
467.485	3.22
467.686	3.11
467.886	2.94
468.086	2.91
468.286	2.85
468.487	2.89
468.687	2.67
468.887	2.63
469.087	2.67
469.287	2.66
469.488	2.43
469.688	2.49
469.888	2.5
470.088	2.41
470.288	2.34
470.488	2.26
470.688	2.08
470.888	2.1
471.088	1.94
471.288	1.98
471.488	1.94
471.688	1.87
471.888	1.87
472.088	1.92
472.288	1.83
472.488	1.74
472.688	1.67
472.888	1.7
473.088	1.65
473.288	1.56
473.488	1.47
473.688	1.64
473.887	1.49
474.087	1.44
474.287	1.51
474.487	1.39
474.687	1.4
474.886	1.3
475.086	1.27
475.286	1.25
475.486	1.23
475.685	1.18
475.885	1.18
476.085	1.18
476.284	1.2
476.484	1.15
476.684	1.14
476.883	1.16
477.083	1.01
477.282	1.01
477.482	1.07
477.681	1.03
477.881	0.96
478.08	0.93
478.28	0.88
478.479	0.95
478.679	0.98
478.878	0.88
479.078	0.86
479.277	0.86
479.477	0.83
479.676	0.85
479.875	0.77
480.075	0.74
480.274	0.79
480.473	0.77
480.673	0.73
480.872	0.78
481.071	0.72
481.271	0.72
481.47	0.66
481.669	0.67
481.868	0.62
482.067	0.62
482.267	0.57
482.466	0.55
482.665	0.56
482.864	0.54
483.063	0.5
483.262	0.57
483.461	0.58
483.661	0.56
483.86	0.55
484.059	0.55
484.258	0.51
484.457	0.48
484.656	0.47
484.855	0.52
485.054	0.42
485.253	0.39
485.452	0.39
485.651	0.43
485.849	0.43
486.048	0.35
486.247	0.36
486.446	0.39
486.645	0.36
486.844	0.35
487.043	0.36
487.241	0.39
487.44	0.31
487.639	0.34
487.838	0.33
488.037	0.33
488.235	0.36
488.434	0.33
488.633	0.27
488.831	0.31
489.03	0.29
489.229	0.3
489.427	0.25
489.626	0.32
489.825	0.31
490.023	0.28
490.222	0.23
490.42	0.28
490.619	0.3
490.817	0.24
491.016	0.22
491.214	0.27
491.413	0.23
491.611	0.22
491.81	0.2
492.008	0.24
492.207	0.22
492.405	0.24
492.604	0.15
492.802	0.19
493	0.18
493.199	0.18
493.397	0.19
493.595	0.24
493.794	0.18
493.992	0.23
494.19	0.15
494.388	0.19
494.587	0.17
494.785	0.17
494.983	0.15
495.181	0.16
495.379	0.17
495.578	0.15
495.776	0.16
495.974	0.15
496.172	0.14
496.37	0.15
496.568	0.15
496.766	0.12
496.964	0.18
497.162	0.14
497.36	0.11
497.558	0.17
497.756	0.17
497.954	0.15
498.152	0.1
498.35	0.14
498.548	0.13
498.746	0.13
498.944	0.1
499.142	0.11
499.34	0.09
499.538	0.11
499.736	0.1
499.933	0.16
500.131	0.15
500.329	0.11
500.527	0.13
500.725	0.15
500.922	0.16
501.12	0.1
501.318	0.1
501.516	0.07
501.713	0.11
501.911	0.07
502.109	0.1
502.306	0.12
502.504	0.08
502.701	0.09
502.899	0.1
503.097	0.15
503.294	0.12
503.492	0.08
503.689	0.09
503.887	0.13
504.084	0.15
504.282	0.1
504.479	0.06
504.677	0.1
504.874	0.06
505.072	0.08
505.269	0.09
505.466	0.1
505.664	0.09
505.861	0.06
506.059	0.07
506.256	0.1
506.453	0.08
506.651	0.12
506.848	0.1
507.045	0.09
507.242	0.08
507.44	0.07
507.637	0.07
507.834	0.07
508.031	0.09
508.229	0.07
508.426	0.07
508.623	0.08
508.82	0.06
509.017	0.05
509.214	0.06
509.411	0.07
509.608	0.05
509.805	0.06
510.003	0.07
510.2	0.06
510.397	0.11
510.594	0.04
510.791	0.04
510.988	0.06
511.184	0.08
511.381	0.06
511.578	0.05
511.775	0.11
511.972	0.06
512.169	0.05
512.366	0.06
512.563	0.08
512.76	0.06
512.956	0.07
513.153	0.05
513.35	0.07
513.547	0.03
513.744	0.05
513.94	0.03
514.137	0.08
514.334	0.06
514.53	0.04
514.727	0.07
514.924	0.1
515.12	0.03
515.317	0.04
515.514	0.03
515.71	0.05
515.907	0.05
516.103	0.07
516.3	0.07
516.497	0.09
516.693	0.09
516.89	0.05
517.086	0.03
517.283	0.08
517.479	0.06
517.676	0.03
517.872	0.04
518.068	0.04
518.265	0.05
518.461	0.05
518.658	0.03
518.854	0.06
519.05	0.05
519.247	0.02
519.443	0.07
519.639	0.06
519.836	0.05
520.032	0.06
520.228	0.05
520.424	0.12
520.621	0.05
520.817	0.05
521.013	0.06
521.209	0.05
521.405	0.09
521.601	0.05
521.798	0.04
521.994	0.08
522.19	0.02
522.386	0.02
522.582	0.08
522.778	0.03
522.974	0.03
523.17	0.04
523.366	0.06
523.562	0.08
523.758	0.02
523.954	0.02
524.15	0.04
524.346	0.05
524.542	0.03
524.738	0.03
524.934	0.03
525.129	0.05
525.325	0.05
525.521	0.05
525.717	0.06
525.913	0.04
526.109	0.06
526.304	0.06
526.5	0.09
526.696	0.06
526.892	0.03
527.087	0.05
527.283	0.03
527.479	0.08
527.674	0.04
527.87	0.04
528.066	0.04
528.261	0.08
528.457	0.07
528.653	0.04
528.848	0.04
529.044	0.05
529.239	0.04
529.435	0.07
529.63	0.05
529.826	0.11
530.021	0.07
530.217	0.08
530.412	0.03
530.608	0.04
530.803	0.03
530.999	0.05
531.194	-0.01
531.389	0.02
531.585	-0.01
531.78	0.03
531.975	0.04
532.171	0.08
532.366	0.05
532.561	0.03
532.757	0.02
532.952	0.01
533.147	0.06
533.342	0.03
533.538	0.03
533.733	0.06
533.928	0.03
534.123	0.03
534.318	0.01
534.513	0.04
534.709	0.03
534.904	0.01
535.099	0.02
535.294	0.04
535.489	0.06
535.684	0.03
535.879	0.02
536.074	0.03
536.269	0.02
536.464	0.04
536.659	0.05
536.854	0.03
537.049	0.05
537.244	0.04
537.439	0.04
537.634	0.06
537.828	0.04
538.023	0.03
538.218	-0.01
538.413	0.03
538.608	-0
538.803	0.06
538.997	0.01
539.192	0.07
539.387	0.05
539.582	0.05
539.776	0.05
539.971	0.03
540.166	0.03
540.36	0.01
540.555	0.03
540.75	0.02
540.944	0.04
541.139	0
541.334	0
541.528	0.06
541.723	0.04
541.917	0.03
542.112	0.02
542.306	0.02
542.501	0.02
542.695	0.03
542.89	0.02
543.084	0.04
543.279	0.02
543.473	0.03
543.668	0.02
543.862	0.01
544.056	0.07
544.251	0.04
544.445	0.06
544.64	0.03
544.834	0.02
545.028	0.05
545.222	0.05
545.417	0.09
545.611	0.05
545.805	0.03
546	0.04
546.194	0.03
546.388	0.02
546.582	0.04
546.776	0.03
546.97	0.04
547.165	0.04
547.359	0.03
547.553	0.03
547.747	0.04
547.941	0.04
548.135	0.02
548.329	0.04
548.523	0.06
548.717	0.04
548.911	0.02
549.105	0.05
549.299	0.03
549.493	0.04
549.687	0.05
549.881	0.05
550.075	0.03
550.269	-0.02
550.463	0.04
550.657	0.03
550.85	0.06
551.044	0.02
551.238	0.03
551.432	-0
551.626	0.01
551.82	0.05
552.013	0.03
552.207	0.04
552.401	0.06
552.594	0.06
552.788	0.04
552.982	0.05
553.176	0
553.369	0.06
553.563	0.04
553.756	-0.01
553.95	0.02
554.144	0.03
554.337	0.07
554.531	0.06
554.724	0.03
554.918	0.04
555.111	0.05
555.305	0.03
555.498	0.07
555.692	0.06
555.885	0
556.079	0.04
556.272	0.02
556.466	0.06
556.659	0.04
556.852	0.03
557.046	0.02
557.239	0.08
557.432	-0.01
557.626	-0.01
557.819	0.02
558.012	0.06
558.206	0.04
558.399	0.02
558.592	0.02
558.785	0.04
558.979	0.06
559.172	0.03
559.365	0.05
559.558	0.03
559.751	0.02
559.944	0.04
560.138	0.03
560.331	0.01
560.524	0.02
560.717	0.01
560.91	0.01
561.103	0.04
561.296	0.04
561.489	0.04
561.682	0.03
561.875	0.09
562.068	0.04
562.261	0.06
562.454	0.06
562.647	0.03
562.84	0.02
563.032	0.02
563.225	0.05
563.418	0.02
563.611	0.02
563.804	0.03
563.997	-0.02
564.19	0.01
564.382	0.04
564.575	0.02
564.768	0.03
564.961	0.02
565.153	0.02
565.346	0.03
565.539	0.06
565.731	0.03
565.924	0.04
566.117	0.05
566.309	0.04
566.502	0.01
566.695	0.03
566.887	0.05
567.08	0.02
567.272	-0
567.465	0.01
567.657	0.03
567.85	0.04
568.042	0.04
568.235	0.05
568.427	0.04
568.62	0.03
568.812	0.05
569.005	0.04
569.197	-0.03
569.389	0.04
569.582	0.04
569.774	0.03
569.966	0
570.159	-0.03
570.351	0.05
570.543	0.02
570.736	0.04
570.928	0.02
571.12	0.03
571.312	0.01
571.505	-0.01
571.697	0.05
571.889	0.02
572.081	0.04
572.273	0.01
572.465	0.05
572.658	0.03
572.85	0.04
573.042	0.04
573.234	0.03
573.426	0.07
573.618	0.01
573.81	0.04
574.002	0.05
574.194	0.06
574.386	-0.01
574.578	-0.04
574.77	0.03
574.962	0.02
575.154	-0
575.346	0
575.538	0.07
575.729	0.01
575.921	0.02
576.113	-0
576.305	0.07
576.497	0.02
576.689	0.04
576.88	0.01
577.072	0.05
577.264	0.02
577.456	0.01
577.647	-0.04
577.839	0.05
578.031	0.08
578.223	0
578.414	-0
578.606	0.06
578.798	0.04
578.989	-0.02
579.181	0.02
579.372	0.01
579.564	-0
579.755	0.05
579.947	0.02
580.139	0.04
580.33	-0.02
580.522	-0.03
580.713	-0.02
580.905	0.02
581.096	0.02
581.287	0.03
581.479	0.03
581.67	0.06
581.862	0.03
582.053	0.01
582.244	-0.05
582.436	0.02
582.627	0.04
582.818	0.02
583.01	-0.01
583.201	0.08
583.392	0.06
583.583	0.03
583.775	0.01
583.966	0.02
584.157	0.02
584.348	0.03
584.54	-0.02
584.731	0.05
584.922	0.03
585.113	0.01
585.304	0.04
585.495	0.03
585.686	0.02
585.877	0.04
586.068	0.01
586.259	0
586.45	0.04
586.641	0.01
586.832	-0.02
587.023	0.02
587.214	0.03
587.405	0.04
587.596	0.01
587.787	0.05
587.978	0.04
588.169	0
588.36	-0.02
588.551	0.04
588.742	0.02
588.932	0.03
589.123	0.05
589.314	0.06
589.505	0.07
589.696	0.03
589.886	0
590.077	0.01
590.268	0.04
590.458	-0.03
590.649	-0.02
590.84	0.05
591.03	0.01
591.221	-0.02
591.412	-0.02
591.602	0.04
591.793	0.06
591.984	-0.03
592.174	-0
592.365	0.08
592.555	0.01
592.746	0.02
592.936	0.01
593.127	0.06
593.317	0.05
593.508	-0
593.698	0.01
593.889	0.04
594.079	0.01
594.269	0
594.46	0.04
594.65	0.03
594.84	0.02
595.031	0.02
595.221	0.01
595.411	-0
595.602	0.05
595.792	0.01
595.982	0.01
596.172	0.07
596.363	0.03
596.553	0.05
596.743	0.02
596.933	0.01
597.123	0.07
597.314	0
597.504	0.02
597.694	0.05
597.884	0.04
598.074	0.01
598.264	0.02
598.454	0.03
598.644	0.04
598.834	0.02
599.024	-0.03
599.214	0.01
599.404	0.07
599.594	-0.02
599.784	-0
599.974	0.06
600.164	0.04
600.354	-0.02
600.544	-0
600.734	0.02
600.924	0.08
601.114	0.02
601.303	0.02
601.493	0.05
601.683	0.05
601.873	0.02
602.063	-0.03
602.252	0.04
602.442	-0.03
602.632	0
602.821	-0.02
603.011	0.01
603.201	-0
603.39	-0
603.58	-0.01
603.77	0.02
603.959	0.05
604.149	0.02
604.339	-0.01
604.528	0.03
604.718	0.05
604.907	0.02
605.097	-0
605.286	-0.01
605.476	0.06
605.665	0.05
605.855	0.01
606.044	0.06
606.234	0.03
606.423	0.01
606.612	-0
606.802	0.04
606.991	0.05
607.181	0.05
607.37	-0.01
607.559	0.03
607.749	0.01
607.938	0.01
608.127	0.02
608.316	0.01
608.506	0.04
608.695	0.03
608.884	0
609.073	0.01
609.263	0.03
609.452	0.04
609.641	0.04
609.83	0.01
610.019	0.01
610.208	-0
610.397	0.04
610.586	0.06
610.775	-0
610.965	-0
611.154	0.02
611.343	0.01
611.532	0.03
611.721	-0.01
611.91	-0
612.099	0.04
612.287	0.01
612.476	-0.02
612.665	0.03
612.854	0.01
613.043	0.07
613.232	0.02
613.421	-0.01
613.61	0.04
613.798	-0.01
613.987	0.02
614.176	0.03
614.365	0.06
614.554	0.01
614.742	0.06
614.931	-0
615.12	0.04
615.309	-0
615.497	0.05
615.686	-0.02
615.875	-0.01
616.063	0.04
616.252	0.01
616.44	0.01
616.629	0.03
616.818	0.07
617.006	0.03
617.195	0.01
617.383	0.05
617.572	0.03
617.76	-0.03
617.949	0
618.137	0.02
618.326	0.07
618.514	0.01
618.703	0
618.891	0.04
619.079	-0.06
619.268	0.02
619.456	-0
619.644	0.04
619.833	0.02
620.021	0.01
620.209	-0.02
620.398	0.03
620.586	0
620.774	0.04
620.962	0
621.151	0.05
621.339	-0
621.527	-0.02
621.715	-0.01
621.903	-0.01
622.092	0
622.28	0.04
622.468	0.03
622.656	-0.02
622.844	0.04
623.032	0.02
623.22	-0.05
623.408	0.04
623.596	0.07
623.784	0.05
623.972	-0.02
624.16	0
624.348	0.09
624.536	-0.02
624.724	0.02
624.912	0.11
625.1	0.06
625.288	-0
625.476	0.01
625.664	0.06
625.851	-0
626.039	0.02
626.227	0.05
626.415	0.01
626.603	-0
626.79	0.02
626.978	0.02
627.166	0.03
627.354	0.02
627.541	-0.01
627.729	-0.05
627.917	0.02
628.104	0.09
628.292	0.02
628.48	-0.02
628.667	0.01
628.855	-0.01
629.042	0.03
629.23	-0.03
629.418	0
629.605	0.01
629.793	0.01
629.98	-0
630.168	-0.02
630.355	0.03
630.543	-0.01
630.73	-0.03
630.917	0.09
631.105	0.08
631.292	0
631.48	0.04
631.667	0.09
631.854	0.03
632.042	-0.01
632.229	-0.04
632.416	0.04
632.604	0
632.791	-0.03
632.978	0.04
633.165	0.06
633.353	0.08
633.54	0.05
633.727	-0.07
633.914	0.02
634.101	-0.02
634.289	0.08
634.476	-0.01
634.663	-0.03
634.85	0.03
635.037	-0.01
635.224	-0.03
635.411	0.03
635.598	0.06
635.785	0.03
635.972	-0
636.159	0.03
636.346	0.01
636.533	0.02
636.72	0
636.907	0
637.094	0.05
637.281	-0.01
637.468	0.04
637.655	0.03
637.842	0.01
638.029	-0.01
638.215	0.05
638.402	0.04
638.589	-0
638.776	-0.01
638.963	0.02
639.149	0.06
639.336	0.06
639.523	-0.01
639.709	0.04
639.896	0
640.083	0.07
640.27	0.03
640.456	0.04
640.643	0.05
640.829	-0.05
641.016	0.01
641.203	-0.02
641.389	0.06
641.576	0.03
641.762	0.01
641.949	-0.01
642.135	0.05
642.322	0.02
642.508	-0.03
642.695	-0
642.881	0.02
643.068	-0.01
643.254	0.04
643.441	0.05
643.627	0.02
643.813	-0.02
644	0.04
644.186	-0.01
644.372	0.03
644.559	0.06
644.745	0.01
644.931	0
645.118	0.02
645.304	-0.02
645.49	0.01
645.676	0
645.862	0.05
646.049	0.06
646.235	0.03
646.421	0.1
646.607	0.1
646.793	-0.03
646.979	-0.02
647.165	0.05
647.352	0.05
647.538	0.06
647.724	0.03
647.91	-0
648.096	0.06
648.282	0.08
648.468	0.02
648.654	0.02
648.84	0.03
649.026	0.02
649.212	0
649.397	-0.01
649.583	-0.02
649.769	0.06
649.955	0
650.141	0.01
650.327	0.08
650.513	-0.01
650.698	0.01
650.884	-0.02
651.07	0.01
651.256	0.03
651.442	0.01
651.627	0.01
651.813	0.04
651.999	-0
652.184	0.05
652.37	-0.01
652.556	-0.03
652.741	0.07
652.927	-0.06
653.113	-0.01
653.298	0.05
653.484	0.02
653.669	-0.02
653.855	0.03
654.04	0.03
654.226	0.04
654.412	-0.01
654.597	-0
654.782	0.05
654.968	0.05
655.153	0.02
655.339	0.01
655.524	-0
655.71	0.06
655.895	0.01
656.08	0.01
656.266	0.07
656.451	0.03
656.636	-0.04
656.822	0.02
657.007	-0.02
657.192	0
657.378	-0.06
657.563	-0.01
657.748	0.03
657.933	0.06
658.118	0.01
658.304	0.02
658.489	0.05
658.674	0.05
658.859	-0.02
659.044	0.02
659.229	0.01
659.414	0.02
659.599	0.02
659.785	-0.01
659.97	0.02
660.155	0.09
660.34	-0.01
660.525	0.02
660.71	-0.01
660.895	0.03
661.08	-0.02
661.264	0.01
661.449	0.05
661.634	0.05
661.819	0.05
662.004	-0.02
662.189	-0.06
662.374	0
662.559	-0.03
662.743	-0.04
662.928	0.03
663.113	-0.02
663.298	-0.04
663.483	0.01
663.667	0.02
663.852	-0.02
664.037	0.08
664.221	0
664.406	0.06
664.591	0.03
664.775	-0.02
664.96	-0.03
665.145	0.04
665.329	0.02
665.514	0.02
665.698	-0
665.883	-0.02
666.068	0.08
666.252	0.02
666.437	-0.01
666.621	0
666.806	0.04
666.99	0.04
667.174	-0.01
667.359	0.05
667.543	-0
667.728	0.01
667.912	-0.08
668.096	0.05
668.281	0.01
668.465	-0.02
668.649	0.01
668.834	-0.07
669.018	0
669.202	0.03
669.387	-0.01
669.571	0.04
669.755	-0.01
669.939	-0
670.124	-0.01
670.308	0.08
670.492	0.07
670.676	0.02
670.86	-0.01
671.044	-0.02
671.228	0.07
671.413	-0.01
671.597	-0.01
671.781	-0.01
671.965	0
672.149	-0.02
672.333	-0.02
672.517	-0.02
672.701	0.03
672.885	0.02
673.069	-0.02
673.253	0.09
673.437	-0.01
673.621	-0.02
673.804	0.01
673.988	0.02
674.172	-0.02
674.356	-0.03
674.54	0
674.724	0.11
674.908	0.03
675.091	0.05
675.275	0.03
675.459	0.07
675.643	0.04
675.826	0.03
676.01	0.05
676.194	-0
676.377	0.08
676.561	0.04
676.745	0.04
676.928	0.01
677.112	0.05
677.296	-0.03
677.479	-0.01
677.663	-0.01
677.846	0.08
678.03	-0.02
678.213	0.01
678.397	0.06
678.58	0.02
678.764	-0.01
678.947	0.02
679.131	-0.01
679.314	0.06
679.498	0.03
679.681	0.01
679.865	0.07
680.048	0.01
680.231	0.03
680.415	0.03
680.598	0.02
680.781	0.03
680.965	0.01
681.148	0.05
681.331	0.02
681.514	0.02
681.698	0
681.881	0.03
682.064	0.08
682.247	0.03
682.43	-0.05
682.614	0.05
682.797	0.09
682.98	0.06
683.163	-0.01
683.346	0.05
683.529	-0
683.712	-0.03
683.895	0.04
684.078	-0.07
684.261	0.02
684.444	0.03
684.627	0.02
684.81	-0.01
684.993	0.02
685.176	0.06
685.359	-0
685.542	-0
685.725	0.11
685.908	0.02
686.091	-0.01
686.274	0.12
686.457	0.08
686.639	0.01
686.822	0.07
687.005	0.04
687.188	0.05
687.371	0.1
687.553	0.03
687.736	0.04
687.919	0.09
688.102	0.07
688.284	0.01
688.467	0.01
688.65	0.04
688.832	-0.03
689.015	-0
689.197	-0.03
689.38	0.11
689.563	0.1
689.745	-0.06
689.928	0.03
690.11	-0
690.293	0.06
690.475	-0.03
690.658	0.04
690.84	0.06
691.023	-0.03
691.205	0
691.388	0.04
691.57	0.08
691.752	0.07
691.935	-0.06
692.117	0.01
692.3	0.07
692.482	0.04
692.664	0.03
692.847	0.04
693.029	0.11
693.211	0.05
693.393	0.01
693.576	0.01
693.758	-0.01
693.94	0.05
694.122	0.06
694.304	0.03
694.487	-0.01
694.669	0.08
694.851	-0.06
695.033	0.03
695.215	-0.01
695.397	-0.03
695.579	0.05
695.761	-0.02
695.943	-0.04
696.125	0.09
696.308	0.08
696.49	-0.07
696.671	0.12
696.853	0.01
697.035	0.14
697.217	0.02
697.399	0.1
697.581	-0
697.763	-0.01
697.945	0.01
698.127	0.02
698.309	0.05
698.491	0.02
698.672	0.09
698.854	0.07
699.036	0.11
699.218	0
699.399	0.11
699.581	0.09
699.763	0.02
699.945	-0.01
700.126	-0.02
700.308	0.07
700.49	0.02
700.671	-0.08
700.853	0.01
701.035	0.03
701.216	-0.02
701.398	-0.03
701.579	0.02
701.761	0.05
701.943	0
702.124	-0.03
702.306	0.02
702.487	0.15
702.669	-0
702.85	-0.02
703.031	-0.02
703.213	0.14
703.394	0.08
703.576	-0.05
703.757	0.1
703.938	0.06
704.12	0.24
704.301	0.05
704.483	-0
704.664	0.03
704.845	0.14
705.026	0.05
705.208	0.02
705.389	0.06
705.57	0.02
705.751	-0.02
705.933	0.05
706.114	0.09
706.295	0.06
706.476	-0.02
706.657	0.14
706.838	0.03
707.02	0.12
707.201	-0.03
707.382	-0.09
707.563	0.06
707.744	0.07
707.925	-0.06
708.106	-0.01
708.287	0.03
708.468	0.16
708.649	0.01
708.83	0.08
709.011	0
709.192	0.12
709.373	-0.09
709.554	-0.01
709.734	0.02
709.915	0.11
710.096	-0.06
710.277	-0.01
710.458	0.01
710.639	0.06
710.819	-0.1
711	-0.01
711.181	0.16
711.362	0.05
711.542	0.02
711.723	-0.04
711.904	0.07
712.085	0.03
712.265	0.05
712.446	-0
712.627	0.06
712.807	0.04
712.988	0
713.168	-0
713.349	0.09
713.53	-0.01
713.71	0.02
713.891	-0.05
714.071	0.09
714.252	-0.05
714.432	-0.08
714.613	-0.07
714.793	0.05
714.974	0.05
715.154	0.04
715.334	0.1
715.515	0.11
715.695	-0.12
715.876	0.02
716.056	-0.05
716.236	-0.02
716.417	-0.05
716.597	0.03
716.777	0.15
716.957	-0
717.138	-0.04
717.318	0.01
717.498	-0.02
717.678	0.06
717.859	0.03
718.039	-0.06
718.219	0.09
718.399	0.02
718.579	-0.07
718.759	-0.08
718.939	0.02
719.12	0.04
719.3	0.09
719.48	-0.07
719.66	-0.12
719.84	0.13
720.02	0.05
720.2	-0.03
720.38	0.01
720.56	0.16
720.74	0.02
720.92	0.07
721.1	0.15
721.279	0.14
721.459	0.03
721.639	-0.03
721.819	0.03
721.999	-0.02
722.179	0.04
722.359	-0.07
722.538	0.06
722.718	0.04
722.898	0.02
723.078	0.05
723.257	0
723.437	0.06
723.617	-0.03
723.797	-0.03
723.976	0.1
724.156	0.08
724.336	0.16
724.515	0.18
724.695	-0.09
724.874	0.01
725.054	0.02
725.234	0.01
725.413	0.04
725.593	0.03
725.772	0.05
725.952	0.03
726.131	0.02
726.311	0.06
726.49	0.08
726.67	-0
726.849	0.01
727.028	0.05
727.208	0.04
727.387	-0
727.567	-0.04
727.746	-0
727.925	-0.04
728.105	0.03
728.284	-0.08
728.463	-0.08
728.643	0.07
728.822	-0.08
729.001	0.02
729.18	0.02
729.359	0.04
729.539	0.06
729.718	0.08
729.897	0.08
730.076	-0.01
730.255	-0.05
730.434	0
730.614	0.09
730.793	0.17
730.972	-0.01
731.151	0.06
731.33	0.08
731.509	0.1
731.688	0.06
731.867	0.05
732.046	-0.05
732.225	0.23
732.404	-0.02
732.583	-0.09
732.762	0.05
732.941	0.12
733.12	0.06
733.298	-0.02
733.477	0.14
733.656	-0.01
733.835	-0.06
734.014	0.04
734.193	-0.03
734.371	0.1
734.55	0.13
734.729	-0.05
734.908	0.07
735.086	0.18
735.265	0.11
735.444	-0.05
735.623	-0.02
735.801	-0.03
735.98	-0.07
736.159	0.05
736.337	0.12
736.516	0.02
736.694	0.11
736.873	-0.03
737.052	0.25
737.23	0.24
737.409	-0.01
737.587	0.3
737.766	-0.06
737.944	-0.17
738.123	0.11
738.301	0.12
738.479	0
738.658	0.18
738.836	-0.15
739.015	0.06
739.193	0.16
739.371	-0.01
739.55	0.01
739.728	-0.02
739.906	0.13
740.085	0.12
740.263	0.05
740.441	-0.21
740.62	0.2
740.798	0.16
740.976	-0.04
741.154	-0.05
741.332	0.22
741.511	0.05
741.689	0.06
741.867	0.03
742.045	0.18
742.223	0.06
742.401	-0.03
742.579	0.04
742.757	0.13
742.935	-0.13
743.114	-0.08
743.292	0.02
743.47	0.03
743.648	-0.01
743.826	-0.12
744.004	0.12
744.181	0.17
744.359	-0.05
744.537	0.04
744.715	-0.02
744.893	0.18
745.071	0.09
745.249	-0.12
745.427	0.05
745.605	0.15
745.782	0.17
745.96	0.17
746.138	0.06
746.316	0.18
746.493	-0.04
746.671	0.02
746.849	-0.03
747.027	0.15
747.204	0.04
747.382	0.11
747.56	-0.19
747.737	-0.09
747.915	-0.06
748.093	0.07
748.27	-0.09
748.448	0.02
748.625	-0.07
748.803	-0.05
748.98	0.02
749.158	0.16
749.335	0.05
749.513	-0.01
749.69	-0.02
749.868	0.04
750.045	0.08
750.223	0.02
750.4	-0.1
750.578	0.19
750.755	0.07
750.932	-0.05
751.11	0.17
751.287	-0.05
751.464	0.18
751.642	0.08
751.819	0.06
751.996	0.16
752.173	0.05
752.351	-0.12
752.528	0.05
752.705	0.12
752.882	0.01
753.06	0.14
753.237	0.05
753.414	0.32
753.591	0.26
753.768	0.16
753.945	0.01
754.122	-0.02
754.299	0.06
754.476	-0.02
754.654	0.09
754.831	0.06
755.008	0.05
755.185	-0.09
755.362	-0.07
755.539	0.06
755.716	-0.04
755.892	0.04
756.069	0.07
756.246	0.01
756.423	0.06
756.6	0.15
756.777	0.06
756.954	0.1
757.131	-0
757.307	-0.03
757.484	-0.01
757.661	0.01
757.838	0.06
758.015	-0.06
758.191	0.11
758.368	0.01
758.545	0.17
758.721	0.14
758.898	-0.01
759.075	0.11
759.251	0.06
759.428	0.18
759.605	-0.08
759.781	-0.01
759.958	0.16
760.134	0.1
760.311	0.01
760.488	0.22
760.664	0.16
760.841	0.14
761.017	-0.03
761.194	0.1
761.37	0.05
761.547	0.06
761.723	0.01
761.899	0.23
762.076	-0.07
762.252	-0.11
762.429	-0.03
762.605	0.16
762.781	0.06
762.958	0.1
763.134	-0.07
763.31	0.05
763.486	0.26
763.663	-0.23
763.839	0.09
764.015	-0.08
764.191	-0.12
764.368	-0.03
764.544	0.02
764.72	0.17
764.896	0.02
765.072	0.13
765.248	-0.02
765.425	-0.06
765.601	0.04
765.777	0.02
765.953	-0.18
766.129	-0.05
766.305	-0.01
766.481	0.07
766.657	0
766.833	0.31
767.009	-0.01
767.185	-0.04
767.361	0.09
767.537	-0.14
767.713	0.23
767.889	-0.02
768.065	-0.03
768.24	-0.24
768.416	0.2
768.592	-0.1
768.768	0.08
768.944	0.14
769.12	-0.03
769.295	-0.06
769.471	0.06
769.647	0.03
769.823	0.15
769.998	-0.05
770.174	-0.06
770.35	0.44
770.525	0.3
770.701	0.21
770.877	0.13
771.052	-0.08
771.228	0.16
771.403	0.06
771.579	0.04
771.755	0.33
771.93	-0.09
772.106	-0.13
772.281	-0.13
772.457	0.05
772.632	0.02
772.808	-0.17
772.983	0.05
773.159	-0.05
773.334	0.25
773.509	0.09
773.685	-0.15
773.86	0.33
774.036	0.29
774.211	0.15
774.386	0.1
774.562	0.06
774.737	0.08
774.912	-0.04
775.087	0.29
775.263	0.04
775.438	0.02
775.613	-0.08
775.788	0.06
775.964	0.21
776.139	0.4
776.314	-0.22
776.489	0.05
776.664	0.22
776.839	-0.06
777.014	0.16
777.19	0.18
777.365	0.45
777.54	0.33
777.715	0.06
777.89	0.16
778.065	0.04
778.24	0.1
778.415	0.23
778.59	0.01
778.765	0.1
778.94	0.13
779.115	-0.01
779.289	0.03
779.464	-0.15
779.639	-0.04
779.814	-0.3
779.989	0.04
780.164	0.39
780.339	0.03
780.513	-0.04
780.688	-0.07
780.863	0.11
781.038	0.28
781.212	-0.09
781.387	0.08
781.562	0.33
781.737	-0.02
781.911	0.24
782.086	-0.13
782.261	-0.01
782.435	0.26
782.61	-0.02
782.784	0.16
782.959	0.31
783.134	0.01
783.308	-0.06
783.483	0.25
783.657	0.51
783.832	0.27
784.006	-0.38
784.181	0.08
784.355	0.14
784.53	-0.06
784.704	-0.02
784.878	0.26
785.053	0.16
785.227	0.31
785.402	0.44
785.576	-0.15
785.75	0.02
785.925	0.19
786.099	0.07
786.273	0.06
786.448	0.2
786.622	0.39
786.796	0
786.97	0.05
787.145	0.51
787.319	-0.19
787.493	0.06
787.667	-0.38
787.841	0.12
788.015	0.25
788.19	-0.01
788.364	0.09
788.538	0.33
788.712	0.13
788.886	-0.08
789.06	0.04
789.234	0.28
789.408	0.04
789.582	-0.04
789.756	-0.13
789.93	-0.15
790.104	-0.05
790.278	-0.13
790.452	-0.3
790.626	0.27
790.8	-0.1
790.973	0.14
791.147	0.12
791.321	0.26
791.495	0.35
791.669	-0.02
791.843	0.15
792.016	-0
792.19	0.42
792.364	-0.11
792.538	0.47
792.711	0.43
792.885	-0.22
793.059	-0.08
793.233	-0.23
793.406	0.35
793.58	0.04
793.754	0.46
793.927	-0.04
794.101	0.32
794.274	0.1
794.448	0.27
794.622	-0.23
794.795	0.3
794.969	0.16
795.142	0.34
795.316	-0.13
795.489	-0.09
795.663	0.57
795.836	-0.01
796.009	-0.26
796.183	0.38
796.356	0.04
796.53	0.08
796.703	-0.09
796.876	0.9
797.05	0.04
797.223	0.15
797.396	0.23
797.57	0.17
797.743	0.5
797.916	-0.03
798.09	-0.04
798.263	0.37
798.436	0.38
798.609	-0.13
798.782	0.05
798.956	-0.04
799.129	0.24
799.302	0.22
799.475	-0.04
799.648	-0.19
799.821	0.2
799.994	0.14
800.167	-0.26
800.34	-0.12
800.514	0.24
800.687	-0.26
800.86	-0.21
801.033	0.14
801.206	0.27
801.379	-0.19
801.551	0.13
801.724	0.39
801.897	0.45
802.07	0.18
802.243	-0.05
802.416	-0.09
802.589	-0.11
802.762	0.15
802.935	-0.11
803.107	0.25
803.28	0.16
803.453	0.25
803.626	-0.29
803.798	0.18
803.971	-0.35
804.144	0.27
804.317	0.25
804.489	0.34
804.662	-0.18
804.835	-0.01
805.007	-0.11
805.18	0.66
805.353	0.42
805.525	-0
805.698	-0.08
805.87	0.29
806.043	0.72
806.215	-0.16
806.388	-0.45
806.56	0.23
806.733	0.32
806.905	0.1
807.078	-0.05
807.25	-0.24
807.423	0.32
807.595	0.1
807.768	-0.1
807.94	0.55
808.112	0.18
808.285	0.24
808.457	-0.19
808.629	0.19
808.802	0.18
808.974	0.32
809.146	-0.12
809.318	-0.29
809.491	0.12
809.663	0.08
809.835	0.12
810.007	0.22
810.18	0.18
810.352	-0.08
810.524	0.06
810.696	0.31
810.868	0.61
811.04	0.12
811.212	-0.34
811.384	0.39
811.556	0.23
811.728	0.1
811.901	0.71
812.073	0.21
812.245	0.12
812.417	0.33
812.589	-0.6
812.76	0.23
812.932	0.52
813.104	0.43
813.276	-0.19
813.448	0.56
813.62	0.39
813.792	0.46
813.964	0.19
814.136	0.39
814.307	0.23
814.479	-0.17
814.651	-0.29
814.823	1.04
814.995	0.05
815.166	0.57
815.338	-0.3
815.51	-0.66
815.681	0.95
815.853	0.4
816.025	-0.01
816.196	0.58
816.368	0.48
816.54	-0.3
816.711	-0.36
816.883	0.35
817.054	0.83
817.226	-0.33
817.398	0.13
817.569	-0.22
817.741	0.27
817.912	0.07
818.084	-0.15
818.255	0.58
818.426	-0.31
818.598	-0.07
818.769	-0.06
818.941	0.19
819.112	0.51
819.283	0.43
819.455	-0.08
819.626	0.21
819.798	0.41
819.969	0.46
820.14	0.03
820.311	0.03
820.483	0.09
820.654	0.28
820.825	0.2
820.996	-0.13
821.168	-0.3
821.339	-0.27
821.51	-0.41
821.681	-0.22
821.852	0.05
822.023	-0.49
822.195	-0.52
822.366	0.69
822.537	0.32
822.708	0.22
822.879	-0.3
823.05	0.89
823.221	-0.16
823.392	0.27
823.563	0.35
823.734	0.21
823.905	0.06
824.076	-0.2
824.247	-0.39
824.418	0.08
824.589	0.9
824.759	-0.1
824.93	0.38
825.101	-0.39
825.272	0.57
825.443	0.8
825.614	0.48
825.784	-1.06
825.955	0.91
826.126	0.71
826.297	0.06
826.467	0.79
826.638	0.53
826.809	-1.05
826.98	-0.12
827.15	0.66
827.321	0.02
827.492	0.46
827.662	0.35
827.833	1.5
828.003	0.4
828.174	-0.47
828.345	-0.76
828.515	0.84
828.686	0.21
828.856	0.15
829.027	0.05
829.197	0.47
829.368	0.42
829.538	-0.57
829.709	-0.41
829.879	0.11
830.049	0.66
830.22	-0.6
830.39	-0.29
830.56	1.32
830.731	-0.12
830.901	-0.08
831.072	0.09
831.242	0.87
831.412	0.58
831.582	0.34
831.753	-0.18
831.923	0.46
832.093	0.49
832.263	-0.27
832.434	-0.34
832.604	0.17
832.774	0.64
832.944	-0.05
833.114	-0.21
833.284	0.67
833.454	-0.49
833.624	0.08
833.795	0.11
833.965	0.91
834.135	1.26
834.305	-0.54
834.475	-0.41
834.645	0.15
834.815	-0.27
834.985	-0.44
835.155	-0.58
835.325	0.87
835.494	0.31
835.664	0.08
835.834	0.1
836.004	0.44
836.174	0.62
836.344	0.22
836.514	-0.33
836.684	-0.2
836.853	0.16
837.023	0.31
837.193	0.18
837.363	1.09
837.532	0.27
837.702	0.02
837.872	-0.62
838.041	1.04
838.211	1.26
838.381	-0.86
838.55	0.14
838.72	2.17
838.89	1.12
839.059	0.09
839.229	-0.8
839.398	1.47
839.568	0.36
839.738	0.23
839.907	1.37
840.077	0.24
840.246	-0.09
840.416	-0.78
840.585	-0.78
840.755	1.07
840.924	1.29
841.093	-0.76
841.263	0.19
841.432	0.32
841.602	-0.34
841.771	-0.52
841.94	0.26
842.11	2.12
842.279	1.73
842.448	-0.92
842.617	-0.39
842.787	1.16
842.956	-0.9
843.125	0.35
843.294	0.71
843.464	1.1
843.633	0.39
843.802	-0.6
843.971	-0.16
844.14	0.33
844.309	0.86
844.479	-0.82
844.648	-0.26
844.817	-0
844.986	0.47
845.155	0.07
845.324	0.05
845.493	-0.15
845.662	-0.37
845.831	0.59
846	0.54
846.169	0.8
846.338	1.41
846.507	0.12
846.676	0.66
846.844	-0.19
847.013	1
847.182	-0.02
847.351	-0.47
847.52	0.96
847.689	0.79
847.858	-0.07
848.026	-1.2
848.195	0.22
848.364	-0.36
848.533	-0.5
848.701	-0.62
848.87	0.44
849.039	0.97
849.207	0.06
849.376	1.77
849.545	1.22
849.713	0.04
849.882	0.19
850.051	0.14
850.219	0.8
850.388	1.32
850.556	0.05
850.725	-0.09
850.893	0.48
851.062	-0.27
851.23	2.09
851.399	-1.55
851.567	0.51
851.736	-0.25
851.904	0.12
852.073	0.52
852.241	1.79
852.41	-0.76
852.578	-0.24
852.746	-0.16
852.915	0.97
853.083	0.64
853.251	-0.81
853.42	-0.2
853.588	0.54
853.756	1.37
853.924	0.16
854.093	-0.25
854.261	-1.51
854.429	-1.75
854.597	0.64
854.765	-0.93
854.934	1.3
855.102	0.18
855.27	-0.17
855.438	1.02
855.606	1.38
855.774	1.46
855.942	-1.14
856.11	-1.32
856.278	0.5
856.446	1.42
856.614	-0.06
856.782	-0.69
856.95	1.49
857.118	1.26
857.286	1.02
857.454	-0.62
857.622	0.85
857.79	0.15
857.958	-0.38
858.126	0.28
858.294	-1.8
858.462	0.72
858.629	-0.3
858.797	-0.65
858.965	1.01
859.133	0.74
859.301	0.33
859.468	0.51
859.636	0.93
859.804	1.87
859.971	0.99
860.139	-0.87
860.307	2.24
860.474	-0.27
860.642	-1.33
860.81	0.9
860.977	1.15
861.145	1.77
861.313	0.19
861.48	-0.23
861.648	0.96
861.815	0.53
861.983	-0.71
862.15	0.29
862.318	-0.36
862.485	2.41
862.653	-1.3
862.82	-0.61
862.988	2.35
863.155	1.03
863.322	0.35
863.49	-1.66
863.657	0.08
863.824	1.84
863.992	0.88
864.159	0.15
864.326	1.88
864.494	0.35
864.661	3.78
864.828	-0.53
864.996	1.25
865.163	3.15
865.33	-0.64
865.497	-1.31
865.664	0.41
865.832	0.33
865.999	0.8
866.166	-1.11
866.333	0.67
866.5	-0.44
866.667	0.48
866.834	0.43
867.001	2.04
867.168	-2.15
867.335	0.32
867.502	-1.32
867.669	0.51
867.836	4.06
868.003	-0.4
868.17	2.06
868.337	3.2
868.504	1.67
868.671	-1.26
868.838	0.71
869.005	0.18
869.172	1.65
869.339	0.4
869.505	-0.59
869.672	0.86
869.839	2.78
870.006	-0.08
870.173	-1.31
870.339	0.75
870.506	3.33
870.673	-1.16
870.84	1.02
871.006	1.29
871.173	-0.85
871.34	-0.39
871.506	-2.43
871.673	0.82
871.839	-0.22
872.006	0.96
872.173	-0.15
872.339	-0.75
872.506	1.75
872.672	0.99
872.839	-0.11
873.005	1.56
873.172	3.16
873.338	2.36
873.505	0.36
873.671	-0.19
873.838	0.59
874.004	-1.57
874.171	-0.6
874.337	1.21
874.503	0.65
874.67	-0.66
874.836	0.01
875.002	2.31
875.169	2.15
875.335	1.41
875.501	0.13
875.668	0.82
875.834	0.19
876	-0.49
876.166	1.32
876.332	1.11
876.499	4.18
876.665	-0.28
876.831	0.05
876.997	4.33
877.163	2.58
877.329	0.4
877.495	0.21
877.662	1.07
877.828	1.48
877.994	1.56
878.16	-2.13
878.326	-1.41
878.492	0.94
878.658	-1.4
878.824	1.35
878.99	1.28
879.156	0.16
879.322	2.08
879.487	-0.06
879.653	1.15
879.819	1.07
879.985	-0.94
880.151	1.34
880.317	0.78
880.483	1.75
880.648	1.86
880.814	-1.14
880.98	0.33
881.146	-1.88
881.312	-0.96
881.477	-0.04
881.643	-0.76
881.809	2.5
881.974	3
882.14	-1.53
882.306	0.35
882.471	3.16
882.637	0.58
882.803	2.37
882.968	2.13
883.134	4.95
883.299	0.22
883.465	1.92
883.63	1.64
883.796	0.8
883.961	1.26
884.127	-0.14
884.292	-2.59
884.458	-1.3
884.623	-1.3
