Data from Apollo_Calib_20240827__AbsoluteIrradiance__423__06-12-02-198.txt Node

Date: Wed Aug 28 06:12:02 BST 2024
User: biology
Spectrometer: FLMT08252
Trigger mode: 0
Integration Time (sec): 5.000000E-1
Scans to average: 5
Electric dark correction enabled: true
Nonlinearity correction enabled: false
Boxcar width: 0
XAxis mode: Wavelengths
Number of Pixels in Spectrum: 3648
>>>>>Begin Spectral Data<<<<<
179.588	-0
179.809	-0
180.03	-0
180.251	-0
180.473	-0
180.694	0
180.915	0
181.136	-0
181.357	0
181.578	-0
181.799	-0
182.02	0
182.241	-0
182.462	-0
182.683	0
182.904	-0
183.125	-0
183.346	0
183.567	0
183.788	0
184.009	0
184.23	0
184.451	0
184.672	0
184.892	0
185.113	0
185.334	0
185.555	0
185.776	0
185.996	0
186.217	0
186.438	0
186.659	0
186.879	0
187.1	0
187.321	0
187.541	0
187.762	0
187.983	0
188.203	0
188.424	0
188.644	0
188.865	0
189.086	0
189.306	0
189.527	0
189.747	0
189.968	0
190.188	0
190.409	0
190.629	0
190.849	0
191.07	0
191.29	0
191.511	0
191.731	0
191.951	0
192.172	0
192.392	0
192.612	0
192.833	0
193.053	0
193.273	0
193.493	0
193.714	0
193.934	0
194.154	0
194.374	0
194.594	0
194.815	0
195.035	0
195.255	0
195.475	0
195.695	0
195.915	0
196.135	0
196.355	0
196.575	0
196.795	0
197.015	-0
197.235	0
197.455	0
197.675	0
197.895	0
198.115	0
198.335	0
198.555	0
198.775	0
198.995	0
199.214	0
199.434	0
199.654	0
199.874	0
200.094	1.37
200.313	0.18
200.533	0.36
200.753	0.31
200.973	1.15
201.192	1.26
201.412	0.07
201.632	0.31
201.851	1.54
202.071	0.37
202.291	0.59
202.51	0.03
202.73	0.97
202.95	0.6
203.169	0.55
203.389	0.14
203.608	0.53
203.828	0.17
204.047	0.4
204.267	0.67
204.486	0.48
204.706	0.69
204.925	0.69
205.145	0.23
205.364	0.99
205.583	1.06
205.803	0.48
206.022	0.19
206.242	0.38
206.461	0.9
206.68	0.15
206.9	0.48
207.119	1.25
207.338	0.99
207.557	0.38
207.777	0.39
207.996	0.28
208.215	0.98
208.434	0.19
208.654	0.1
208.873	0.61
209.092	0.89
209.311	0.13
209.53	0.65
209.749	0.31
209.968	0.31
210.187	0.22
210.407	-0
210.626	0.26
210.845	0.73
211.064	0.28
211.283	-0.11
211.502	0.56
211.721	0.06
211.94	0.19
212.159	0.63
212.377	0.69
212.596	0.95
212.815	0.44
213.034	0.46
213.253	0.47
213.472	0.69
213.691	0.22
213.91	0.25
214.128	0.29
214.347	0.61
214.566	-0.04
214.785	0.02
215.003	0.39
215.222	0.26
215.441	0.22
215.66	-0
215.878	0.46
216.097	0.63
216.316	0.2
216.534	0.28
216.753	0.39
216.972	0.34
217.19	0.28
217.409	0.11
217.627	0.18
217.846	0.33
218.064	0.26
218.283	0
218.501	0.54
218.72	0.44
218.938	-0.03
219.157	0.26
219.375	0.38
219.594	0.36
219.812	0.01
220.031	0.07
220.249	0.51
220.467	0.43
220.686	0.29
220.904	0.07
221.122	0.28
221.341	0.39
221.559	0.21
221.777	0.09
221.995	0.35
222.214	0.26
222.432	-0
222.65	0.32
222.868	0.33
223.086	0.23
223.305	0.29
223.523	0.25
223.741	0.42
223.959	0.17
224.177	-0.05
224.395	0.15
224.613	0.27
224.831	0.49
225.049	0.08
225.267	0.12
225.485	0.24
225.703	0.09
225.921	0.34
226.139	0.24
226.357	0.35
226.575	0.23
226.793	0.04
227.011	0.82
227.229	0.34
227.447	0.2
227.665	0.21
227.883	0.09
228.1	0.24
228.318	0.31
228.536	-0.03
228.754	0.01
228.972	0.24
229.189	0.34
229.407	0.1
229.625	0.24
229.843	0.29
230.06	0.27
230.278	0.16
230.496	0.08
230.713	0.3
230.931	0.34
231.149	0.07
231.366	0.03
231.584	0.22
231.801	0.55
232.019	0.16
232.236	0.01
232.454	0.09
232.671	0.29
232.889	0.17
233.106	0.1
233.324	0.19
233.541	0.11
233.759	0.14
233.976	0.08
234.194	0.3
234.411	0.24
234.628	0.05
234.846	0.13
235.063	0.15
235.28	0.2
235.498	0.25
235.715	-0.09
235.932	0.34
236.149	0.17
236.367	0.09
236.584	0.2
236.801	0.16
237.018	0.28
237.236	0.14
237.453	0.09
237.67	0.37
237.887	0.15
238.104	0.11
238.321	0.04
238.538	0.12
238.755	0.31
238.973	0.02
239.19	0.18
239.407	0.2
239.624	0.22
239.841	0.07
240.058	-0.01
240.275	0.14
240.492	0.14
240.709	0.13
240.925	0.09
241.142	0.17
241.359	0.09
241.576	0.16
241.793	0.1
242.01	0.09
242.227	0.24
242.444	0.27
242.66	0.31
242.877	0.16
243.094	0.1
243.311	0.18
243.527	0.13
243.744	0.18
243.961	0.23
244.178	-0.03
244.394	0.17
244.611	0.28
244.828	0.22
245.044	0.02
245.261	0.13
245.477	0.19
245.694	0.26
245.911	0.1
246.127	0.15
246.344	0.29
246.56	0.23
246.777	0.13
246.993	0.1
247.21	0.23
247.426	0.14
247.643	0.1
247.859	0.08
248.076	0.2
248.292	0.41
248.508	0.08
248.725	0.21
248.941	0.16
249.157	0.25
249.374	0.1
249.59	0.18
249.806	0.16
250.023	0.24
250.239	0.02
250.455	0.08
250.671	0.07
250.888	0.19
251.104	0.12
251.32	0.07
251.536	0.07
251.752	0.08
251.969	0.18
252.185	0.13
252.401	0.34
252.617	0.17
252.833	0.07
253.049	0.18
253.265	0.13
253.481	0.16
253.697	0.1
253.913	0.06
254.129	0.17
254.345	0.16
254.561	0.07
254.777	0.17
254.993	0.2
255.209	0.09
255.425	0.15
255.641	0.01
255.857	0.25
256.073	0.09
256.288	0.01
256.504	0.02
256.72	0.16
256.936	0.18
257.152	0.15
257.367	0.09
257.583	0.14
257.799	0.17
258.015	0.08
258.23	0.11
258.446	0.18
258.662	0.14
258.877	0.02
259.093	0.07
259.309	0.17
259.524	0.17
259.74	0.06
259.955	-0.01
260.171	0.06
260.387	0.11
260.602	0.15
260.818	0.14
261.033	0.07
261.249	0.11
261.464	0.12
261.68	0.04
261.895	0.15
262.11	0.15
262.326	0.1
262.541	-0.01
262.757	0.16
262.972	0.11
263.187	0.15
263.403	0.1
263.618	0.19
263.833	0.08
264.049	0.01
264.264	0.15
264.479	0.18
264.694	0.2
264.91	0.02
265.125	0.05
265.34	0.12
265.555	0.25
265.77	0.18
265.986	0.12
266.201	0.18
266.416	0.19
266.631	0.06
266.846	0.11
267.061	0.16
267.276	0.2
267.491	-0.01
267.706	0.09
267.921	0.16
268.136	0.17
268.351	0.14
268.566	0
268.781	0.24
268.996	0.18
269.211	0.16
269.426	0.08
269.641	0.08
269.856	0.18
270.071	0.07
270.285	0.04
270.5	0.15
270.715	0.16
270.93	0.1
271.145	0.09
271.359	0.14
271.574	0.06
271.789	0.12
272.004	0.06
272.218	0.14
272.433	0.14
272.648	0.11
272.862	0.16
273.077	0.11
273.292	0.09
273.506	0.09
273.721	0.09
273.936	0.12
274.15	0.17
274.365	0.1
274.579	0.2
274.794	0.16
275.008	0.17
275.223	-0.03
275.437	0.12
275.652	0.21
275.866	0.14
276.081	0.06
276.295	0.13
276.509	0.1
276.724	0.11
276.938	0.15
277.153	0.18
277.367	0.15
277.581	0.07
277.796	0.06
278.01	0.06
278.224	0.16
278.438	0.23
278.653	0.07
278.867	0.11
279.081	-0.09
279.295	0.04
279.51	0.12
279.724	-0.03
279.938	0.15
280.152	0.07
280.366	0.06
280.58	0.09
280.794	0.25
281.008	0.2
281.222	0.11
281.437	0.17
281.651	0.12
281.865	0.16
282.079	0.06
282.293	-0.01
282.507	0.02
282.721	0.09
282.935	0.12
283.148	-0.05
283.362	0.08
283.576	0.07
283.79	0.08
284.004	0.02
284.218	0.18
284.432	0.05
284.646	0.11
284.859	0.03
285.073	0.14
285.287	0.12
285.501	0.09
285.714	0.08
285.928	0.12
286.142	0.14
286.356	0.05
286.569	0.09
286.783	0.22
286.997	0.12
287.21	0.06
287.424	0.1
287.637	0.08
287.851	0.09
288.065	0.14
288.278	0.09
288.492	0.13
288.705	0.09
288.919	0.11
289.132	0.03
289.346	0.16
289.559	0.02
289.773	0.04
289.986	0.1
290.2	0.09
290.413	0.18
290.626	0.05
290.84	0.09
291.053	0.09
291.267	0.14
291.48	0.1
291.693	0.09
291.906	0.07
292.12	0.06
292.333	0.07
292.546	0.1
292.76	0.14
292.973	0.12
293.186	0.13
293.399	0.08
293.612	0.13
293.826	0.13
294.039	0.07
294.252	0.07
294.465	0.16
294.678	0.11
294.891	0.12
295.104	0.06
295.317	0.12
295.53	0.14
295.743	0.06
295.956	0.08
296.169	0.16
296.382	0.14
296.595	0.11
296.808	0.07
297.021	0.17
297.234	0.15
297.447	0.09
297.66	0.15
297.873	0.18
298.086	0.13
298.299	0.06
298.511	0.04
298.724	0.1
298.937	0.07
299.15	0.08
299.363	0.08
299.575	0.11
299.788	0.13
300.001	0.03
300.213	0.07
300.426	0.08
300.639	0.09
300.852	0.06
301.064	0.11
301.277	0.14
301.489	0.12
301.702	0.07
301.915	0.1
302.127	0.07
302.34	0.08
302.552	0.12
302.765	0.04
302.977	0.11
303.19	0.08
303.402	0.03
303.615	0.05
303.827	0.02
304.04	0.07
304.252	0.15
304.464	0.07
304.677	0.23
304.889	0.13
305.102	0.06
305.314	0.08
305.526	0.1
305.739	0.14
305.951	0.06
306.163	0.07
306.375	0.16
306.588	0.06
306.8	0.05
307.012	0.02
307.224	0.11
307.436	0.14
307.649	0.01
307.861	0.08
308.073	0.11
308.285	0.07
308.497	-0
308.709	0.11
308.921	0.07
309.133	0.15
309.346	0.11
309.558	0.06
309.77	0.15
309.982	0.13
310.194	0.12
310.406	0.05
310.617	0.16
310.829	0.07
311.041	0.11
311.253	0.06
311.465	0.06
311.677	0.09
311.889	0.05
312.101	0.01
312.313	0.15
312.524	0.16
312.736	0.05
312.948	0.05
313.16	0.17
313.372	0.12
313.583	0.09
313.795	0.11
314.007	0.08
314.218	0.12
314.43	0.08
314.642	0.06
314.853	0.03
315.065	0.13
315.277	0.06
315.488	0.07
315.7	0.12
315.912	0.1
316.123	0.11
316.335	0.06
316.546	0.14
316.758	0.13
316.969	0.04
317.181	0.07
317.392	0.07
317.604	0.15
317.815	0.03
318.026	0.05
318.238	0.07
318.449	0.12
318.661	0
318.872	-0
319.083	0.07
319.295	0.12
319.506	0.06
319.717	0.07
319.929	0.14
320.14	0.08
320.351	0.08
320.562	0.04
320.774	0.08
320.985	0.04
321.196	0.06
321.407	0.05
321.618	0.11
321.829	0.11
322.041	0.13
322.252	0.06
322.463	0.12
322.674	0.1
322.885	0.05
323.096	0.07
323.307	0.09
323.518	0.08
323.729	0.03
323.94	0.04
324.151	0.07
324.362	0.09
324.573	0.11
324.784	0.05
324.995	0.12
325.206	0.11
325.417	0.05
325.628	0.04
325.838	0.06
326.049	0.08
326.26	0.12
326.471	0.09
326.682	0.07
326.892	0.06
327.103	0.02
327.314	-0.01
327.525	0.13
327.735	0.06
327.946	0.08
328.157	0.04
328.368	0.08
328.578	0.1
328.789	0.14
328.999	0.11
329.21	0.08
329.421	0.12
329.631	0.05
329.842	0.06
330.052	0.08
330.263	0.11
330.473	0.13
330.684	0.1
330.894	0.07
331.105	0.07
331.315	0.07
331.526	0.04
331.736	0.16
331.947	0.1
332.157	0.1
332.367	0.03
332.578	0.08
332.788	0.14
332.999	0.1
333.209	0.09
333.419	0.04
333.629	0.11
333.84	0.11
334.05	0.05
334.26	0.13
334.47	0.1
334.681	0.14
334.891	0.04
335.101	0.11
335.311	0.17
335.521	0.07
335.732	0.06
335.942	0.12
336.152	0.1
336.362	0.09
336.572	0.09
336.782	0.1
336.992	0.07
337.202	0.07
337.412	0.06
337.622	0.12
337.832	0.08
338.042	0.06
338.252	0.05
338.462	0.09
338.672	0.09
338.882	0.03
339.092	0.05
339.302	0.15
339.511	0.11
339.721	0.05
339.931	0.1
340.141	0.1
340.351	0.13
340.561	0.1
340.77	0.09
340.98	0.1
341.19	0.13
341.4	0.02
341.609	0.05
341.819	0.1
342.029	0.05
342.238	0.11
342.448	0.05
342.658	0.1
342.867	0.07
343.077	0.04
343.286	0.07
343.496	0.1
343.706	0.15
343.915	0.02
344.125	0.13
344.334	0.13
344.544	-0.02
344.753	0.06
344.963	0.07
345.172	0.02
345.381	0.05
345.591	0.05
345.8	0.12
346.01	0.14
346.219	0.12
346.428	-0.04
346.638	0.08
346.847	0.09
347.056	0.17
347.266	0.05
347.475	0.06
347.684	0.13
347.893	0.11
348.103	0.06
348.312	0.08
348.521	0.07
348.73	0.06
348.94	0.09
349.149	0.06
349.358	0.07
349.567	0.1
349.776	0.05
349.985	0.07
350.194	0.09
350.403	0.11
350.612	0.03
350.821	0.07
351.03	0.09
351.239	0.04
351.448	0.08
351.657	0.08
351.866	0.16
352.075	0.07
352.284	0.09
352.493	0.04
352.702	0.09
352.911	0.1
353.12	0.1
353.329	0.03
353.538	0.13
353.746	0.07
353.955	0.06
354.164	0.11
354.373	0.08
354.582	0.08
354.79	0.09
354.999	0.07
355.208	0.08
355.416	0.14
355.625	0.04
355.834	0.05
356.042	0.09
356.251	0.07
356.46	0.08
356.668	0.11
356.877	0.2
357.085	0.11
357.294	0.03
357.503	0.14
357.711	0.05
357.92	0.2
358.128	0.1
358.337	0.07
358.545	0.07
358.754	0.07
358.962	0.1
359.17	0.05
359.379	0.07
359.587	0.11
359.796	0.07
360.004	0.13
360.212	0.12
360.421	0.13
360.629	0.07
360.837	0.05
361.046	0.1
361.254	0.15
361.462	0.1
361.67	0.07
361.879	0.13
362.087	0.15
362.295	0.06
362.503	0.05
362.711	0.04
362.92	0.07
363.128	0.05
363.336	0.03
363.544	0.02
363.752	0.07
363.96	0.07
364.168	0.06
364.376	0.08
364.584	0.12
364.792	0.11
365	0.11
365.208	0.08
365.416	0.12
365.624	0.1
365.832	0.08
366.04	0.14
366.248	0.1
366.456	0.12
366.664	0.11
366.872	0.07
367.079	0.05
367.287	0.11
367.495	0.08
367.703	0.06
367.911	0.04
368.118	0.08
368.326	0.07
368.534	0.04
368.742	0.14
368.949	0.06
369.157	0.03
369.365	0.11
369.572	0.08
369.78	0.04
369.988	0.13
370.195	0.11
370.403	0.12
370.61	0.03
370.818	0.09
371.026	0.12
371.233	0.03
371.441	0.06
371.648	0.06
371.856	0.1
372.063	0.08
372.271	0.07
372.478	0
372.685	0.06
372.893	0.13
373.1	0.07
373.308	0.06
373.515	0.16
373.722	0.13
373.93	0.07
374.137	0.11
374.344	0.15
374.552	0.11
374.759	0.12
374.966	0.1
375.173	0.07
375.381	0.11
375.588	0.1
375.795	0.01
376.002	0.07
376.209	0.05
376.417	0.06
376.624	0.08
376.831	0.08
377.038	0.13
377.245	0.01
377.452	0.07
377.659	0.11
377.866	0.05
378.073	0.1
378.28	0.12
378.487	0.12
378.694	0.12
378.901	0.08
379.108	0.09
379.315	0.11
379.522	0.15
379.729	0.1
379.936	0.06
380.143	0.08
380.35	0.09
380.557	0.07
380.763	0.08
380.97	0.11
381.177	0.09
381.384	0.11
381.591	0.07
381.797	0.08
382.004	0.11
382.211	0.12
382.418	0.1
382.624	0.12
382.831	0.15
383.038	0.1
383.244	0.08
383.451	0.07
383.658	0.14
383.864	0.05
384.071	0.07
384.277	0.13
384.484	0.06
384.69	0.12
384.897	0.05
385.103	0.08
385.31	0.07
385.516	0.05
385.723	0.04
385.929	0.07
386.136	0.05
386.342	0.11
386.549	0.08
386.755	0.13
386.961	0.08
387.168	0.09
387.374	0.11
387.58	0.1
387.787	0.12
387.993	0.13
388.199	0.1
388.406	0.09
388.612	0.1
388.818	0.07
389.024	0.06
389.231	0.09
389.437	0.15
389.643	0.1
389.849	0.04
390.055	0.1
390.261	0.08
390.467	0.12
390.674	0.11
390.88	0.08
391.086	0.12
391.292	0.06
391.498	0.13
391.704	0.12
391.91	0.07
392.116	0.07
392.322	-0
392.528	0.15
392.734	0.07
392.94	0.08
393.146	0.07
393.352	0.11
393.557	0.03
393.763	0.08
393.969	0.14
394.175	0.11
394.381	0.12
394.587	0.06
394.792	0.09
394.998	0.11
395.204	0.13
395.41	0.07
395.615	0.12
395.821	0.1
396.027	0.12
396.233	0.05
396.438	0.13
396.644	0.17
396.85	0.11
397.055	0.1
397.261	0.11
397.466	0.2
397.672	0.1
397.878	0.13
398.083	0.12
398.289	0.09
398.494	0.15
398.7	0.11
398.905	0.06
399.111	0.15
399.316	0.06
399.522	0.04
399.727	0.11
399.932	0.11
400.138	0.08
400.343	0.11
400.549	0.12
400.754	0.11
400.959	0.13
401.165	0.12
401.37	0.1
401.575	0.08
401.78	0.12
401.986	0.11
402.191	0.04
402.396	0.08
402.601	0.13
402.807	0.1
403.012	0.14
403.217	0.15
403.422	0.16
403.627	0.08
403.832	0.07
404.037	0.19
404.243	0.12
404.448	0.06
404.653	0.08
404.858	0.13
405.063	0.11
405.268	0.11
405.473	0.04
405.678	0.09
405.883	0.26
406.088	0.16
406.293	0.08
406.498	0.11
406.703	0.16
406.907	0.08
407.112	0.06
407.317	0.11
407.522	0.16
407.727	0.07
407.932	0.13
408.136	0.21
408.341	0.14
408.546	0.12
408.751	0.16
408.956	0.09
409.16	0.16
409.365	0.16
409.57	0.12
409.774	0.1
409.979	0.17
410.184	0.11
410.388	0.08
410.593	0.13
410.798	0.14
411.002	0.07
411.207	0.14
411.411	0.11
411.616	0.04
411.82	0.1
412.025	0.16
412.229	0.08
412.434	0.17
412.638	0.15
412.843	0.06
413.047	0.18
413.252	0.09
413.456	0.1
413.66	0.16
413.865	0.04
414.069	0.19
414.273	0.08
414.478	0.07
414.682	0.07
414.886	0.11
415.091	0.06
415.295	0.04
415.499	0.19
415.703	0.1
415.908	0.15
416.112	0.06
416.316	0.2
416.52	0.13
416.724	0.11
416.929	0.07
417.133	0.21
417.337	0.1
417.541	0.11
417.745	0.11
417.949	0.21
418.153	0.11
418.357	0.08
418.561	0.21
418.765	0.1
418.969	0.21
419.173	0.15
419.377	0.13
419.581	0.21
419.785	0.1
419.989	0.11
420.193	0.11
420.397	0.12
420.601	0.17
420.804	0.16
421.008	0.13
421.212	0.17
421.416	0.17
421.62	0.11
421.823	0.13
422.027	0.21
422.231	0.17
422.435	0.11
422.638	0.1
422.842	0.15
423.046	0.09
423.249	0.16
423.453	0.18
423.657	0.17
423.86	0.14
424.064	0.12
424.268	0.21
424.471	0.14
424.675	0.2
424.878	0.18
425.082	0.11
425.285	0.21
425.489	0.16
425.692	0.12
425.896	0.14
426.099	0.16
426.303	0.16
426.506	0.09
426.71	0.16
426.913	0.18
427.116	0.17
427.32	0.14
427.523	0.16
427.726	0.22
427.93	0.11
428.133	0.17
428.336	0.11
428.54	0.13
428.743	0.21
428.946	0.22
429.149	0.1
429.353	0.14
429.556	0.15
429.759	0.14
429.962	0.13
430.165	0.14
430.368	0.15
430.571	0.15
430.775	0.16
430.978	0.1
431.181	0.15
431.384	0.14
431.587	0.09
431.79	0.09
431.993	0.08
432.196	0.11
432.399	0.19
432.602	0.2
432.805	0.13
433.008	0.13
433.211	0.09
433.414	0.19
433.616	0.12
433.819	0.11
434.022	0.09
434.225	0.21
434.428	0.17
434.631	0.27
434.833	0.13
435.036	0.14
435.239	0.17
435.442	0.19
435.645	0.13
435.847	0.23
436.05	0.2
436.253	0.15
436.455	0.15
436.658	0.17
436.861	0.21
437.063	0.12
437.266	0.16
437.468	0.17
437.671	0.25
437.874	0.18
438.076	0.09
438.279	0.09
438.481	0.16
438.684	0.08
438.886	0.2
439.089	0.06
439.291	0.21
439.494	0.23
439.696	0.1
439.899	0.18
440.101	0.2
440.303	0.09
440.506	0.2
440.708	0.15
440.91	0.25
441.113	0.12
441.315	0.23
441.517	0.13
441.72	0.2
441.922	0.13
442.124	0.16
442.326	0.18
442.529	0.23
442.731	0.14
442.933	0.2
443.135	0.17
443.337	0.12
443.539	0.11
443.742	0.1
443.944	0.18
444.146	0.17
444.348	0.11
444.55	0.15
444.752	0.13
444.954	0.11
445.156	0.17
445.358	0.14
445.56	0.22
445.762	0.15
445.964	0.18
446.166	0.14
446.368	0.1
446.57	0.22
446.772	0.17
446.974	0.13
447.175	0.19
447.377	0.18
447.579	0.1
447.781	0.1
447.983	0.23
448.184	0.17
448.386	0.17
448.588	0.08
448.79	0.16
448.991	0.16
449.193	0.18
449.395	0.19
449.597	0.25
449.798	0.16
450	0.21
450.202	0.17
450.403	0.17
450.605	0.18
450.806	0.15
451.008	0.08
451.21	0.14
451.411	0.17
451.613	0.16
451.814	0.18
452.016	0.21
452.217	0.2
452.419	0.28
452.62	0.17
452.821	0.21
453.023	0.23
453.224	0.23
453.426	0.17
453.627	0.18
453.828	0.23
454.03	0.18
454.231	0.19
454.432	0.13
454.634	0.26
454.835	0.12
455.036	0.15
455.238	0.22
455.439	0.28
455.64	0.14
455.841	0.19
456.042	0.33
456.244	0.22
456.445	0.15
456.646	0.13
456.847	0.14
457.048	0.21
457.249	0.28
457.45	0.4
457.651	0.16
457.852	0.23
458.054	0.22
458.255	0.24
458.456	0.27
458.657	0.22
458.858	0.14
459.058	0.24
459.259	0.22
459.46	0.16
459.661	0.15
459.862	0.34
460.063	0.15
460.264	0.28
460.465	0.17
460.666	0.32
460.866	0.2
461.067	0.18
461.268	0.22
461.469	0.19
461.67	0.23
461.87	0.19
462.071	0.2
462.272	0.17
462.473	0.24
462.673	0.28
462.874	0.2
463.075	0.25
463.275	0.21
463.476	0.29
463.676	0.26
463.877	0.21
464.078	0.19
464.278	0.29
464.479	0.21
464.679	0.26
464.88	0.25
465.08	0.35
465.281	0.22
465.481	0.23
465.682	0.21
465.882	0.29
466.083	0.27
466.283	0.23
466.483	0.26
466.684	0.22
466.884	0.24
467.085	0.21
467.285	0.32
467.485	0.24
467.686	0.29
467.886	0.22
468.086	0.27
468.286	0.27
468.487	0.3
468.687	0.23
468.887	0.24
469.087	0.35
469.287	0.28
469.488	0.22
469.688	0.29
469.888	0.35
470.088	0.28
470.288	0.33
470.488	0.37
470.688	0.26
470.888	0.28
471.088	0.26
471.288	0.4
471.488	0.36
471.688	0.34
471.888	0.28
472.088	0.43
472.288	0.37
472.488	0.31
472.688	0.32
472.888	0.36
473.088	0.34
473.288	0.38
473.488	0.37
473.688	0.48
473.887	0.37
474.087	0.39
474.287	0.39
474.487	0.37
474.687	0.44
474.886	0.4
475.086	0.4
475.286	0.43
475.486	0.42
475.685	0.43
475.885	0.41
476.085	0.48
476.284	0.47
476.484	0.47
476.684	0.48
476.883	0.53
477.083	0.5
477.282	0.48
477.482	0.51
477.681	0.5
477.881	0.52
478.08	0.49
478.28	0.52
478.479	0.53
478.679	0.58
478.878	0.5
479.078	0.55
479.277	0.57
479.477	0.55
479.676	0.64
479.875	0.58
480.075	0.55
480.274	0.64
480.473	0.68
480.673	0.61
480.872	0.72
481.071	0.69
481.271	0.73
481.47	0.67
481.669	0.69
481.868	0.69
482.067	0.7
482.267	0.68
482.466	0.72
482.665	0.71
482.864	0.72
483.063	0.76
483.262	0.82
483.461	0.85
483.661	0.88
483.86	0.86
484.059	0.9
484.258	0.88
484.457	0.94
484.656	0.93
484.855	0.98
485.054	0.89
485.253	0.94
485.452	0.95
485.651	1.02
485.849	1.01
486.048	1.04
486.247	1.04
486.446	1.11
486.645	1.08
486.844	1.12
487.043	1.12
487.241	1.24
487.44	1.2
487.639	1.26
487.838	1.29
488.037	1.24
488.235	1.36
488.434	1.33
488.633	1.31
488.831	1.45
489.03	1.42
489.229	1.46
489.427	1.44
489.626	1.52
489.825	1.55
490.023	1.59
490.222	1.55
490.42	1.59
490.619	1.66
490.817	1.69
491.016	1.7
491.214	1.76
491.413	1.82
491.611	1.83
491.81	1.81
492.008	1.86
492.207	1.95
492.405	1.97
492.604	1.93
492.802	2.06
493	2.13
493.199	2.12
493.397	2.18
493.595	2.25
493.794	2.22
493.992	2.35
494.19	2.37
494.388	2.43
494.587	2.37
494.785	2.41
494.983	2.42
495.181	2.54
495.379	2.65
495.578	2.7
495.776	2.73
495.974	2.71
496.172	2.8
496.37	2.94
496.568	2.96
496.766	2.98
496.964	3.07
497.162	3.12
497.36	3.2
497.558	3.24
497.756	3.36
497.954	3.36
498.152	3.49
498.35	3.6
498.548	3.6
498.746	3.63
498.944	3.63
499.142	3.69
499.34	3.84
499.538	4
499.736	3.9
499.933	4.06
500.131	4.07
500.329	4.37
500.527	4.37
500.725	4.49
500.922	4.51
501.12	4.64
501.318	4.71
501.516	4.75
501.713	4.89
501.911	4.94
502.109	4.92
502.306	5.1
502.504	5.06
502.701	5.28
502.899	5.38
503.097	5.64
503.294	5.52
503.492	5.71
503.689	5.86
503.887	5.89
504.084	6.01
504.282	6.07
504.479	6.11
504.677	6.41
504.874	6.45
505.072	6.36
505.269	6.71
505.466	6.78
505.664	6.92
505.861	6.88
506.059	7.12
506.256	7.15
506.453	7.34
506.651	7.53
506.848	7.64
507.045	7.69
507.242	7.77
507.44	7.94
507.637	8.13
507.834	8.12
508.031	8.4
508.229	8.36
508.426	8.33
508.623	8.63
508.82	8.82
509.017	8.88
509.214	8.9
509.411	9.21
509.608	9.16
509.805	9.46
510.003	9.54
510.2	9.61
510.397	10.01
510.594	9.88
510.791	10.1
510.988	10.22
511.184	10.17
511.381	10.08
511.578	10.44
511.775	10.76
511.972	10.61
512.169	10.79
512.366	10.87
512.563	11.17
512.76	11.35
512.956	11.4
513.153	11.36
513.35	11.33
513.547	11.46
513.744	11.67
513.94	11.74
514.137	12.06
514.334	11.97
514.53	12.11
514.727	12.58
514.924	12.3
515.12	12.39
515.317	12.49
515.514	12.4
515.71	12.38
515.907	12.93
516.103	12.9
516.3	12.67
516.497	13
516.693	13.04
516.89	13.07
517.086	13.22
517.283	13.23
517.479	12.98
517.676	13.46
517.872	13.44
518.068	13.44
518.265	13.39
518.461	13.35
518.658	13.71
518.854	13.58
519.05	13.75
519.247	13.84
519.443	13.61
519.639	13.93
519.836	13.53
520.032	13.48
520.228	13.77
520.424	13.6
520.621	13.68
520.817	13.76
521.013	13.62
521.209	13.93
521.405	13.8
521.601	13.67
521.798	13.56
521.994	13.49
522.19	13.49
522.386	13.52
522.582	13.6
522.778	13.71
522.974	13.44
523.17	13.39
523.366	13.19
523.562	13.25
523.758	13.24
523.954	12.94
524.15	13.14
524.346	13.13
524.542	13.09
524.738	12.87
524.934	13.07
525.129	12.9
525.325	12.63
525.521	12.57
525.717	12.8
525.913	12.4
526.109	12.39
526.304	12.52
526.5	12.38
526.696	12.24
526.892	11.99
527.087	12.26
527.283	12.02
527.479	11.86
527.674	11.46
527.87	11.72
528.066	11.61
528.261	11.53
528.457	11.26
528.653	11.43
528.848	11.25
529.044	11.24
529.239	10.95
529.435	10.83
529.63	10.63
529.826	10.56
530.021	10.53
530.217	10.49
530.412	10.34
530.608	10.24
530.803	10.12
530.999	9.9
531.194	9.95
531.389	9.94
531.585	9.83
531.78	9.86
531.975	9.6
532.171	9.55
532.366	9.44
532.561	9.39
532.757	9.23
532.952	9.33
533.147	8.92
533.342	8.94
533.538	8.77
533.733	8.92
533.928	8.42
534.123	8.55
534.318	8.52
534.513	8.37
534.709	8.39
534.904	8.2
535.099	8.2
535.294	8.09
535.489	8.05
535.684	7.91
535.879	7.77
536.074	7.77
536.269	7.67
536.464	7.67
536.659	7.5
536.854	7.41
537.049	7.41
537.244	7.21
537.439	7.17
537.634	7.06
537.828	7.02
538.023	6.98
538.218	6.85
538.413	6.71
538.608	6.75
538.803	6.64
538.997	6.55
539.192	6.5
539.387	6.41
539.582	6.35
539.776	6.21
539.971	6.22
540.166	6.14
540.36	6.04
540.555	6.15
540.75	6
540.944	6
541.139	5.86
541.334	5.83
541.528	5.7
541.723	5.74
541.917	5.65
542.112	5.44
542.306	5.38
542.501	5.38
542.695	5.3
542.89	5.25
543.084	5.2
543.279	5.17
543.473	5.16
543.668	5.11
543.862	4.92
544.056	4.88
544.251	4.95
544.445	4.92
544.64	4.83
544.834	4.55
545.028	4.49
545.222	4.68
545.417	4.71
545.611	4.6
545.805	4.46
546	4.28
546.194	4.38
546.388	4.33
546.582	4.27
546.776	4.2
546.97	4.14
547.165	4.08
547.359	4
547.553	3.94
547.747	3.97
547.941	3.99
548.135	3.83
548.329	3.81
548.523	3.77
548.717	3.68
548.911	3.64
549.105	3.58
549.299	3.57
549.493	3.56
549.687	3.46
549.881	3.49
550.075	3.42
550.269	3.3
550.463	3.34
550.657	3.24
550.85	3.21
551.044	3.16
551.238	3.16
551.432	3.07
551.626	3.04
551.82	3.04
552.013	2.95
552.207	2.99
552.401	2.94
552.594	2.84
552.788	2.79
552.982	2.76
553.176	2.68
553.369	2.81
553.563	2.71
553.756	2.63
553.95	2.59
554.144	2.62
554.337	2.58
554.531	2.49
554.724	2.48
554.918	2.47
555.111	2.4
555.305	2.4
555.498	2.4
555.692	2.33
555.885	2.26
556.079	2.28
556.272	2.2
556.466	2.23
556.659	2.2
556.852	2.16
557.046	2.08
557.239	2.1
557.432	2.03
557.626	2.04
557.819	2.08
558.012	1.98
558.206	2
558.399	1.92
558.592	1.91
558.785	1.87
558.979	1.84
559.172	1.83
559.365	1.79
559.558	1.78
559.751	1.76
559.944	1.78
560.138	1.7
560.331	1.68
560.524	1.66
560.717	1.65
560.91	1.66
561.103	1.6
561.296	1.58
561.489	1.59
561.682	1.59
561.875	1.53
562.068	1.55
562.261	1.47
562.454	1.52
562.647	1.47
562.84	1.47
563.032	1.44
563.225	1.39
563.418	1.38
563.611	1.37
563.804	1.34
563.997	1.26
564.19	1.24
564.382	1.33
564.575	1.28
564.768	1.22
564.961	1.24
565.153	1.22
565.346	1.21
565.539	1.22
565.731	1.22
565.924	1.24
566.117	1.19
566.309	1.17
566.502	1.13
566.695	1.11
566.887	1.1
567.08	1.07
567.272	1.05
567.465	1.04
567.657	1.04
567.85	1.03
568.042	1.03
568.235	1.04
568.427	0.96
568.62	1
568.812	1
569.005	0.95
569.197	0.93
569.389	0.95
569.582	0.9
569.774	0.93
569.966	0.87
570.159	0.85
570.351	0.86
570.543	0.84
570.736	0.84
570.928	0.79
571.12	0.86
571.312	0.82
571.505	0.75
571.697	0.81
571.889	0.77
572.081	0.78
572.273	0.77
572.465	0.8
572.658	0.76
572.85	0.75
573.042	0.74
573.234	0.71
573.426	0.75
573.618	0.68
573.81	0.7
574.002	0.73
574.194	0.7
574.386	0.65
574.578	0.6
574.77	0.64
574.962	0.65
575.154	0.62
575.346	0.63
575.538	0.63
575.729	0.59
575.921	0.61
576.113	0.6
576.305	0.64
576.497	0.59
576.689	0.57
576.88	0.54
577.072	0.59
577.264	0.57
577.456	0.54
577.647	0.5
577.839	0.55
578.031	0.57
578.223	0.48
578.414	0.44
578.606	0.54
578.798	0.54
578.989	0.47
579.181	0.51
579.372	0.47
579.564	0.47
579.755	0.5
579.947	0.49
580.139	0.47
580.33	0.43
580.522	0.45
580.713	0.39
580.905	0.43
581.096	0.44
581.287	0.47
581.479	0.44
581.67	0.45
581.862	0.43
582.053	0.39
582.244	0.34
582.436	0.4
582.627	0.4
582.818	0.38
583.01	0.36
583.201	0.42
583.392	0.39
583.583	0.38
583.775	0.34
583.966	0.35
584.157	0.35
584.348	0.36
584.54	0.32
584.731	0.36
584.922	0.34
585.113	0.31
585.304	0.34
585.495	0.36
585.686	0.36
585.877	0.36
586.068	0.34
586.259	0.35
586.45	0.32
586.641	0.3
586.832	0.27
587.023	0.32
587.214	0.27
587.405	0.33
587.596	0.27
587.787	0.36
587.978	0.33
588.169	0.26
588.36	0.27
588.551	0.3
588.742	0.26
588.932	0.3
589.123	0.27
589.314	0.31
589.505	0.29
589.696	0.27
589.886	0.25
590.077	0.2
590.268	0.27
590.458	0.22
590.649	0.22
590.84	0.29
591.03	0.24
591.221	0.19
591.412	0.2
591.602	0.3
591.793	0.28
591.984	0.23
592.174	0.21
592.365	0.3
592.555	0.22
592.746	0.27
592.936	0.25
593.127	0.26
593.317	0.25
593.508	0.22
593.698	0.22
593.889	0.21
594.079	0.22
594.269	0.2
594.46	0.24
594.65	0.22
594.84	0.23
595.031	0.19
595.221	0.19
595.411	0.17
595.602	0.25
595.792	0.19
595.982	0.19
596.172	0.25
596.363	0.2
596.553	0.19
596.743	0.19
596.933	0.21
597.123	0.21
597.314	0.14
597.504	0.16
597.694	0.21
597.884	0.19
598.074	0.17
598.264	0.16
598.454	0.2
598.644	0.18
598.834	0.17
599.024	0.11
599.214	0.15
599.404	0.2
599.594	0.17
599.784	0.13
599.974	0.2
600.164	0.18
600.354	0.12
600.544	0.12
600.734	0.14
600.924	0.19
601.114	0.13
601.303	0.15
601.493	0.17
601.683	0.14
601.873	0.17
602.063	0.1
602.252	0.16
602.442	0.09
602.632	0.14
602.821	0.12
603.011	0.18
603.201	0.15
603.39	0.11
603.58	0.12
603.77	0.15
603.959	0.17
604.149	0.14
604.339	0.11
604.528	0.18
604.718	0.12
604.907	0.14
605.097	0.11
605.286	0.11
605.476	0.17
605.665	0.12
605.855	0.13
606.044	0.17
606.234	0.14
606.423	0.12
606.612	0.13
606.802	0.13
606.991	0.13
607.181	0.14
607.37	0.11
607.559	0.13
607.749	0.09
607.938	0.09
608.127	0.11
608.316	0.12
608.506	0.11
608.695	0.1
608.884	0.1
609.073	0.13
609.263	0.14
609.452	0.15
609.641	0.14
609.83	0.06
610.019	0.1
610.208	0.12
610.397	0.1
610.586	0.13
610.775	0.09
610.965	0.11
611.154	0.11
611.343	0.14
611.532	0.12
611.721	0.08
611.91	0.12
612.099	0.13
612.287	0.11
612.476	0.08
612.665	0.1
612.854	0.09
613.043	0.14
613.232	0.08
613.421	0.07
613.61	0.11
613.798	0.11
613.987	0.11
614.176	0.1
614.365	0.12
614.554	0.14
614.742	0.11
614.931	0.1
615.12	0.14
615.309	0.08
615.497	0.1
615.686	0.07
615.875	0.12
616.063	0.12
616.252	0.08
616.44	0.06
616.629	0.1
616.818	0.16
617.006	0.1
617.195	0.09
617.383	0.13
617.572	0.11
617.76	0.09
617.949	0.1
618.137	0.12
618.326	0.09
618.514	0.08
618.703	0.1
618.891	0.18
619.079	0.06
619.268	0.11
619.456	0.09
619.644	0.14
619.833	0.08
620.021	0.09
620.209	0.05
620.398	0.09
620.586	0.11
620.774	0.12
620.962	0.09
621.151	0.15
621.339	0.1
621.527	0.03
621.715	0.05
621.903	0.09
622.092	0.09
622.28	0.1
622.468	0.09
622.656	0.07
622.844	0.12
623.032	0.06
623.22	0.02
623.408	0.12
623.596	0.11
623.784	0.12
623.972	0.05
624.16	0.11
624.348	0.15
624.536	0.08
624.724	0.05
624.912	0.12
625.1	0.1
625.288	0.07
625.476	0.06
625.664	0.08
625.851	0.08
626.039	0.1
626.227	0.1
626.415	0.06
626.603	0.04
626.79	0.09
626.978	0.1
627.166	0.12
627.354	0.05
627.541	0.07
627.729	0.03
627.917	0.13
628.104	0.14
628.292	0.1
628.48	0.06
628.667	0.1
628.855	0.09
629.042	0.1
629.23	0.06
629.418	0.07
629.605	0.05
629.793	0.07
629.98	0.07
630.168	0.05
630.355	0.09
630.543	0.08
630.73	0.06
630.917	0.1
631.105	0.12
631.292	0.04
631.48	0.09
631.667	0.15
631.854	0.09
632.042	0.03
632.229	0.03
632.416	0.11
632.604	0.07
632.791	0.02
632.978	0.1
633.165	0.11
633.353	0.14
633.54	0.08
633.727	0.01
633.914	0.09
634.101	0.01
634.289	0.11
634.476	0.05
634.663	0.04
634.85	0.13
635.037	0.03
635.224	0.03
635.411	0.12
635.598	0.11
635.785	0.08
635.972	0.06
636.159	0.14
636.346	0.06
636.533	0.06
636.72	0.08
636.907	0.08
637.094	0.1
637.281	0.07
637.468	0.13
637.655	0.07
637.842	0.07
638.029	0.02
638.215	0.09
638.402	0.09
638.589	0.05
638.776	0.05
638.963	0.04
639.149	0.09
639.336	0.11
639.523	0.07
639.709	0.07
639.896	0.09
640.083	0.15
640.27	0.09
640.456	0.04
640.643	0.08
640.829	0.06
641.016	0.07
641.203	0.04
641.389	0.1
641.576	0.1
641.762	0.09
641.949	0.04
642.135	0.08
642.322	0.1
642.508	0.04
642.695	0.09
642.881	0.04
643.068	0.07
643.254	0.04
643.441	0.1
643.627	0.07
643.813	0.04
644	0.11
644.186	0.04
644.372	0.04
644.559	0.1
644.745	0.07
644.931	0.05
645.118	0.08
645.304	0.06
645.49	0.06
645.676	0.03
645.862	0.09
646.049	0.13
646.235	0.07
646.421	0.14
646.607	0.15
646.793	0.04
646.979	0.03
647.165	0.08
647.352	0.09
647.538	0.1
647.724	0.07
647.91	0.08
648.096	0.07
648.282	0.1
648.468	0.07
648.654	0.08
648.84	0.06
649.026	0.07
649.212	0.08
649.397	0.04
649.583	0.01
649.769	0.11
649.955	0.05
650.141	0.09
650.327	0.11
650.513	0.06
650.698	0.09
650.884	-0
651.07	0.09
651.256	0.08
651.442	0.06
651.627	0.07
651.813	0.08
651.999	0.04
652.184	0.08
652.37	0.07
652.556	0.07
652.741	0.12
652.927	-0.03
653.113	0.07
653.298	0.08
653.484	0.02
653.669	-0
653.855	0.03
654.04	0.08
654.226	0.08
654.412	0.04
654.597	0.03
654.782	0.08
654.968	0.11
655.153	0.06
655.339	0.03
655.524	0.03
655.71	0.1
655.895	0.06
656.08	0.04
656.266	0.11
656.451	0.11
656.636	0.04
656.822	0.08
657.007	0.04
657.192	0.05
657.378	0.04
657.563	0.07
657.748	0.07
657.933	0.1
658.118	0.05
658.304	0.04
658.489	0.07
658.674	0.09
658.859	0.04
659.044	0.1
659.229	0.07
659.414	0.03
659.599	0.06
659.785	0.03
659.97	0.05
660.155	0.11
660.34	0.08
660.525	0.05
660.71	0.05
660.895	0.11
661.08	0.05
661.264	0.05
661.449	0.14
661.634	0.1
661.819	0.12
662.004	0.08
662.189	-0.01
662.374	0.05
662.559	0.07
662.743	0.04
662.928	0.03
663.113	0.08
663.298	0.03
663.483	0.07
663.667	0.08
663.852	0.05
664.037	0.13
664.221	0.06
664.406	0.1
664.591	0.11
664.775	0.08
664.96	0.01
665.145	0.08
665.329	0.11
665.514	0.07
665.698	0.05
665.883	0.02
666.068	0.15
666.252	0.06
666.437	0.06
666.621	0.07
666.806	0.08
666.99	0.06
667.174	0.04
667.359	0.18
667.543	0.07
667.728	0.07
667.912	0.02
668.096	0.09
668.281	0.06
668.465	0.05
668.649	0.09
668.834	0.04
669.018	0.08
669.202	0.07
669.387	0.04
669.571	0.1
669.755	0.08
669.939	0.1
670.124	0.11
670.308	0.13
670.492	0.13
670.676	0.07
670.86	0.09
671.044	0.09
671.228	0.13
671.413	0.07
671.597	0.03
671.781	0.04
671.965	0.1
672.149	0.06
672.333	0.11
672.517	0.05
672.701	0.11
672.885	0.09
673.069	0.02
673.253	0.12
673.437	0.09
673.621	0.07
673.804	0.06
673.988	0.1
674.172	0.12
674.356	0
674.54	0.07
674.724	0.18
674.908	0.08
675.091	0.13
675.275	0.06
675.459	0.12
675.643	0.16
675.826	0.08
676.01	0.09
676.194	0.08
676.377	0.15
676.561	0.16
676.745	0.14
676.928	0.09
677.112	0.15
677.296	0.04
677.479	0.08
677.663	0.09
677.846	0.16
678.03	0.08
678.213	0.06
678.397	0.13
678.58	0.06
678.764	0.07
678.947	0.07
679.131	0.1
679.314	0.13
679.498	0.07
679.681	0.08
679.865	0.19
680.048	0.08
680.231	0.11
680.415	0.11
680.598	0.09
680.781	0.06
680.965	0.12
681.148	0.1
681.331	0.06
681.514	0.12
681.698	0.09
681.881	0.15
682.064	0.08
682.247	0.1
682.43	0
682.614	0.11
682.797	0.14
682.98	0.13
683.163	0.04
683.346	0.09
683.529	0.04
683.712	0.07
683.895	0.14
684.078	0.08
684.261	0.09
684.444	0.11
684.627	0.13
684.81	0.05
684.993	0.03
685.176	0.1
685.359	0.08
685.542	0.09
685.725	0.2
685.908	0.09
686.091	0.08
686.274	0.16
686.457	0.09
686.639	0.1
686.822	0.13
687.005	0.07
687.188	0.11
687.371	0.16
687.553	0.12
687.736	0.08
687.919	0.15
688.102	0.17
688.284	0.02
688.467	0.1
688.65	0.13
688.832	0.07
689.015	0.05
689.197	0.04
689.38	0.2
689.563	0.15
689.745	0.06
689.928	0.08
690.11	0.1
690.293	0.1
690.475	0.01
690.658	0.12
690.84	0.1
691.023	0.09
691.205	0.06
691.388	0.11
691.57	0.12
691.752	0.14
691.935	-0.01
692.117	0.03
692.3	0.08
692.482	0.06
692.664	0.08
692.847	0.08
693.029	0.15
693.211	0.08
693.393	0.1
693.576	0.09
693.758	0.03
693.94	0.1
694.122	0.05
694.304	0.09
694.487	0.03
694.669	0.17
694.851	0.02
695.033	0.08
695.215	0.01
695.397	0.08
695.579	0.1
695.761	0.04
695.943	0.03
696.125	0.15
696.308	0.12
696.49	0
696.671	0.22
696.853	0.09
697.035	0.2
697.217	0.1
697.399	0.1
697.581	0.08
697.763	0.08
697.945	0.05
698.127	0.12
698.309	0.13
698.491	0.11
698.672	0.16
698.854	0.16
699.036	0.16
699.218	0.07
699.399	0.13
699.581	0.12
699.763	0.11
699.945	0.06
700.126	0.03
700.308	0.09
700.49	0.09
700.671	0.06
700.853	0.05
701.035	0.12
701.216	0.11
701.398	0.03
701.579	0.15
701.761	0.17
701.943	0.07
702.124	0.03
702.306	0.07
702.487	0.24
702.669	0.04
702.85	0.08
703.031	0.04
703.213	0.19
703.394	0.17
703.576	0.07
703.757	0.19
703.938	0.14
704.12	0.21
704.301	0.09
704.483	0.03
704.664	0.12
704.845	0.2
705.026	0.11
705.208	0.09
705.389	0.14
705.57	0.08
705.751	0.13
705.933	0.11
706.114	0.19
706.295	0.11
706.476	-0
706.657	0.17
706.838	0.12
707.02	0.19
707.201	0.05
707.382	0.08
707.563	0.17
707.744	0.09
707.925	0.11
708.106	0.05
708.287	0.12
708.468	0.17
708.649	0.05
708.83	0.12
709.011	0.05
709.192	0.08
709.373	0.05
709.554	0.05
709.734	0.2
709.915	0.17
710.096	0.08
710.277	0.02
710.458	0.08
710.639	0.14
710.819	-0.02
711	0.08
711.181	0.18
711.362	0.15
711.542	0.12
711.723	0.1
711.904	0.13
712.085	0.12
712.265	0.18
712.446	0.02
712.627	0.07
712.807	0.13
712.988	0.09
713.168	0.03
713.349	0.2
713.53	-0.04
713.71	0.03
713.891	0.04
714.071	0.04
714.252	0.03
714.432	0.09
714.613	0.02
714.793	0.08
714.974	0.17
715.154	0.17
715.334	0.16
715.515	0.12
715.695	0.01
715.876	0.07
716.056	0.08
716.236	0.11
716.417	0.04
716.597	0.1
716.777	0.21
716.957	0.09
717.138	0.12
717.318	0.07
717.498	0.03
717.678	0.14
717.859	0.08
718.039	0.06
718.219	0.12
718.399	0.14
718.579	0.03
718.759	0.01
718.939	0.15
719.12	0.19
719.3	0.18
719.48	-0.03
719.66	-0.02
719.84	0.2
720.02	0.1
720.2	0.07
720.38	0.05
720.56	0.14
720.74	0.04
720.92	0.15
721.1	0.19
721.279	0.15
721.459	0.04
721.639	0.02
721.819	0.11
721.999	0.04
722.179	0.18
722.359	0.02
722.538	0.19
722.718	0.17
722.898	0.08
723.078	0.11
723.257	0.07
723.437	0.08
723.617	0.05
723.797	0.04
723.976	0.2
724.156	0.13
724.336	0.16
724.515	0.25
724.695	0.03
724.874	0.04
725.054	0.13
725.234	0.07
725.413	0.16
725.593	0.01
725.772	0.08
725.952	0.02
726.131	0.07
726.311	0.03
726.49	0.1
726.67	0.07
726.849	0.06
727.028	0.11
727.208	0.08
727.387	0.1
727.567	-0.02
727.746	0.16
727.925	0.04
728.105	0.02
728.284	0.01
728.463	0.08
728.643	0.18
728.822	0.05
729.001	0.06
729.18	0.06
729.359	0.18
729.539	0.07
729.718	0.17
729.897	0.23
730.076	0.06
730.255	-0.01
730.434	0.09
730.614	0.11
730.793	0.17
730.972	0.1
731.151	0.08
731.33	0.2
731.509	0.19
731.688	0.17
731.867	0.1
732.046	-0.04
732.225	0.34
732.404	0.08
732.583	-0.01
732.762	0.11
732.941	0.08
733.12	0.1
733.298	0
733.477	0.2
733.656	0.1
733.835	0.03
734.014	0.28
734.193	0.08
734.371	0.12
734.55	0.09
734.729	0.03
734.908	0.14
735.086	0.1
735.265	0.21
735.444	0.04
735.623	-0.01
735.801	0.04
735.98	0.1
736.159	0.12
736.337	0.09
736.516	0.12
736.694	0.2
736.873	0.11
737.052	0.33
737.23	0.15
737.409	0.11
737.587	0.16
737.766	-0.08
737.944	0.01
738.123	0.3
738.301	0.14
738.479	0.12
738.658	0.23
738.836	-0.08
739.015	0.24
739.193	0.24
739.371	0.03
739.55	0.01
739.728	-0.04
739.906	0.1
740.085	0.25
740.263	0.13
740.441	0.01
740.62	0.24
740.798	0.13
740.976	0.09
741.154	0.05
741.332	0.24
741.511	0.1
741.689	0.2
741.867	0.25
742.045	0
742.223	0.06
742.401	-0.02
742.579	0.05
742.757	0.13
742.935	0.01
743.114	0.1
743.292	0.16
743.47	0.03
743.648	0.06
743.826	0.09
744.004	0.13
744.181	0.22
744.359	0.04
744.537	0.15
744.715	0.13
744.893	0.14
745.071	0.19
745.249	0.08
745.427	0.1
745.605	0.14
745.782	0.09
745.96	0.11
746.138	0.18
746.316	0.18
746.493	0.11
746.671	0.01
746.849	0.07
747.027	0.29
747.204	0.01
747.382	0.13
747.56	-0.06
747.737	-0.03
747.915	0.01
748.093	0.14
748.27	0.04
748.448	0.15
748.625	0.05
748.803	0.01
748.98	0.05
749.158	0.07
749.335	0.16
749.513	0.06
749.69	0.09
749.868	0.09
750.045	0.21
750.223	0.06
750.4	-0.02
750.578	0.28
750.755	0.14
750.932	-0.06
751.11	0.23
751.287	-0.07
751.464	0.27
751.642	0
751.819	0.17
751.996	0.11
752.173	0.07
752.351	-0.03
752.528	0.07
752.705	0.11
752.882	0.11
753.06	0.22
753.237	0.05
753.414	0.25
753.591	0.24
753.768	0.04
753.945	0.07
754.122	0.08
754.299	0.19
754.476	0.02
754.654	0.12
754.831	0.2
755.008	0.16
755.185	0.12
755.362	-0.02
755.539	0.13
755.716	-0.05
755.892	0.06
756.069	0.02
756.246	0.05
756.423	0.08
756.6	0.31
756.777	0.04
756.954	0.2
757.131	0.04
757.307	0.04
757.484	0.11
757.661	0.18
757.838	0.1
758.015	-0.03
758.191	0.17
758.368	0.29
758.545	0.25
758.721	0.1
758.898	0.06
759.075	0.19
759.251	0.22
759.428	0.18
759.605	-0.05
759.781	0.09
759.958	0.14
760.134	0.2
760.311	-0.03
760.488	0.17
760.664	0.31
760.841	0.07
761.017	0.05
761.194	0.03
761.37	0.22
761.547	0.17
761.723	0.05
761.899	0.17
762.076	-0.04
762.252	-0.02
762.429	0.02
762.605	0.11
762.781	-0.01
762.958	0.16
763.134	0.02
763.31	-0.01
763.486	0.23
763.663	-0.03
763.839	0.17
764.015	-0.13
764.191	0
764.368	-0
764.544	0.07
764.72	0.16
764.896	0.16
765.072	0.16
765.248	0.12
765.425	0.07
765.601	0.17
765.777	0.12
765.953	-0.04
766.129	0.03
766.305	-0.09
766.481	0.19
766.657	0.24
766.833	0.3
767.009	-0.07
767.185	-0
767.361	0.08
767.537	-0
767.713	0.19
767.889	-0.02
768.065	0.04
768.24	0.15
768.416	0.15
768.592	0.04
768.768	-0.01
768.944	0.25
769.12	0.06
769.295	-0.01
769.471	-0
769.647	0
769.823	0.17
769.998	0.09
770.174	0.09
770.35	0.38
770.525	0.29
770.701	0.13
770.877	0.13
771.052	-0.01
771.228	0.17
771.403	0.24
771.579	0.25
771.755	0.53
771.93	0.08
772.106	-0.08
772.281	-0.12
772.457	0.13
772.632	0.23
772.808	0.03
772.983	0.08
773.159	-0.13
773.334	0.25
773.509	0.03
773.685	-0.03
773.86	0.37
774.036	0.24
774.211	0.15
774.386	0.05
774.562	0
774.737	0.01
774.912	-0.11
775.087	0.17
775.263	0.22
775.438	0.13
775.613	-0.11
775.788	-0.03
775.964	0.16
776.139	0.52
776.314	-0.11
776.489	0.24
776.664	0.25
776.839	0.04
777.014	0.11
777.19	0.32
777.365	0.13
777.54	0.4
777.715	0.12
777.89	0.11
778.065	-0.03
778.24	0.12
778.415	0.3
778.59	0.12
778.765	-0
778.94	0.21
779.115	0.08
779.289	0.11
779.464	-0.01
779.639	0.06
779.814	-0.19
779.989	-0.17
780.164	0.23
780.339	0.3
780.513	-0.02
780.688	0.01
780.863	0
781.038	0.49
781.212	-0
781.387	0.13
781.562	0.41
781.737	0.11
781.911	0.22
782.086	-0.07
782.261	0.15
782.435	0.45
782.61	-0.11
782.784	0.19
782.959	0.45
783.134	0.01
783.308	-0.07
783.483	0.13
783.657	0.58
783.832	0.34
784.006	-0.09
784.181	0.16
784.355	0.27
784.53	-0.09
784.704	0.25
784.878	0.28
785.053	0.29
785.227	0.13
785.402	0.58
785.576	-0.05
785.75	0.3
785.925	0.02
786.099	0.04
786.273	0.31
786.448	0.33
786.622	0.61
786.796	0.17
786.97	0.11
787.145	0.57
787.319	-0.3
787.493	-0.02
787.667	-0.21
787.841	-0.01
788.015	0.34
788.19	-0.04
788.364	0.13
788.538	0.2
788.712	0.19
788.886	0.02
789.06	0.16
789.234	0.43
789.408	0.06
789.582	0.11
789.756	-0.01
789.93	-0.08
790.104	0.12
790.278	-0.19
790.452	0.12
790.626	0.2
790.8	0.02
790.973	0.34
791.147	0.35
791.321	0.47
791.495	0.28
791.669	0.14
791.843	0.21
792.016	0.24
792.19	0.39
792.364	-0
792.538	0.54
792.711	0.62
792.885	-0.04
793.059	-0.12
793.233	-0.5
793.406	0.36
793.58	-0.06
793.754	0.09
793.927	-0.17
794.101	0.43
794.274	0.09
794.448	0.15
794.622	-0.2
794.795	0.36
794.969	-0.08
795.142	0.5
795.316	0.29
795.489	-0.02
795.663	0.5
795.836	0.09
796.009	-0.16
796.183	0.42
796.356	0.19
796.53	0.22
796.703	-0.01
796.876	0.23
797.05	0.06
797.223	-0.09
797.396	0.12
797.57	0.18
797.743	0.63
797.916	0.22
798.09	0.21
798.263	0.52
798.436	0.08
798.609	0.14
798.782	-0.05
798.956	0.35
799.129	-0.04
799.302	0.18
799.475	-0.12
799.648	0.13
799.821	0.14
799.994	0.32
800.167	-0.24
800.34	-0.1
800.514	0.24
800.687	0.29
800.86	0.07
801.033	0.2
801.206	0.18
801.379	0.04
801.551	0.31
801.724	0.18
801.897	0.62
802.07	0.09
802.243	-0.24
802.416	0.05
802.589	-0.11
802.762	0.3
802.935	0.26
803.107	0.38
803.28	0.14
803.453	0.26
803.626	-0.04
803.798	0.09
803.971	-0.02
804.144	0.16
804.317	0.5
804.489	0.42
804.662	0.09
804.835	0.3
805.007	0.22
805.18	0.69
805.353	0.19
805.525	-0.21
805.698	-0.09
805.87	0.17
806.043	0.61
806.215	-0.09
806.388	-0.01
806.56	0.33
806.733	0.44
806.905	0.17
807.078	-0.15
807.25	0.21
807.423	0.21
807.595	0.47
807.768	0.17
807.94	0.84
808.112	0.16
808.285	0.29
808.457	0.14
808.629	0.04
808.802	0.37
808.974	0.46
809.146	-0.08
809.318	-0.14
809.491	0.4
809.663	0.82
809.835	0.05
810.007	0.41
810.18	0.15
810.352	-0.02
810.524	0.26
810.696	0.24
810.868	0.56
811.04	-0.1
811.212	0.37
811.384	0.42
811.556	0.29
811.728	0.13
811.901	0.49
812.073	-0.38
812.245	0.38
812.417	0.33
812.589	-0.41
812.76	0.07
812.932	0.42
813.104	0.43
813.276	0.09
813.448	0.64
813.62	0.35
813.792	0.11
813.964	0
814.136	0.17
814.307	0.03
814.479	0.15
814.651	0.43
814.823	1.24
814.995	0.14
815.166	0.19
815.338	-0.19
815.51	-0.31
815.681	0.69
815.853	-0.2
816.025	0.03
816.196	0.68
816.368	0.65
816.54	-0.06
816.711	-0.27
816.883	0.16
817.054	1.01
817.226	-0.44
817.398	0.89
817.569	0.1
817.741	0.32
817.912	0.13
818.084	0.33
818.255	0.64
818.426	-0.1
818.598	0.27
818.769	-0.07
818.941	0.45
819.112	0.74
819.283	0.71
819.455	-0.04
819.626	0.19
819.798	0.52
819.969	0.38
820.14	0.51
820.311	0.11
820.483	0.08
820.654	0.13
820.825	0.27
820.996	-0.06
821.168	-0.01
821.339	0.12
821.51	-0.1
821.681	0.32
821.852	0.07
822.023	-0.16
822.195	-0.52
822.366	0.22
822.537	0.23
822.708	0.19
822.879	-0.16
823.05	1.41
823.221	0.47
823.392	0.62
823.563	0.3
823.734	0.22
823.905	0.43
824.076	0.02
824.247	-0.39
824.418	-0.38
824.589	0.93
824.759	-0.08
824.93	-0.2
825.101	-0.67
825.272	0.96
825.443	0.41
825.614	0.42
825.784	-0.67
825.955	1.06
826.126	0.66
826.297	0.17
826.467	0.76
826.638	1.18
826.809	-0.3
826.98	0.25
827.15	0.32
827.321	0.32
827.492	0.87
827.662	0.26
827.833	0.83
828.003	0.62
828.174	-0.36
828.345	-0.41
828.515	0.77
828.686	0.49
828.856	-0.19
829.027	-0.27
829.197	-0.22
829.368	0.48
829.538	-0.19
829.709	0.53
829.879	0.08
830.049	0.43
830.22	0.11
830.39	0.22
830.56	0.76
830.731	-0.17
830.901	-0.46
831.072	0.34
831.242	0.96
831.412	0.68
831.582	0.65
831.753	-0.69
831.923	0.34
832.093	0.41
832.263	-0.32
832.434	-0.34
832.604	0.22
832.774	1.19
832.944	-0.1
833.114	0.33
833.284	0.29
833.454	-0.08
833.624	0.11
833.795	-0.2
833.965	0.77
834.135	1.07
834.305	-0.95
834.475	-0.63
834.645	0.31
834.815	-0.37
834.985	0.04
835.155	-0.18
835.325	0.57
835.494	0.84
835.664	0.17
835.834	-0.3
836.004	0.57
836.174	0.02
836.344	0.16
836.514	-0.53
836.684	0.51
836.853	0.86
837.023	0.96
837.193	0.19
837.363	0.32
837.532	1.04
837.702	-0.37
837.872	-0.53
838.041	1.28
838.211	1.89
838.381	-0.4
838.55	0.6
838.72	1.86
838.89	1.12
839.059	0.17
839.229	-0.6
839.398	1.72
839.568	0.4
839.738	0.72
839.907	1.16
840.077	0.8
840.246	0.24
840.416	-0.01
840.585	-0.11
840.755	1.39
840.924	1.11
841.093	-0.03
841.263	0.47
841.432	0.78
841.602	-0.2
841.771	-0.48
841.94	0.41
842.11	2.29
842.279	2.05
842.448	0.17
842.617	0.07
842.787	1.1
842.956	-0.3
843.125	0.48
843.294	0.51
843.464	1.79
843.633	0.09
843.802	-0.69
843.971	0.34
844.14	0.52
844.309	1.21
844.479	-0.51
844.648	0.1
844.817	-0.02
844.986	0.17
845.155	-0.5
845.324	-0.09
845.493	0.23
845.662	-0.78
845.831	1.34
846	0.92
846.169	1.27
846.338	1.77
846.507	0.42
846.676	0.82
846.844	-0.44
847.013	0.28
847.182	-0.18
847.351	0.13
847.52	0.17
847.689	0.21
847.858	0.84
848.026	-0.25
848.195	0.05
848.364	-0.33
848.533	0.1
848.701	-0.3
848.87	0.71
849.039	0.7
849.207	1.24
849.376	0.82
849.545	1.52
849.713	0.22
849.882	0.27
850.051	0.2
850.219	0.94
850.388	1.08
850.556	-0.24
850.725	-0.19
850.893	0.41
851.062	-0.59
851.23	1.48
851.399	-0.8
851.567	-0.8
851.736	0.15
851.904	-0.42
852.073	0.73
852.241	0.59
852.41	0.91
852.578	-0.25
852.746	0.03
852.915	1.4
853.083	-0.56
853.251	-1
853.42	0.38
853.588	1.08
853.756	1.63
853.924	0.3
854.093	1.02
854.261	0.57
854.429	-0.58
854.597	1.57
854.765	-0.5
854.934	1.24
855.102	0.52
855.27	-0.24
855.438	0.72
855.606	1.25
855.774	1.81
855.942	-1.37
856.11	-0.45
856.278	0.41
856.446	1.92
856.614	0.13
856.782	-0.02
856.95	1.14
857.118	0.92
857.286	0.16
857.454	-1.42
857.622	1.08
857.79	0.8
857.958	-1.29
858.126	0.73
858.294	-1.94
858.462	0.69
858.629	-0.37
858.797	-0.43
858.965	0.1
859.133	0.08
859.301	0.08
859.468	1.16
859.636	-0.56
859.804	2.37
859.971	0.86
860.139	-0.31
860.307	2.36
860.474	-1.18
860.642	-0.05
860.81	0.01
860.977	0.03
861.145	2.43
861.313	-0.35
861.48	-0.19
861.648	1.86
861.815	0.94
861.983	-1.05
862.15	-0.66
862.318	1
862.485	0.69
862.653	-0.05
862.82	0.23
862.988	1.78
863.155	1.11
863.322	-0.21
863.49	-0.5
863.657	0.55
863.824	1.42
863.992	2.58
864.159	0.57
864.326	1.8
864.494	-0.49
864.661	3.68
864.828	-0.46
864.996	1.16
865.163	2.19
865.33	-0.55
865.497	-2.63
865.664	0.66
865.832	-2.54
865.999	0
866.166	-0.71
866.333	-0.27
866.5	-0.73
866.667	0.62
866.834	-0.64
867.001	1.3
867.168	-0.96
867.335	0.85
867.502	-1.23
867.669	1.51
867.836	2.48
868.003	-0.13
868.17	2.07
868.337	2.23
868.504	2.7
868.671	-1.19
868.838	0.6
869.005	0.84
869.172	0.52
869.339	2.09
869.505	1.53
869.672	-0.88
869.839	1.61
870.006	0.35
870.173	-2.06
870.339	0.81
870.506	3.11
870.673	-0.5
870.84	0.73
871.006	1.65
871.173	1.09
871.34	-0.05
871.506	-0.61
871.673	1.5
871.839	-1.25
872.006	-0.03
872.173	-0.33
872.339	0.73
872.506	2.82
872.672	-0.21
872.839	-0.83
873.005	0.67
873.172	2.42
873.338	2.12
873.505	1.03
873.671	1.16
873.838	1.75
874.004	-0.49
874.171	1.08
874.337	2.59
874.503	1.46
874.67	0.33
874.836	-0.41
875.002	2.99
875.169	2.78
875.335	1.64
875.501	-0.98
875.668	3.24
875.834	0.78
876	-0.16
876.166	0.75
876.332	1.28
876.499	3.61
876.665	-0.18
876.831	0.22
876.997	2.58
877.163	0.72
877.329	0.26
877.495	1.36
877.662	1.94
877.828	1.91
877.994	-0.14
878.16	-3.47
878.326	0.74
878.492	0.1
878.658	0.23
878.824	0.36
878.99	2.31
879.156	-0.5
879.322	1.53
879.487	-0.78
879.653	0.47
879.819	2.2
879.985	0.36
880.151	-0.87
880.317	0.68
880.483	-1.73
880.648	2.04
880.814	-3.71
880.98	1.54
881.146	-1.97
881.312	-0.69
881.477	0.23
881.643	-0.41
881.809	3.84
881.974	2.79
882.14	-1.67
882.306	-0.15
882.471	5.15
882.637	-0.8
882.803	1.97
882.968	2.98
883.134	4.34
883.299	2.4
883.465	1.01
883.63	1.07
883.796	2.13
883.961	1.4
884.127	-0.11
884.292	-3.08
884.458	-0.42
884.623	-0.42
