Data from Apollo_Calib_20240827__AbsoluteIrradiance__347__04-56-02-372.txt Node

Date: Wed Aug 28 04:56:02 BST 2024
User: biology
Spectrometer: FLMT08252
Trigger mode: 0
Integration Time (sec): 5.000000E-1
Scans to average: 5
Electric dark correction enabled: true
Nonlinearity correction enabled: false
Boxcar width: 0
XAxis mode: Wavelengths
Number of Pixels in Spectrum: 3648
>>>>>Begin Spectral Data<<<<<
179.588	-0
179.809	-0
180.03	-0
180.251	-0
180.473	-0
180.694	0
180.915	0
181.136	-0
181.357	0
181.578	0
181.799	-0
182.02	-0
182.241	-0
182.462	-0
182.683	0
182.904	-0
183.125	-0
183.346	0
183.567	0
183.788	0
184.009	-0
184.23	0
184.451	0
184.672	-0
184.892	-0
185.113	0
185.334	0
185.555	-0
185.776	-0
185.996	0
186.217	0
186.438	0
186.659	-0
186.879	0
187.1	0
187.321	-0
187.541	-0
187.762	0
187.983	0
188.203	0
188.424	0
188.644	0
188.865	0
189.086	0
189.306	0
189.527	0
189.747	0
189.968	0
190.188	0
190.409	0
190.629	0
190.849	-0
191.07	0
191.29	0
191.511	0
191.731	-0
191.951	-0
192.172	0
192.392	0
192.612	0
192.833	0
193.053	0
193.273	0
193.493	-0
193.714	-0
193.934	0
194.154	0
194.374	0
194.594	0
194.815	0
195.035	0
195.255	0
195.475	-0
195.695	0
195.915	0
196.135	0
196.355	0
196.575	0
196.795	0
197.015	-0
197.235	-0
197.455	-0
197.675	0
197.895	0
198.115	-0
198.335	0
198.555	0
198.775	0
198.995	0
199.214	0
199.434	0
199.654	0
199.874	-0
200.094	0.95
200.313	0.41
200.533	-0.02
200.753	-0.6
200.973	1.27
201.192	1.1
201.412	-0.84
201.632	0.07
201.851	1.07
202.071	0.22
202.291	-0.23
202.51	-0.34
202.73	0.88
202.95	-0.24
203.169	-0.34
203.389	0.41
203.608	0.06
203.828	-0.48
204.047	0.17
204.267	0.63
204.486	0.26
204.706	0.4
204.925	0.37
205.145	-0.24
205.364	1.01
205.583	1.35
205.803	-0.26
206.022	-0.38
206.242	-0.12
206.461	0.41
206.68	-0.29
206.9	0.15
207.119	0.76
207.338	1.25
207.557	0.05
207.777	0.37
207.996	0.16
208.215	0.5
208.434	-0.06
208.654	-0.04
208.873	0.4
209.092	0.5
209.311	0.23
209.53	0.2
209.749	0.09
209.968	-0.01
210.187	0.06
210.407	-0.24
210.626	0.1
210.845	0.42
211.064	-0.07
211.283	-0.13
211.502	0.73
211.721	0.31
211.94	0.04
212.159	0.6
212.377	0.45
212.596	0.45
212.815	0.43
213.034	0.04
213.253	0.37
213.472	0.45
213.691	0.15
213.91	0.12
214.128	-0.11
214.347	0.62
214.566	-0.13
214.785	-0.26
215.003	0.22
215.222	0.37
215.441	0.12
215.66	-0.02
215.878	0.14
216.097	0.39
216.316	-0.13
216.534	0.19
216.753	0.21
216.972	0.07
217.19	0.24
217.409	0.04
217.627	0.01
217.846	0.16
218.064	0.12
218.283	0.03
218.501	0.62
218.72	0.46
218.938	-0.13
219.157	0.19
219.375	0.38
219.594	0.22
219.812	-0.19
220.031	-0.17
220.249	0.45
220.467	0.48
220.686	0.04
220.904	-0.17
221.122	-0.15
221.341	0.46
221.559	0.19
221.777	-0.07
221.995	0.13
222.214	0.3
222.432	-0.07
222.65	0.23
222.868	0.13
223.086	0.38
223.305	0.17
223.523	0.07
223.741	0.39
223.959	0.15
224.177	-0.18
224.395	0.01
224.613	0.18
224.831	0.27
225.049	0.05
225.267	-0.15
225.485	0.2
225.703	0.03
225.921	-0.04
226.139	-0.04
226.357	0.31
226.575	0.21
226.793	0.06
227.011	0.72
227.229	0.13
227.447	0.28
227.665	0.08
227.883	-0.07
228.1	-0.02
228.318	0.25
228.536	-0.12
228.754	-0.06
228.972	0.14
229.189	0.18
229.407	-0.03
229.625	0.08
229.843	0.33
230.06	0.09
230.278	0.06
230.496	0.09
230.713	0.16
230.931	0.24
231.149	-0.03
231.366	-0.13
231.584	0.03
231.801	0.36
232.019	-0.01
232.236	-0.06
232.454	-0.06
232.671	0.1
232.889	-0
233.106	-0.08
233.324	0.14
233.541	0.13
233.759	0.08
233.976	-0.02
234.194	0.08
234.411	0.16
234.628	0.03
234.846	0.04
235.063	0.18
235.28	-0.07
235.498	0.14
235.715	0.01
235.932	0.2
236.149	0.03
236.367	-0.02
236.584	0.2
236.801	0.09
237.018	0.16
237.236	0.15
237.453	-0.08
237.67	0.21
237.887	0.07
238.104	0.05
238.321	-0
238.538	-0.01
238.755	0.22
238.973	-0.2
239.19	0.06
239.407	0.15
239.624	0.1
239.841	-0.08
240.058	-0.03
240.275	0.12
240.492	0.13
240.709	0.08
240.925	0.08
241.142	0.12
241.359	0.05
241.576	-0.06
241.793	0
242.01	0.06
242.227	0.18
242.444	0.17
242.66	0.12
242.877	0.17
243.094	0.05
243.311	0.06
243.527	-0.01
243.744	0.22
243.961	0.18
244.178	-0.01
244.394	0.03
244.611	0.23
244.828	0.25
245.044	0.01
245.261	0.04
245.477	0.09
245.694	0.24
245.911	0.01
246.127	0.07
246.344	0.29
246.56	0.09
246.777	0
246.993	0.06
247.21	0.21
247.426	-0
247.643	0.01
247.859	-0.02
248.076	-0.01
248.292	0.31
248.508	0.06
248.725	0.01
248.941	0.19
249.157	0.22
249.374	0.01
249.59	0.11
249.806	0.13
250.023	0.21
250.239	0.03
250.455	-0.01
250.671	0.02
250.888	0.11
251.104	0.09
251.32	0.05
251.536	0.08
251.752	0.08
251.969	0.1
252.185	0.1
252.401	0.17
252.617	0.08
252.833	0.09
253.049	0.01
253.265	0.07
253.481	0.12
253.697	0.03
253.913	-0.01
254.129	0.09
254.345	0.07
254.561	-0.02
254.777	0.07
254.993	0.19
255.209	0.08
255.425	0.08
255.641	-0.02
255.857	0.15
256.073	0.18
256.288	-0.07
256.504	0.01
256.72	0.12
256.936	0.24
257.152	0.12
257.367	0.01
257.583	0.12
257.799	0.12
258.015	0.03
258.23	0.06
258.446	0.19
258.662	0.03
258.877	0.02
259.093	0.01
259.309	0.06
259.524	0.14
259.74	0.07
259.955	-0.15
260.171	0.11
260.387	0.01
260.602	0.19
260.818	0.14
261.033	0.01
261.249	0.02
261.464	0.02
261.68	-0.01
261.895	0.08
262.11	0.14
262.326	-0.02
262.541	0.04
262.757	0.17
262.972	0.06
263.187	0.08
263.403	0.09
263.618	0.15
263.833	0.07
264.049	0.07
264.264	0.07
264.479	0.18
264.694	0.17
264.91	0.01
265.125	0.09
265.34	0.15
265.555	0.19
265.77	0.11
265.986	0.02
266.201	0.09
266.416	0.19
266.631	0.09
266.846	0.08
267.061	0.16
267.276	0.12
267.491	-0.06
267.706	0.1
267.921	0.07
268.136	0.14
268.351	0.01
268.566	0.01
268.781	0.16
268.996	0.14
269.211	0.08
269.426	0.03
269.641	0.06
269.856	0.17
270.071	0.03
270.285	0
270.5	0.16
270.715	0.13
270.93	0.08
271.145	0.07
271.359	0.13
271.574	0.01
271.789	0.03
272.004	0.04
272.218	0
272.433	0.1
272.648	0.03
272.862	0.11
273.077	0.06
273.292	0.13
273.506	0.03
273.721	0.06
273.936	0.12
274.15	0.08
274.365	0.08
274.579	0.08
274.794	0.09
275.008	0.16
275.223	0.03
275.437	0.09
275.652	0.15
275.866	0.18
276.081	0.05
276.295	0.09
276.509	0.09
276.724	0.11
276.938	0.12
277.153	0.1
277.367	0.09
277.581	0.02
277.796	0.02
278.01	0.02
278.224	0.19
278.438	0.19
278.653	0
278.867	0.05
279.081	-0.06
279.295	0.04
279.51	0.04
279.724	-0.03
279.938	0.11
280.152	0.08
280.366	-0.03
280.58	0.12
280.794	0.13
281.008	0.12
281.222	0.12
281.437	0.17
281.651	0.1
281.865	0.17
282.079	0.01
282.293	-0.05
282.507	-0
282.721	0.08
282.935	0.06
283.148	-0.03
283.362	0.02
283.576	-0
283.79	0.06
284.004	0.05
284.218	0.19
284.432	0.02
284.646	0.05
284.859	0.04
285.073	0.09
285.287	0.07
285.501	0.06
285.714	0.03
285.928	0.04
286.142	0.1
286.356	0.05
286.569	0.03
286.783	0.13
286.997	0.14
287.21	0.12
287.424	0.08
287.637	0.01
287.851	0.08
288.065	0.09
288.278	0.03
288.492	0.12
288.705	0.08
288.919	0.08
289.132	0
289.346	0.1
289.559	0.01
289.773	0.05
289.986	0.05
290.2	0.1
290.413	0.14
290.626	0.03
290.84	0
291.053	0.06
291.267	0.12
291.48	0.08
291.693	0.1
291.906	0.03
292.12	0.03
292.333	0.05
292.546	0.06
292.76	0.16
292.973	0.08
293.186	0.03
293.399	0.05
293.612	0.13
293.826	0.08
294.039	0.08
294.252	0.03
294.465	0.15
294.678	0.11
294.891	0.09
295.104	0.02
295.317	0.04
295.53	0.09
295.743	0.06
295.956	0.06
296.169	0.2
296.382	0.11
296.595	0.05
296.808	-0.01
297.021	0.17
297.234	0.1
297.447	0.07
297.66	0.12
297.873	0.12
298.086	0.14
298.299	0.04
298.511	0.03
298.724	0.05
298.937	0.07
299.15	0.04
299.363	0.09
299.575	0.14
299.788	0.11
300.001	0.08
300.213	0.08
300.426	0.02
300.639	0.04
300.852	-0.01
301.064	0.13
301.277	0.17
301.489	0.15
301.702	0.09
301.915	0.07
302.127	0.11
302.34	0.11
302.552	0.12
302.765	0.06
302.977	0.15
303.19	0.06
303.402	0.09
303.615	0.09
303.827	0.07
304.04	0.06
304.252	0.13
304.464	0.09
304.677	0.18
304.889	0.16
305.102	0.06
305.314	0.06
305.526	0.16
305.739	0.13
305.951	0.03
306.163	0.02
306.375	0.11
306.588	0.05
306.8	0.04
307.012	0.02
307.224	0.1
307.436	0.14
307.649	0.04
307.861	0.07
308.073	0.14
308.285	0.07
308.497	0.01
308.709	0.03
308.921	0.06
309.133	0.11
309.346	0.1
309.558	0.08
309.77	0.13
309.982	0.14
310.194	0.13
310.406	0.07
310.617	0.17
310.829	0.11
311.041	0.15
311.253	0.03
311.465	0.06
311.677	0.05
311.889	0.06
312.101	0.02
312.313	0.1
312.524	0.09
312.736	0.05
312.948	0.06
313.16	0.13
313.372	0.09
313.583	0.03
313.795	0.07
314.007	0.05
314.218	0.09
314.43	0.11
314.642	0.04
314.853	0.03
315.065	0.13
315.277	0.02
315.488	0.08
315.7	0.08
315.912	0.07
316.123	0.07
316.335	0.03
316.546	0.15
316.758	0.08
316.969	0.06
317.181	0.11
317.392	0.09
317.604	0.18
317.815	0.01
318.026	0.06
318.238	0.06
318.449	0.08
318.661	0.01
318.872	0.04
319.083	0.05
319.295	0.13
319.506	0.05
319.717	0.06
319.929	0.1
320.14	0.1
320.351	0.12
320.562	0.04
320.774	0.07
320.985	0.11
321.196	0
321.407	-0.01
321.618	0.15
321.829	0.08
322.041	0.12
322.252	0.05
322.463	0.07
322.674	0.11
322.885	0.05
323.096	0.06
323.307	0.07
323.518	0.11
323.729	0.06
323.94	0.07
324.151	0.08
324.362	0.09
324.573	0.12
324.784	0.08
324.995	0.12
325.206	0.08
325.417	0.05
325.628	0.05
325.838	0.07
326.049	0.1
326.26	0.18
326.471	0.11
326.682	0.1
326.892	0.1
327.103	0.01
327.314	0.05
327.525	0.13
327.735	0.08
327.946	0.08
328.157	0.04
328.368	0.11
328.578	0.08
328.789	0.11
328.999	0.07
329.21	0.06
329.421	0.06
329.631	0.05
329.842	0.09
330.052	0.11
330.263	0.1
330.473	0.11
330.684	0.06
330.894	0.11
331.105	0.12
331.315	0.07
331.526	0.03
331.736	0.19
331.947	0.13
332.157	0.07
332.367	0.02
332.578	0.07
332.788	0.15
332.999	0.14
333.209	0.07
333.419	0.03
333.629	0.13
333.84	0.13
334.05	0.06
334.26	0.13
334.47	0.09
334.681	0.16
334.891	0.04
335.101	0.14
335.311	0.15
335.521	0.11
335.732	0.03
335.942	0.16
336.152	0.09
336.362	0.08
336.572	0.09
336.782	0.1
336.992	0.04
337.202	0.08
337.412	0.03
337.622	0.12
337.832	0.07
338.042	0.04
338.252	0.07
338.462	0.07
338.672	0.11
338.882	0.09
339.092	0.04
339.302	0.19
339.511	0.12
339.721	0.05
339.931	0.02
340.141	0.12
340.351	0.15
340.561	0.09
340.77	0.08
340.98	0.06
341.19	0.12
341.4	0.04
341.609	0.04
341.819	0.05
342.029	-0.01
342.238	0.11
342.448	0.04
342.658	0.11
342.867	0.12
343.077	0.06
343.286	0.06
343.496	0.09
343.706	0.14
343.915	0.04
344.125	0.09
344.334	0.12
344.544	0
344.753	0.06
344.963	0.07
345.172	0.06
345.381	0.03
345.591	0.05
345.8	0.07
346.01	0.13
346.219	0.14
346.428	-0.04
346.638	0.09
346.847	0.09
347.056	0.13
347.266	0.04
347.475	0.09
347.684	0.09
347.893	0.08
348.103	0.13
348.312	0.05
348.521	0.1
348.73	0.08
348.94	0.11
349.149	0.02
349.358	0.1
349.567	0.05
349.776	0.02
349.985	0.07
350.194	0.1
350.403	0.1
350.612	-0.01
350.821	0.04
351.03	0.08
351.239	0.02
351.448	0.11
351.657	0.04
351.866	0.16
352.075	0.11
352.284	0.12
352.493	0.03
352.702	0.12
352.911	0.11
353.12	0.11
353.329	0.08
353.538	0.12
353.746	0.08
353.955	0.01
354.164	0.12
354.373	0.09
354.582	0.11
354.79	0.09
354.999	0.14
355.208	0.06
355.416	0.17
355.625	0.03
355.834	0.06
356.042	0.08
356.251	0.08
356.46	0.04
356.668	0.08
356.877	0.19
357.085	0.12
357.294	0.01
357.503	0.1
357.711	0.1
357.92	0.21
358.128	0.07
358.337	0.06
358.545	0.12
358.754	0.04
358.962	0.11
359.17	0.05
359.379	0.1
359.587	0.1
359.796	0.09
360.004	0.16
360.212	0.05
360.421	0.11
360.629	0.05
360.837	0.06
361.046	0.11
361.254	0.21
361.462	0.09
361.67	0.07
361.879	0.09
362.087	0.14
362.295	0.05
362.503	0.08
362.711	0.03
362.92	0.04
363.128	0.06
363.336	0.05
363.544	0.03
363.752	0.06
363.96	0.05
364.168	0.04
364.376	0.1
364.584	0.06
364.792	0.15
365	0.06
365.208	0.07
365.416	0.11
365.624	0.12
365.832	0.02
366.04	0.15
366.248	0.08
366.456	0.09
366.664	0.09
366.872	0.08
367.079	0.07
367.287	0.07
367.495	0.09
367.703	0.06
367.911	0.04
368.118	0.09
368.326	0.05
368.534	0.01
368.742	0.13
368.949	0.04
369.157	0.05
369.365	0.11
369.572	0.11
369.78	0.03
369.988	0.13
370.195	0.1
370.403	0.12
370.61	0.05
370.818	0.1
371.026	0.15
371.233	0.02
371.441	0.12
371.648	0.05
371.856	0.11
372.063	0.1
372.271	0.08
372.478	0.03
372.685	0.05
372.893	0.11
373.1	0.08
373.308	0.04
373.515	0.16
373.722	0.12
373.93	0.03
374.137	0.11
374.344	0.15
374.552	0.09
374.759	0.11
374.966	0.06
375.173	0.07
375.381	0.12
375.588	0.07
375.795	0.04
376.002	0.05
376.209	0.1
376.417	0.09
376.624	0.08
376.831	0.14
377.038	0.08
377.245	0.05
377.452	0.06
377.659	0.11
377.866	0.1
378.073	0.04
378.28	0.11
378.487	0.13
378.694	0.08
378.901	0.06
379.108	0.09
379.315	0.13
379.522	0.17
379.729	0.06
379.936	0.06
380.143	0.09
380.35	0.1
380.557	0.1
380.763	0.1
380.97	0.07
381.177	0.12
381.384	0.12
381.591	0.07
381.797	0.08
382.004	0.16
382.211	0.09
382.418	0.05
382.624	0.14
382.831	0.12
383.038	0.1
383.244	0.12
383.451	0.1
383.658	0.13
383.864	0.05
384.071	0.01
384.277	0.18
384.484	0.09
384.69	0.15
384.897	0.12
385.103	0.11
385.31	0.06
385.516	0.08
385.723	0.07
385.929	0.07
386.136	0.11
386.342	0.11
386.549	0.07
386.755	0.13
386.961	0.12
387.168	0.1
387.374	0.08
387.58	0.11
387.787	0.07
387.993	0.14
388.199	0.1
388.406	0.05
388.612	0.08
388.818	0.06
389.024	0.06
389.231	0.1
389.437	0.19
389.643	0.12
389.849	0.11
390.055	0.1
390.261	0.08
390.467	0.13
390.674	0.01
390.88	0.1
391.086	0.1
391.292	0.03
391.498	0.13
391.704	0.12
391.91	0.05
392.116	0.07
392.322	-0.03
392.528	0.14
392.734	0.14
392.94	0.13
393.146	0.05
393.352	0.09
393.557	0.11
393.763	0.08
393.969	0.1
394.175	0.08
394.381	0.12
394.587	0.09
394.792	0.1
394.998	0.16
395.204	0.18
395.41	0.1
395.615	0.12
395.821	0.13
396.027	0.1
396.233	0.09
396.438	0.13
396.644	0.19
396.85	0.14
397.055	0.1
397.261	0.08
397.466	0.13
397.672	0.12
397.878	0.15
398.083	0.15
398.289	0.08
398.494	0.2
398.7	0.12
398.905	0.05
399.111	0.16
399.316	0.1
399.522	0.11
399.727	0.14
399.932	0.12
400.138	0.1
400.343	0.16
400.549	0.15
400.754	0.15
400.959	0.17
401.165	0.11
401.37	0.16
401.575	0.11
401.78	0.16
401.986	0.08
402.191	0.13
402.396	0.16
402.601	0.18
402.807	0.19
403.012	0.14
403.217	0.18
403.422	0.17
403.627	0.15
403.832	0.13
404.037	0.15
404.243	0.2
404.448	0.11
404.653	0.09
404.858	0.17
405.063	0.19
405.268	0.14
405.473	0.12
405.678	0.14
405.883	0.34
406.088	0.2
406.293	0.12
406.498	0.16
406.703	0.22
406.907	0.18
407.112	0.09
407.317	0.2
407.522	0.26
407.727	0.15
407.932	0.18
408.136	0.27
408.341	0.17
408.546	0.21
408.751	0.22
408.956	0.19
409.16	0.28
409.365	0.23
409.57	0.25
409.774	0.23
409.979	0.31
410.184	0.29
410.388	0.2
410.593	0.34
410.798	0.25
411.002	0.24
411.207	0.27
411.411	0.34
411.616	0.25
411.82	0.36
412.025	0.37
412.229	0.28
412.434	0.38
412.638	0.35
412.843	0.32
413.047	0.39
413.252	0.33
413.456	0.39
413.66	0.43
413.865	0.37
414.069	0.48
414.273	0.42
414.478	0.46
414.682	0.48
414.886	0.44
415.091	0.5
415.295	0.45
415.499	0.6
415.703	0.52
415.908	0.62
416.112	0.57
416.316	0.68
416.52	0.66
416.724	0.62
416.929	0.71
417.133	0.81
417.337	0.69
417.541	0.78
417.745	0.76
417.949	0.87
418.153	0.87
418.357	0.85
418.561	1.15
418.765	1.01
418.969	1.12
419.173	1.13
419.377	1.09
419.581	1.27
419.785	1.19
419.989	1.21
420.193	1.28
420.397	1.4
420.601	1.49
420.804	1.59
421.008	1.5
421.212	1.64
421.416	1.74
421.62	1.65
421.823	1.68
422.027	1.86
422.231	1.83
422.435	1.78
422.638	1.92
422.842	1.93
423.046	1.98
423.249	2.14
423.453	2.17
423.657	2.29
423.86	2.39
424.064	2.44
424.268	2.58
424.471	2.58
424.675	2.8
424.878	2.76
425.082	2.84
425.285	3.16
425.489	3.08
425.692	3.3
425.896	3.19
426.099	3.4
426.303	3.49
426.506	3.53
426.71	3.76
426.913	3.99
427.116	4.1
427.32	4.16
427.523	4.18
427.726	4.37
427.93	4.53
428.133	4.76
428.336	4.86
428.54	5.08
428.743	5.17
428.946	5.44
429.149	5.51
429.353	5.48
429.556	5.64
429.759	5.76
429.962	5.82
430.165	5.91
430.368	5.72
430.571	5.73
430.775	5.88
430.978	5.92
431.181	5.91
431.384	6.14
431.587	6.19
431.79	6.47
431.993	6.44
432.196	6.69
432.399	7.07
432.602	7.14
432.805	7.28
433.008	7.72
433.211	7.62
433.414	7.99
433.616	7.99
433.819	7.96
434.022	8.1
434.225	8.38
434.428	8.4
434.631	8.68
434.833	8.69
435.036	8.92
435.239	9.11
435.442	9.32
435.645	9.46
435.847	9.55
436.05	9.75
436.253	10.05
436.455	10.15
436.658	10.09
436.861	10.45
437.063	10.59
437.266	10.68
437.468	11.09
437.671	11.4
437.874	11.43
438.076	11.39
438.279	11.98
438.481	12.17
438.684	12.87
438.886	12.65
439.089	12.97
439.291	13.07
439.494	13.55
439.696	13.81
439.899	14.5
440.101	14.95
440.303	15.46
440.506	16.39
440.708	16.08
440.91	16.61
441.113	16.84
441.315	17.25
441.517	17.23
441.72	17.88
441.922	17.72
442.124	17.82
442.326	18.34
442.529	18.85
442.731	19.03
442.933	19.42
443.135	19.46
443.337	19.65
443.539	20.4
443.742	20.25
443.944	21.14
444.146	21.04
444.348	21.3
444.55	21.32
444.752	21.76
444.954	22.05
445.156	22.05
445.358	22.61
445.56	23.27
445.762	23.12
445.964	23.73
446.166	23.49
446.368	23.82
446.57	23.8
446.772	23.48
446.974	23.32
447.175	23.79
447.377	23.67
447.579	24.31
447.781	23.98
447.983	23.75
448.184	23.35
448.386	24.02
448.588	23.47
448.79	23.35
448.991	23.86
449.193	23.96
449.395	23.22
449.597	22.53
449.798	22.59
450	21.94
450.202	21.87
450.403	21.93
450.605	21.65
450.806	21.28
451.008	21.14
451.21	20.66
451.411	20.12
451.613	18.99
451.814	19.31
452.016	19.16
452.217	18.18
452.419	18.18
452.62	17.85
452.821	17.44
453.023	17.17
453.224	16.62
453.426	16.05
453.627	14.99
453.828	15.12
454.03	15.14
454.231	15.02
454.432	14.79
454.634	14.49
454.835	13.96
455.036	13.79
455.238	13.25
455.439	12.93
455.64	12.46
455.841	12.24
456.042	12.28
456.244	11.81
456.445	11.65
456.646	11.19
456.847	11.02
457.048	10.88
457.249	10.88
457.45	10.39
457.651	9.87
457.852	9.62
458.054	9.2
458.255	9.21
458.456	9.18
458.657	9.12
458.858	8.42
459.058	8.32
459.259	8.46
459.46	8.03
459.661	7.99
459.862	7.98
460.063	7.83
460.264	7.73
460.465	7.41
460.666	7.5
460.866	7.08
461.067	6.76
461.268	6.78
461.469	6.69
461.67	6.44
461.87	6.3
462.071	6.21
462.272	6.15
462.473	6.04
462.673	6.28
462.874	6.1
463.075	6.11
463.275	6.04
463.476	6.05
463.676	5.88
463.877	5.72
464.078	5.65
464.278	5.63
464.479	5.45
464.679	5.4
464.88	5.18
465.08	5.21
465.281	4.98
465.481	4.68
465.682	4.44
465.882	4.51
466.083	4.35
466.283	4.29
466.483	4.07
466.684	3.77
466.884	3.8
467.085	3.75
467.285	3.8
467.485	3.61
467.686	3.51
467.886	3.35
468.086	3.26
468.286	3.26
468.487	3.31
468.687	3.06
468.887	3.01
469.087	3.07
469.287	2.94
469.488	2.73
469.688	2.8
469.888	2.8
470.088	2.68
470.288	2.64
470.488	2.56
470.688	2.35
470.888	2.32
471.088	2.15
471.288	2.22
471.488	2.17
471.688	2.18
471.888	2.05
472.088	2.19
472.288	2.01
472.488	1.94
472.688	1.89
472.888	1.88
473.088	1.85
473.288	1.77
473.488	1.73
473.688	1.78
473.887	1.62
474.087	1.62
474.287	1.62
474.487	1.51
474.687	1.56
474.886	1.49
475.086	1.45
475.286	1.44
475.486	1.33
475.685	1.36
475.885	1.33
476.085	1.35
476.284	1.31
476.484	1.32
476.684	1.29
476.883	1.31
477.083	1.23
477.282	1.11
477.482	1.25
477.681	1.18
477.881	1.1
478.08	1.05
478.28	1.01
478.479	1.07
478.679	1.07
478.878	0.95
479.078	0.91
479.277	0.95
479.477	0.96
479.676	0.92
479.875	0.85
480.075	0.85
480.274	0.87
480.473	0.9
480.673	0.83
480.872	0.86
481.071	0.81
481.271	0.81
481.47	0.72
481.669	0.75
481.868	0.72
482.067	0.67
482.267	0.66
482.466	0.62
482.665	0.64
482.864	0.6
483.063	0.61
483.262	0.63
483.461	0.63
483.661	0.62
483.86	0.57
484.059	0.58
484.258	0.55
484.457	0.54
484.656	0.53
484.855	0.61
485.054	0.46
485.253	0.48
485.452	0.45
485.651	0.49
485.849	0.46
486.048	0.41
486.247	0.41
486.446	0.44
486.645	0.37
486.844	0.39
487.043	0.36
487.241	0.4
487.44	0.36
487.639	0.38
487.838	0.39
488.037	0.36
488.235	0.42
488.434	0.34
488.633	0.3
488.831	0.34
489.03	0.37
489.229	0.3
489.427	0.33
489.626	0.33
489.825	0.35
490.023	0.3
490.222	0.26
490.42	0.3
490.619	0.3
490.817	0.27
491.016	0.22
491.214	0.3
491.413	0.24
491.611	0.21
491.81	0.25
492.008	0.25
492.207	0.25
492.405	0.22
492.604	0.17
492.802	0.22
493	0.21
493.199	0.2
493.397	0.21
493.595	0.2
493.794	0.17
493.992	0.25
494.19	0.2
494.388	0.2
494.587	0.2
494.785	0.2
494.983	0.17
495.181	0.18
495.379	0.19
495.578	0.16
495.776	0.15
495.974	0.18
496.172	0.16
496.37	0.15
496.568	0.14
496.766	0.16
496.964	0.16
497.162	0.15
497.36	0.12
497.558	0.17
497.756	0.17
497.954	0.15
498.152	0.12
498.35	0.15
498.548	0.15
498.746	0.14
498.944	0.14
499.142	0.11
499.34	0.09
499.538	0.14
499.736	0.1
499.933	0.15
500.131	0.13
500.329	0.14
500.527	0.14
500.725	0.16
500.922	0.15
501.12	0.12
501.318	0.12
501.516	0.09
501.713	0.15
501.911	0.1
502.109	0.08
502.306	0.12
502.504	0.11
502.701	0.09
502.899	0.11
503.097	0.16
503.294	0.09
503.492	0.1
503.689	0.13
503.887	0.12
504.084	0.14
504.282	0.09
504.479	0.04
504.677	0.1
504.874	0.08
505.072	0.07
505.269	0.09
505.466	0.13
505.664	0.12
505.861	0.06
506.059	0.08
506.256	0.11
506.453	0.08
506.651	0.13
506.848	0.09
507.045	0.11
507.242	0.07
507.44	0.07
507.637	0.07
507.834	0.07
508.031	0.12
508.229	0.05
508.426	0.07
508.623	0.11
508.82	0.05
509.017	0.05
509.214	0.06
509.411	0.07
509.608	0.06
509.805	0.07
510.003	0.07
510.2	0.05
510.397	0.08
510.594	0.06
510.791	0.04
510.988	0.05
511.184	0.08
511.381	0.09
511.578	0.05
511.775	0.1
511.972	0.07
512.169	0.06
512.366	0.05
512.563	0.09
512.76	0.05
512.956	0.05
513.153	0.06
513.35	0.07
513.547	0.05
513.744	0.04
513.94	0.03
514.137	0.06
514.334	0.08
514.53	0.06
514.727	0.07
514.924	0.13
515.12	0.04
515.317	0.03
515.514	0.05
515.71	0.03
515.907	0.05
516.103	0.06
516.3	0.07
516.497	0.09
516.693	0.07
516.89	0.04
517.086	0.04
517.283	0.07
517.479	0.06
517.676	0.05
517.872	0.04
518.068	0.07
518.265	0.05
518.461	0.05
518.658	0.02
518.854	0.06
519.05	0.05
519.247	0.03
519.443	0.07
519.639	0.07
519.836	0.08
520.032	0.06
520.228	0.05
520.424	0.1
520.621	0.07
520.817	0.04
521.013	0.07
521.209	0.06
521.405	0.11
521.601	0.04
521.798	0.05
521.994	0.11
522.19	0.02
522.386	0.01
522.582	0.03
522.778	0.04
522.974	0.06
523.17	0.05
523.366	0.06
523.562	0.1
523.758	0.05
523.954	0.04
524.15	0.04
524.346	0.07
524.542	0.03
524.738	0.03
524.934	0.03
525.129	0.04
525.325	0.05
525.521	0.06
525.717	0.09
525.913	0.04
526.109	0.05
526.304	0.04
526.5	0.06
526.696	0.08
526.892	0.05
527.087	0.05
527.283	0.02
527.479	0.07
527.674	0.03
527.87	0.05
528.066	0.05
528.261	0.06
528.457	0.05
528.653	0.03
528.848	0.05
529.044	0.05
529.239	0.03
529.435	0.07
529.63	0.04
529.826	0.11
530.021	0.06
530.217	0.05
530.412	0
530.608	0.03
530.803	0.04
530.999	0.06
531.194	-0
531.389	0.04
531.585	0
531.78	0.04
531.975	0.04
532.171	0.07
532.366	0.04
532.561	0.01
532.757	0.02
532.952	0.03
533.147	0.06
533.342	0.04
533.538	0.04
533.733	0.06
533.928	0.03
534.123	0.03
534.318	-0.01
534.513	0.03
534.709	0.06
534.904	0
535.099	0.03
535.294	0.03
535.489	0.05
535.684	0.02
535.879	0.01
536.074	0.07
536.269	0.01
536.464	0.03
536.659	0.05
536.854	0.02
537.049	0.04
537.244	0.05
537.439	0.03
537.634	0.08
537.828	0.03
538.023	0.03
538.218	0.02
538.413	0.04
538.608	-0.01
538.803	0.03
538.997	-0.01
539.192	0.05
539.387	0.03
539.582	0.04
539.776	0.02
539.971	0.02
540.166	0.04
540.36	0.01
540.555	0.04
540.75	0.02
540.944	0.04
541.139	-0.01
541.334	0.02
541.528	0.05
541.723	0.05
541.917	0.04
542.112	-0.02
542.306	0.04
542.501	0.04
542.695	0.03
542.89	0.02
543.084	0.04
543.279	0.02
543.473	0.01
543.668	0.01
543.862	0.01
544.056	0.04
544.251	0.03
544.445	0.06
544.64	0.03
544.834	0.01
545.028	0.04
545.222	0.04
545.417	0.07
545.611	0.04
545.805	0.01
546	0.01
546.194	0.03
546.388	0.02
546.582	0.06
546.776	0.02
546.97	0.02
547.165	0.04
547.359	0.04
547.553	-0.01
547.747	0.05
547.941	0.03
548.135	0.04
548.329	0.04
548.523	0.05
548.717	0.04
548.911	0.01
549.105	0.03
549.299	0.04
549.493	0.05
549.687	0.02
549.881	0.04
550.075	0.05
550.269	0
550.463	0.06
550.657	0.03
550.85	0.05
551.044	-0.01
551.238	0.04
551.432	-0
551.626	-0
551.82	0.03
552.013	-0
552.207	0.04
552.401	0.04
552.594	0.05
552.788	0.03
552.982	0.02
553.176	-0
553.369	0.04
553.563	0.05
553.756	-0.01
553.95	-0.01
554.144	0.03
554.337	0.05
554.531	0.04
554.724	0.04
554.918	0.02
555.111	0.03
555.305	0.03
555.498	0.08
555.692	0.05
555.885	0.02
556.079	0.01
556.272	0.03
556.466	0.05
556.659	0.02
556.852	0.02
557.046	0.02
557.239	0.05
557.432	0
557.626	0.03
557.819	0.03
558.012	0.07
558.206	0.06
558.399	0.01
558.592	0.05
558.785	0.02
558.979	0.03
559.172	0.04
559.365	0.06
559.558	0.03
559.751	0.02
559.944	0.05
560.138	0.02
560.331	0.01
560.524	-0.01
560.717	0
560.91	0.02
561.103	0.03
561.296	0.03
561.489	0.04
561.682	0.03
561.875	0.06
562.068	0.04
562.261	0.03
562.454	0.08
562.647	0.03
562.84	0.04
563.032	0.01
563.225	0.02
563.418	0.02
563.611	0.01
563.804	0.02
563.997	0.01
564.19	-0.01
564.382	0.03
564.575	0.03
564.768	0.01
564.961	0.01
565.153	0.01
565.346	0.05
565.539	0.06
565.731	0.05
565.924	0.06
566.117	0.05
566.309	0.02
566.502	0.02
566.695	0.02
566.887	0.05
567.08	0.02
567.272	0.04
567.465	0.01
567.657	0.03
567.85	0.04
568.042	0.03
568.235	0.06
568.427	0.03
568.62	0.01
568.812	0.03
569.005	0.02
569.197	-0.02
569.389	0.03
569.582	0.06
569.774	0.04
569.966	-0.03
570.159	0.01
570.351	0.04
570.543	0.01
570.736	0.02
570.928	0.03
571.12	0.01
571.312	0.01
571.505	0.01
571.697	0.07
571.889	-0.01
572.081	-0
572.273	-0.01
572.465	0.06
572.658	0.02
572.85	0.05
573.042	0.01
573.234	0
573.426	0.06
573.618	-0.01
573.81	0.05
574.002	0.04
574.194	0.05
574.386	0.01
574.578	-0.05
574.77	-0
574.962	0
575.154	-0
575.346	-0
575.538	0.03
575.729	-0.01
575.921	0.01
576.113	0.03
576.305	0.03
576.497	0.01
576.689	0.02
576.88	0.01
577.072	0.06
577.264	0.02
577.456	0.01
577.647	-0.05
577.839	0.02
578.031	0.05
578.223	-0.01
578.414	-0.01
578.606	0.04
578.798	0.03
578.989	0
579.181	0.02
579.372	0.03
579.564	0.03
579.755	0.04
579.947	0.05
580.139	0.05
580.33	-0.03
580.522	0.01
580.713	-0.04
580.905	0
581.096	0.05
581.287	0.03
581.479	0.01
581.67	0.02
581.862	0.02
582.053	-0.01
582.244	-0.03
582.436	0.02
582.627	0.02
582.818	0
583.01	-0.03
583.201	0.04
583.392	0.05
583.583	0.02
583.775	-0
583.966	-0.03
584.157	0.03
584.348	0.01
584.54	-0.01
584.731	0.06
584.922	0.01
585.113	-0.01
585.304	0.02
585.495	0.05
585.686	0.03
585.877	0.02
586.068	-0
586.259	0.03
586.45	0.04
586.641	-0.01
586.832	-0.04
587.023	0.01
587.214	0.02
587.405	0.02
587.596	-0
587.787	0.08
587.978	0.04
588.169	-0.02
588.36	-0.01
588.551	0.03
588.742	0.03
588.932	0.01
589.123	0.01
589.314	0.04
589.505	0.04
589.696	0.01
589.886	0
590.077	-0.02
590.268	0.01
590.458	-0.02
590.649	-0.01
590.84	0.06
591.03	-0.02
591.221	-0.02
591.412	-0.03
591.602	0.04
591.793	0.03
591.984	-0.02
592.174	-0
592.365	0.08
592.555	-0
592.746	0.03
592.936	0.04
593.127	0.05
593.317	0.04
593.508	0.02
593.698	-0
593.889	0
594.079	0.01
594.269	-0.01
594.46	0.01
594.65	0.02
594.84	0.03
595.031	-0.03
595.221	0
595.411	-0.03
595.602	0.06
595.792	0.02
595.982	-0.02
596.172	0.1
596.363	0.01
596.553	0.04
596.743	0.02
596.933	0.02
597.123	0.04
597.314	-0.01
597.504	-0.01
597.694	0.06
597.884	0.04
598.074	0.01
598.264	-0
598.454	0.04
598.644	0.04
598.834	0.03
599.024	-0.07
599.214	0.02
599.404	0.04
599.594	-0
599.784	-0.02
599.974	0.08
600.164	0.02
600.354	-0.02
600.544	-0.03
600.734	0.03
600.924	0.06
601.114	0
601.303	0.04
601.493	0.02
601.683	0.03
601.873	0.04
602.063	-0.02
602.252	0.07
602.442	-0.04
602.632	-0.01
602.821	-0.06
603.011	0.05
603.201	0.02
603.39	0.01
603.58	-0.02
603.77	-0.02
603.959	0.05
604.149	0.01
604.339	0
604.528	0.03
604.718	0.04
604.907	0.02
605.097	-0.01
605.286	-0.05
605.476	0.05
605.665	0.02
605.855	0.01
606.044	0.04
606.234	0.02
606.423	0.02
606.612	0
606.802	0.04
606.991	0.04
607.181	0.04
607.37	-0.01
607.559	-0
607.749	-0.06
607.938	0.01
608.127	0
608.316	-0.02
608.506	0.01
608.695	-0
608.884	-0.01
609.073	0.03
609.263	0.05
609.452	0.04
609.641	0.02
609.83	0
610.019	0.02
610.208	-0
610.397	0.01
610.586	0.03
610.775	-0.01
610.965	0.02
611.154	-0.03
611.343	0.01
611.532	0.02
611.721	-0.03
611.91	-0
612.099	0.04
612.287	0
612.476	-0.03
612.665	0.02
612.854	-0.03
613.043	0.03
613.232	-0
613.421	-0.05
613.61	0.01
613.798	-0.01
613.987	0.05
614.176	0.01
614.365	0.05
614.554	0.03
614.742	0.03
614.931	-0.01
615.12	0.06
615.309	0.02
615.497	0.04
615.686	-0
615.875	-0.01
616.063	0.03
616.252	0
616.44	-0.01
616.629	0.05
616.818	0.02
617.006	-0.01
617.195	-0.01
617.383	0.06
617.572	0.03
617.76	0
617.949	0
618.137	0.03
618.326	0.07
618.514	0
618.703	-0.03
618.891	0.06
619.079	-0.03
619.268	0.04
619.456	-0.02
619.644	0.07
619.833	-0
620.021	0.01
620.209	-0.05
620.398	0.02
620.586	0.02
620.774	0.04
620.962	0.01
621.151	0.06
621.339	0.02
621.527	-0.04
621.715	-0
621.903	-0.01
622.092	-0.04
622.28	0.03
622.468	0.01
622.656	0.04
622.844	0.01
623.032	-0.02
623.22	-0.07
623.408	0.06
623.596	0.03
623.784	0.03
623.972	-0.04
624.16	-0.02
624.348	0.02
624.536	-0.01
624.724	-0.03
624.912	0.06
625.1	0.04
625.288	0.02
625.476	-0.02
625.664	0.03
625.851	-0.01
626.039	-0.01
626.227	0
626.415	0.02
626.603	-0.05
626.79	0
626.978	-0.02
627.166	0.03
627.354	-0.01
627.541	-0.01
627.729	-0.04
627.917	0.03
628.104	0.04
628.292	0.03
628.48	-0.01
628.667	0.03
628.855	0.01
629.042	-0.01
629.23	-0.02
629.418	0.02
629.605	-0
629.793	-0.03
629.98	-0.01
630.168	-0.02
630.355	-0.01
630.543	0.03
630.73	-0.02
630.917	0.04
631.105	0.07
631.292	0
631.48	0.02
631.667	0.06
631.854	0.02
632.042	-0.02
632.229	-0.02
632.416	0.01
632.604	0
632.791	-0.02
632.978	0.03
633.165	0.03
633.353	0.08
633.54	0.04
633.727	-0.06
633.914	-0.03
634.101	-0.07
634.289	0.05
634.476	-0.02
634.663	-0.01
634.85	0.02
635.037	-0.03
635.224	-0.05
635.411	0.02
635.598	0.06
635.785	-0.03
635.972	0
636.159	0.05
636.346	-0.03
636.533	0.04
636.72	-0
636.907	0.01
637.094	0.01
637.281	0
637.468	0.04
637.655	0.04
637.842	0
638.029	-0.02
638.215	0.07
638.402	0
638.589	0.01
638.776	-0.02
638.963	-0
639.149	0.06
639.336	0.07
639.523	-0
639.709	-0
639.896	-0.02
640.083	0.08
640.27	0.03
640.456	-0.02
640.643	0
640.829	-0.05
641.016	-0.03
641.203	-0.03
641.389	0.06
641.576	0.03
641.762	0.04
641.949	-0.02
642.135	0.02
642.322	0.01
642.508	-0.02
642.695	0.03
642.881	0.01
643.068	0.01
643.254	0
643.441	0.05
643.627	0.01
643.813	-0
644	0.03
644.186	0
644.372	0.02
644.559	0.06
644.745	0.01
644.931	-0.03
645.118	-0.04
645.304	0.02
645.49	-0.02
645.676	-0
645.862	0.01
646.049	0.07
646.235	-0
646.421	0.09
646.607	0.09
646.793	0.01
646.979	-0
647.165	0.04
647.352	-0
647.538	0.07
647.724	0.01
647.91	0.01
648.096	0.03
648.282	0.03
648.468	-0.02
648.654	0.02
648.84	-0
649.026	-0.02
649.212	-0.02
649.397	-0.02
649.583	-0.05
649.769	0.04
649.955	0.01
650.141	0.04
650.327	0.08
650.513	-0.03
650.698	0.04
650.884	-0.07
651.07	0.04
651.256	0.03
651.442	0.01
651.627	-0.02
651.813	0.01
651.999	0.02
652.184	0.03
652.37	-0.01
652.556	-0.03
652.741	0.04
652.927	-0.08
653.113	0.01
653.298	0.01
653.484	0.01
653.669	-0.04
653.855	-0.01
654.04	0.03
654.226	0.02
654.412	-0.02
654.597	-0.01
654.782	-0.01
654.968	0.04
655.153	0.01
655.339	-0.02
655.524	-0.03
655.71	0.03
655.895	0.01
656.08	-0.02
656.266	0.05
656.451	0.02
656.636	-0.04
656.822	0.04
657.007	-0
657.192	-0.01
657.378	-0.03
657.563	0
657.748	0.03
657.933	0.02
658.118	0.01
658.304	0
658.489	0.04
658.674	0.02
658.859	-0.04
659.044	0.05
659.229	0.03
659.414	-0.02
659.599	-0
659.785	-0.06
659.97	-0.02
660.155	0.06
660.34	-0.01
660.525	-0.06
660.71	-0.02
660.895	0.05
661.08	-0.01
661.264	-0.03
661.449	0.07
661.634	0.03
661.819	0.02
662.004	0.03
662.189	-0.04
662.374	-0.01
662.559	-0.05
662.743	-0.05
662.928	0.04
663.113	-0.01
663.298	-0.05
663.483	-0.04
663.667	0.04
663.852	-0.02
664.037	0.04
664.221	-0
664.406	0.02
664.591	0.02
664.775	0.01
664.96	-0.06
665.145	0
665.329	0.05
665.514	-0.01
665.698	-0.02
665.883	-0.06
666.068	0.07
666.252	-0.01
666.437	-0.02
666.621	0
666.806	0.04
666.99	0.01
667.174	-0.02
667.359	0.06
667.543	-0.02
667.728	-0.02
667.912	-0.06
668.096	0.05
668.281	-0.02
668.465	-0.01
668.649	-0.02
668.834	-0.03
669.018	-0.02
669.202	-0
669.387	-0
669.571	0.08
669.755	-0.05
669.939	0.01
670.124	0
670.308	0.07
670.492	0.04
670.676	-0
670.86	0.02
671.044	-0.04
671.228	0.04
671.413	-0.02
671.597	0
671.781	-0.04
671.965	0.01
672.149	-0.01
672.333	0.02
672.517	0.01
672.701	-0
672.885	-0.01
673.069	-0.05
673.253	0.05
673.437	0
673.621	-0.01
673.804	0.04
673.988	-0.02
674.172	-0.04
674.356	-0.03
674.54	-0.03
674.724	0.1
674.908	0.01
675.091	-0
675.275	0
675.459	0.03
675.643	0.05
675.826	0.03
676.01	0.03
676.194	0.01
676.377	0.04
676.561	0.01
676.745	0.01
676.928	0.01
677.112	0.05
677.296	-0.01
677.479	-0.01
677.663	0.02
677.846	0.04
678.03	-0
678.213	0.01
678.397	-0.02
678.58	-0
678.764	-0.02
678.947	-0.05
679.131	0.02
679.314	0.07
679.498	-0.04
679.681	0.02
679.865	0.04
680.048	-0
680.231	0.01
680.415	-0.03
680.598	-0.01
680.781	-0.01
680.965	0.02
681.148	0.05
681.331	-0.02
681.514	0.06
681.698	-0.02
681.881	0
682.064	0.02
682.247	0.01
682.43	-0.06
682.614	0.02
682.797	0.06
682.98	0.06
683.163	-0.07
683.346	0.01
683.529	-0.05
683.712	-0.05
683.895	0.03
684.078	-0.03
684.261	-0.02
684.444	-0
684.627	0.03
684.81	-0.03
684.993	-0.02
685.176	0.06
685.359	-0.05
685.542	-0.03
685.725	0.08
685.908	0.05
686.091	0.03
686.274	0.07
686.457	0.04
686.639	0.01
686.822	0.07
687.005	0.03
687.188	-0.01
687.371	0.04
687.553	0.02
687.736	0.02
687.919	0.1
688.102	0.07
688.284	-0.02
688.467	0
688.65	-0.02
688.832	-0.01
689.015	0.04
689.197	-0.04
689.38	0.04
689.563	0.05
689.745	-0.05
689.928	-0.04
690.11	-0.01
690.293	0.02
690.475	-0.03
690.658	0.03
690.84	0.06
691.023	0.01
691.205	0.01
691.388	0.01
691.57	0.05
691.752	0.06
691.935	-0.04
692.117	-0.02
692.3	0.03
692.482	0.03
692.664	0.03
692.847	0.04
693.029	0.1
693.211	0.06
693.393	0.05
693.576	-0.05
693.758	0.03
693.94	0
694.122	0.02
694.304	-0
694.487	-0.01
694.669	0.14
694.851	-0.07
695.033	-0.02
695.215	-0.04
695.397	-0.04
695.579	0
695.761	-0.06
695.943	0.01
696.125	0.05
696.308	-0.01
696.49	-0.12
696.671	0.13
696.853	0.02
697.035	0.14
697.217	-0
697.399	0.04
697.581	-0.02
697.763	-0
697.945	-0.03
698.127	-0.03
698.309	0.07
698.491	0.02
698.672	0.05
698.854	0.1
699.036	0.05
699.218	-0.01
699.399	0.08
699.581	0.1
699.763	0.01
699.945	-0.04
700.126	-0.05
700.308	0.01
700.49	-0.02
700.671	-0.08
700.853	-0.05
701.035	0.06
701.216	-0.04
701.398	-0.07
701.579	0.03
701.761	0.07
701.943	0.01
702.124	-0.04
702.306	0.03
702.487	0.11
702.669	0.05
702.85	0.01
703.031	-0.06
703.213	0.09
703.394	0.06
703.576	-0
703.757	0.1
703.938	0.05
704.12	0.19
704.301	-0.01
704.483	-0
704.664	-0.01
704.845	0.11
705.026	0.05
705.208	0
705.389	0.04
705.57	0
705.751	0
705.933	0.01
706.114	0.08
706.295	0.03
706.476	-0.09
706.657	0.07
706.838	0.05
707.02	0.06
707.201	-0.02
707.382	-0.01
707.563	0.07
707.744	-0
707.925	-0.02
708.106	-0.05
708.287	0.07
708.468	0.12
708.649	-0.01
708.83	0.07
709.011	0.01
709.192	0.01
709.373	-0.01
709.554	-0.01
709.734	0.05
709.915	0.03
710.096	0.04
710.277	-0.09
710.458	0.02
710.639	0.08
710.819	-0.07
711	-0.03
711.181	0.05
711.362	0.05
711.542	0.03
711.723	-0.01
711.904	0.07
712.085	0.05
712.265	0.03
712.446	-0.13
712.627	-0.01
712.807	0
712.988	0.01
713.168	-0.13
713.349	0.03
713.53	-0.15
713.71	-0.05
713.891	-0.08
714.071	0.02
714.252	-0
714.432	0.04
714.613	-0.07
714.793	0.01
714.974	0.1
715.154	0.04
715.334	0.03
715.515	0.07
715.695	-0.07
715.876	-0.03
716.056	-0.06
716.236	0
716.417	-0.02
716.597	0.01
716.777	0.22
716.957	0.02
717.138	-0.01
717.318	0.01
717.498	-0.1
717.678	0.04
717.859	0.02
718.039	-0.09
718.219	-0.01
718.399	0.02
718.579	-0.06
718.759	-0.05
718.939	0.02
719.12	-0.05
719.3	0.03
719.48	-0.15
719.66	-0.14
719.84	0.09
720.02	0.02
720.2	-0.04
720.38	-0.01
720.56	0.15
720.74	0
720.92	0.06
721.1	0.07
721.279	0.04
721.459	0.01
721.639	-0.05
721.819	-0
721.999	-0.03
722.179	0.07
722.359	-0.08
722.538	0.07
722.718	0.05
722.898	-0.01
723.078	-0
723.257	0.03
723.437	0.03
723.617	-0.04
723.797	0.01
723.976	0.04
724.156	0.03
724.336	0.13
724.515	0.1
724.695	-0.13
724.874	0.01
725.054	0.08
725.234	-0.06
725.413	0.03
725.593	0.01
725.772	0.08
725.952	-0
726.131	-0.04
726.311	-0.03
726.49	0.02
726.67	-0.09
726.849	-0.04
727.028	0.05
727.208	-0.02
727.387	0.07
727.567	-0.09
727.746	0.01
727.925	-0
728.105	0.02
728.284	-0.03
728.463	-0.04
728.643	0.07
728.822	-0.06
729.001	0.03
729.18	0.05
729.359	0.05
729.539	-0.08
729.718	0.02
729.897	0.03
730.076	-0.03
730.255	-0.05
730.434	-0.02
730.614	0.12
730.793	0.05
730.972	-0.07
731.151	0.05
731.33	0.16
731.509	0.11
731.688	-0
731.867	0.02
732.046	-0.19
732.225	0.26
732.404	-0.03
732.583	-0.09
732.762	-0.01
732.941	0.08
733.12	-0
733.298	-0.02
733.477	0.04
733.656	-0.06
733.835	-0.08
734.014	0.09
734.193	0.03
734.371	0.06
734.55	-0.01
734.729	-0.14
734.908	0.08
735.086	0
735.265	0.06
735.444	-0.06
735.623	-0
735.801	-0.12
735.98	0.01
736.159	-0
736.337	0.01
736.516	0.12
736.694	0.01
736.873	-0.07
737.052	0.07
737.23	0.2
737.409	-0.16
737.587	0.13
737.766	-0.11
737.944	-0.07
738.123	0.02
738.301	0.05
738.479	-0.03
738.658	0.06
738.836	-0.1
739.015	0.1
739.193	0.11
739.371	-0.03
739.55	-0.01
739.728	-0.05
739.906	0.17
740.085	0.18
740.263	0.07
740.441	-0.1
740.62	0.19
740.798	0.07
740.976	-0.09
741.154	0
741.332	0.09
741.511	0.03
741.689	0.15
741.867	0.04
742.045	-0.04
742.223	-0.01
742.401	-0.06
742.579	-0.08
742.757	0.02
742.935	-0.1
743.114	-0.07
743.292	0.06
743.47	0.13
743.648	0
743.826	0.07
744.004	0.07
744.181	0.15
744.359	-0.08
744.537	0.03
744.715	-0.04
744.893	-0.11
745.071	-0.01
745.249	-0.17
745.427	-0.07
745.605	-0.02
745.782	0.11
745.96	0.08
746.138	0.11
746.316	0.14
746.493	0.01
746.671	0.03
746.849	0.01
747.027	0.11
747.204	-0.08
747.382	0.04
747.56	-0.14
747.737	0.04
747.915	-0.06
748.093	0.1
748.27	0.02
748.448	-0.01
748.625	-0.09
748.803	-0.09
748.98	-0.06
749.158	0.06
749.335	0.01
749.513	-0.02
749.69	-0
749.868	0.04
750.045	0.09
750.223	-0.03
750.4	-0.15
750.578	0.26
750.755	0.02
750.932	-0.11
751.11	0.08
751.287	-0.2
751.464	0.07
751.642	-0.07
751.819	-0.02
751.996	-0.07
752.173	-0.09
752.351	-0.01
752.528	0.01
752.705	0.02
752.882	-0.13
753.06	0.11
753.237	0.11
753.414	0.31
753.591	0.07
753.768	0.02
753.945	-0.11
754.122	-0.05
754.299	0.09
754.476	-0.12
754.654	0.04
754.831	0.06
755.008	0.07
755.185	-0.06
755.362	-0.15
755.539	0
755.716	-0.01
755.892	-0.06
756.069	-0.02
756.246	-0
756.423	0.02
756.6	0.18
756.777	-0.05
756.954	0.15
757.131	-0.11
757.307	-0.07
757.484	-0.01
757.661	-0.07
757.838	0.04
758.015	-0.18
758.191	0.11
758.368	0.03
758.545	0.25
758.721	0.03
758.898	-0.08
759.075	0.05
759.251	0.16
759.428	0.15
759.605	-0.19
759.781	0.03
759.958	0.12
760.134	0.14
760.311	-0.04
760.488	0.17
760.664	0.21
760.841	0.03
761.017	-0.13
761.194	0.15
761.37	0.11
761.547	-0.03
761.723	0.03
761.899	0.15
762.076	-0.06
762.252	-0.03
762.429	-0.02
762.605	0.12
762.781	0.01
762.958	0.09
763.134	-0.03
763.31	-0.08
763.486	0.04
763.663	-0.2
763.839	-0.04
764.015	-0.14
764.191	-0.09
764.368	-0.08
764.544	-0.05
764.72	0.14
764.896	0.2
765.072	0.09
765.248	0.02
765.425	-0.01
765.601	0.09
765.777	-0.01
765.953	-0.22
766.129	-0.04
766.305	-0.03
766.481	0.14
766.657	0.06
766.833	0.16
767.009	-0.05
767.185	-0.09
767.361	-0.02
767.537	-0.11
767.713	0.19
767.889	-0.07
768.065	-0.02
768.24	-0.02
768.416	0.05
768.592	-0.14
768.768	0.03
768.944	-0.02
769.12	-0.16
769.295	-0.07
769.471	-0.09
769.647	0.01
769.823	0.25
769.998	-0.19
770.174	-0
770.35	0.28
770.525	0.23
770.701	0.07
770.877	-0.11
771.052	-0.11
771.228	0.12
771.403	0.07
771.579	0.01
771.755	0.24
771.93	-0.02
772.106	-0.16
772.281	-0.11
772.457	-0.05
772.632	0.06
772.808	-0.2
772.983	-0.14
773.159	-0.13
773.334	0.08
773.509	-0.02
773.685	-0.06
773.86	0.37
774.036	0.28
774.211	-0.01
774.386	0.06
774.562	0.04
774.737	0.21
774.912	-0.04
775.087	0.03
775.263	-0.04
775.438	-0.05
775.613	-0.17
775.788	-0.07
775.964	0.21
776.139	0.33
776.314	-0.11
776.489	0.02
776.664	0.01
776.839	-0.17
777.014	0.15
777.19	0.23
777.365	0.28
777.54	0.27
777.715	-0.06
777.89	-0.06
778.065	-0.01
778.24	-0.05
778.415	0.29
778.59	-0.28
778.765	-0.02
778.94	0.09
779.115	-0.15
779.289	0.12
779.464	0.04
779.639	0.05
779.814	-0.2
779.989	-0.09
780.164	0.17
780.339	-0.01
780.513	-0.13
780.688	-0.23
780.863	-0.08
781.038	0.17
781.212	-0.08
781.387	-0.01
781.562	0.38
781.737	-0.11
781.911	0.24
782.086	-0.15
782.261	0.07
782.435	0.49
782.61	-0.04
782.784	-0.07
782.959	0.22
783.134	-0.01
783.308	-0.3
783.483	-0.01
783.657	0.37
783.832	0.17
784.006	-0.38
784.181	0.1
784.355	0.2
784.53	-0.07
784.704	-0.29
784.878	0.22
785.053	0.27
785.227	-0.07
785.402	0.31
785.576	-0.24
785.75	-0.04
785.925	-0.07
786.099	0.14
786.273	0.22
786.448	0.13
786.622	-0.02
786.796	0.07
786.97	-0.04
787.145	0.55
787.319	-0.24
787.493	-0.29
787.667	-0.29
787.841	-0.11
788.015	-0
788.19	0.04
788.364	-0.16
788.538	0.07
788.712	-0.04
788.886	-0.17
789.06	0.14
789.234	0.12
789.408	-0.44
789.582	0.05
789.756	0.12
789.93	-0.1
790.104	-0.08
790.278	-0.37
790.452	-0.4
790.626	0.12
790.8	-0.27
790.973	0.01
791.147	0.15
791.321	0.28
791.495	0.05
791.669	0.11
791.843	0.02
792.016	0.07
792.19	0.64
792.364	-0.19
792.538	0.62
792.711	0.4
792.885	-0.18
793.059	-0.12
793.233	-0.52
793.406	0.09
793.58	0.14
793.754	0.19
793.927	-0
794.101	0.21
794.274	-0.13
794.448	0.35
794.622	-0.26
794.795	0.31
794.969	-0.16
795.142	0.35
795.316	-0.21
795.489	-0.28
795.663	0.36
795.836	0.14
796.009	-0.25
796.183	0.34
796.356	0.27
796.53	0.04
796.703	0.18
796.876	0.42
797.05	-0.2
797.223	-0.05
797.396	0.22
797.57	-0.17
797.743	0.4
797.916	0.17
798.09	-0.01
798.263	0.35
798.436	0.04
798.609	-0.02
798.782	-0.25
798.956	0.28
799.129	-0.15
799.302	0.1
799.475	-0.31
799.648	-0.11
799.821	-0.29
799.994	0.05
800.167	-0.44
800.34	-0.16
800.514	-0.18
800.687	0.01
800.86	-0.24
801.033	0.02
801.206	0.12
801.379	-0.34
801.551	0.39
801.724	0.1
801.897	0.57
802.07	-0.07
802.243	-0.4
802.416	0.26
802.589	-0.17
802.762	0.38
802.935	-0.11
803.107	-0.09
803.28	0.14
803.453	0.08
803.626	-0.4
803.798	0.09
803.971	-0.35
804.144	-0.06
804.317	0.19
804.489	0.22
804.662	-0.19
804.835	0.08
805.007	-0.3
805.18	0.39
805.353	0.09
805.525	-0.25
805.698	-0.52
805.87	0.34
806.043	0.31
806.215	-0.47
806.388	-0.4
806.56	0.08
806.733	0.31
806.905	0.03
807.078	-0.08
807.25	-0.21
807.423	0.14
807.595	-0
807.768	0.01
807.94	0.13
808.112	-0.1
808.285	-0.01
808.457	0.02
808.629	-0.21
808.802	0.41
808.974	0.04
809.146	-0.05
809.318	-0.16
809.491	0.09
809.663	0.15
809.835	-0.26
810.007	0.3
810.18	0.05
810.352	-0.49
810.524	-0.08
810.696	0.03
810.868	0.63
811.04	-0.26
811.212	0
811.384	0.6
811.556	-0.2
811.728	-0.34
811.901	0.54
812.073	-0.21
812.245	0.38
812.417	0.36
812.589	-0.86
812.76	-0.12
812.932	0.24
813.104	0.3
813.276	-0.35
813.448	0.21
813.62	0.02
813.792	-0.36
813.964	-0.11
814.136	0.26
814.307	-0.24
814.479	-0.18
814.651	-0.39
814.823	0.96
814.995	-0.37
815.166	0.06
815.338	-0.37
815.51	-0.65
815.681	0.98
815.853	0.01
816.025	-0.03
816.196	0.62
816.368	-0.27
816.54	-0.31
816.711	-0.45
816.883	0.26
817.054	1.01
817.226	-0.95
817.398	0.14
817.569	-0.33
817.741	-0.39
817.912	0.33
818.084	0.01
818.255	0.22
818.426	-0.05
818.598	-0.19
818.769	-0.5
818.941	0.33
819.112	0.32
819.283	0.54
819.455	-0.33
819.626	0.11
819.798	0.41
819.969	-0.34
820.14	-0.26
820.311	0.13
820.483	-0.15
820.654	0.19
820.825	-0.04
820.996	-0.16
821.168	-0.58
821.339	0.27
821.51	-0.57
821.681	-0.06
821.852	-0.33
822.023	-0.41
822.195	-0.81
822.366	0.53
822.537	-0.12
822.708	-0.46
822.879	-0.31
823.05	0.55
823.221	-0.25
823.392	0.35
823.563	-0.03
823.734	0.25
823.905	-0.2
824.076	-0.16
824.247	-0.15
824.418	-0.27
824.589	0.55
824.759	-0.66
824.93	-0.1
825.101	-1.06
825.272	0.24
825.443	0.02
825.614	0.72
825.784	-1.07
825.955	0.78
826.126	0.36
826.297	-0.27
826.467	0.69
826.638	0.52
826.809	-0.83
826.98	-0.01
827.15	-0.2
827.321	-0.22
827.492	1.03
827.662	0.5
827.833	0.93
828.003	0.45
828.174	-0.77
828.345	-0.85
828.515	0.56
828.686	0.04
828.856	-0.21
829.027	0.04
829.197	0.44
829.368	0.65
829.538	-0.63
829.709	-0.81
829.879	-0.32
830.049	-0.43
830.22	-0.39
830.39	-0.33
830.56	0.17
830.731	0.27
830.901	-0.21
831.072	-0.4
831.242	0.18
831.412	-0.19
831.582	0.57
831.753	-0.55
831.923	0.62
832.093	-0.11
832.263	-0.45
832.434	-0.81
832.604	0.09
832.774	0.71
832.944	-0.55
833.114	-0.22
833.284	0.05
833.454	-0.57
833.624	-0.31
833.795	-0.79
833.965	0.43
834.135	1.04
834.305	-0.77
834.475	-0.35
834.645	0.75
834.815	-0.12
834.985	-0.45
835.155	-1.02
835.325	0.21
835.494	0.4
835.664	-0.24
835.834	-0.2
836.004	-0.13
836.174	-0.18
836.344	-0.15
836.514	-0.6
836.684	-0.38
836.853	-0.26
837.023	0.35
837.193	-0.96
837.363	0.6
837.532	0.5
837.702	-0.85
837.872	-0.4
838.041	0.54
838.211	0.96
838.381	-0.28
838.55	-0.41
838.72	0.92
838.89	0.82
839.059	-0.37
839.229	-1.01
839.398	1.65
839.568	0.12
839.738	0.06
839.907	0.84
840.077	0.1
840.246	-0.62
840.416	-0.95
840.585	-0.43
840.755	0.62
840.924	0.64
841.093	-0.53
841.263	-0
841.432	-0.1
841.602	-1.14
841.771	-0.72
841.94	-1.03
842.11	1.33
842.279	0.34
842.448	-1.19
842.617	-0.33
842.787	1.37
842.956	-1.41
843.125	-0.43
843.294	-0.03
843.464	0.72
843.633	0.05
843.802	-1.69
843.971	-0.72
844.14	1.14
844.309	0.1
844.479	-1.11
844.648	-0.66
844.817	-0.28
844.986	-0.53
845.155	-0.36
845.324	0.07
845.493	-0.16
845.662	-0.18
845.831	0.38
846	1.45
846.169	-0.54
846.338	0.52
846.507	0.22
846.676	-0.08
846.844	-1.37
847.013	0.55
847.182	-0.69
847.351	-0.14
847.52	-0.23
847.689	-0.26
847.858	0.01
848.026	-0.45
848.195	-0.11
848.364	-0.1
848.533	-0.96
848.701	0.58
848.87	0.85
849.039	1.14
849.207	0.6
849.376	1.11
849.545	1.16
849.713	-0.32
849.882	-0.75
850.051	-0.32
850.219	0.16
850.388	0.68
850.556	-0.55
850.725	-1.01
850.893	0.01
851.062	-0.12
851.23	0.34
851.399	-1.67
851.567	0.07
851.736	-0.17
851.904	-1.14
852.073	1.06
852.241	0.35
852.41	0.41
852.578	-0.49
852.746	-0.65
852.915	0.78
853.083	0.52
853.251	-1.09
853.42	-0.4
853.588	-0.06
853.756	0.29
853.924	-0.02
854.093	-0.74
854.261	-0.32
854.429	-1.36
854.597	0.04
854.765	-0.53
854.934	1.62
855.102	0.21
855.27	-0.21
855.438	0.25
855.606	1.43
855.774	1.44
855.942	-2
856.11	-2.22
856.278	0.59
856.446	0.6
856.614	-0.7
856.782	-1.9
856.95	0.9
857.118	-0.41
857.286	-0.03
857.454	-1.49
857.622	1.05
857.79	0.39
857.958	-1.2
858.126	-1.05
858.294	-1.98
858.462	-0.79
858.629	-0.74
858.797	-0.27
858.965	0.37
859.133	0.63
859.301	-0.37
859.468	-0.17
859.636	0.31
859.804	1.8
859.971	0.62
860.139	-1.59
860.307	0.7
860.474	0.04
860.642	-1.02
860.81	-1.23
860.977	0.89
861.145	-0.03
861.313	-1.01
861.48	0.17
861.648	0.55
861.815	0.39
861.983	-1.37
862.15	-0.8
862.318	1.8
862.485	1.27
862.653	-1.87
862.82	-1.64
862.988	1.46
863.155	0.4
863.322	-0.7
863.49	-1.87
863.657	-0.91
863.824	0.89
863.992	0.69
864.159	1.46
864.326	1.96
864.494	-0.68
864.661	3.03
864.828	-1.77
864.996	1.47
865.163	1.69
865.33	0.31
865.497	-2.4
865.664	-0.55
865.832	-1.58
865.999	-1.16
866.166	-0.39
866.333	-0.57
866.5	-0.24
866.667	-0.9
866.834	0.25
867.001	2.62
867.168	-1.85
867.335	0.73
867.502	-2.3
867.669	1.9
867.836	0.9
868.003	-1.94
868.17	1.62
868.337	1.63
868.504	1.64
868.671	-2.33
868.838	-1.67
869.005	1.1
869.172	0.39
869.339	-0.82
869.505	-1.03
869.672	-0.33
869.839	1.79
870.006	1.18
870.173	-1.56
870.339	1.76
870.506	3.55
870.673	-2.62
870.84	0.44
871.006	-0.06
871.173	0.21
871.34	-0.7
871.506	-2.18
871.673	-0.16
871.839	-1.45
872.006	-1.11
872.173	-0.26
872.339	-1.63
872.506	1.22
872.672	-0.3
872.839	-2.35
873.005	0.31
873.172	4.4
873.338	1.27
873.505	0.03
873.671	-0.78
873.838	0.57
874.004	-1.36
874.171	-0.07
874.337	1.08
874.503	0.27
874.67	-2.88
874.836	-0.92
875.002	2.97
875.169	1.01
875.335	-0.65
875.501	-2.68
875.668	1.51
875.834	-0.28
876	-0.29
876.166	1.46
876.332	1.43
876.499	4
876.665	0.63
876.831	-0.77
876.997	2.73
877.163	0.64
877.329	0.18
877.495	1.35
877.662	0.29
877.828	-0
877.994	0.09
878.16	-3.25
878.326	0.13
878.492	0.18
878.658	-1.93
878.824	-1.17
878.99	2.6
879.156	-0.62
879.322	2.16
879.487	-0.81
879.653	-0.84
879.819	0.93
879.985	-2.68
880.151	1.83
880.317	0.28
880.483	0.41
880.648	0.91
880.814	-3.17
880.98	0.9
881.146	-4.52
881.312	-2.53
881.477	-2.22
881.643	0.88
881.809	1.32
881.974	1.94
882.14	-4.23
882.306	-1.36
882.471	1.66
882.637	-0.15
882.803	1.1
882.968	2.9
883.134	2.67
883.299	-2.17
883.465	-0.15
883.63	2.89
883.796	1.43
883.961	2.31
884.127	0.63
884.292	-5.51
884.458	-0.68
884.623	-0.68
