Data from Apollo_Calib_20240827__AbsoluteIrradiance__348__04-57-03-170.txt Node

Date: Wed Aug 28 04:57:03 BST 2024
User: biology
Spectrometer: FLMT08252
Trigger mode: 0
Integration Time (sec): 5.000000E-1
Scans to average: 5
Electric dark correction enabled: true
Nonlinearity correction enabled: false
Boxcar width: 0
XAxis mode: Wavelengths
Number of Pixels in Spectrum: 3648
>>>>>Begin Spectral Data<<<<<
179.588	-0
179.809	-0
180.03	-0
180.251	-0
180.473	-0
180.694	0
180.915	0
181.136	-0
181.357	-0
181.578	-0
181.799	-0
182.02	-0
182.241	0
182.462	-0
182.683	0
182.904	0
183.125	-0
183.346	0
183.567	0
183.788	0
184.009	-0
184.23	-0
184.451	0
184.672	-0
184.892	-0
185.113	0
185.334	0
185.555	0
185.776	0
185.996	0
186.217	0
186.438	0
186.659	-0
186.879	0
187.1	-0
187.321	0
187.541	-0
187.762	0
187.983	0
188.203	0
188.424	0
188.644	0
188.865	0
189.086	-0
189.306	0
189.527	0
189.747	0
189.968	-0
190.188	0
190.409	0
190.629	0
190.849	0
191.07	-0
191.29	0
191.511	0
191.731	-0
191.951	-0
192.172	0
192.392	-0
192.612	-0
192.833	0
193.053	0
193.273	0
193.493	0
193.714	-0
193.934	0
194.154	0
194.374	0
194.594	0
194.815	0
195.035	0
195.255	0
195.475	0
195.695	0
195.915	0
196.135	0
196.355	0
196.575	0
196.795	0
197.015	-0
197.235	0
197.455	0
197.675	0
197.895	0
198.115	0
198.335	0
198.555	0
198.775	0
198.995	0
199.214	0
199.434	0
199.654	0
199.874	0
200.094	1.31
200.313	-0.31
200.533	0.24
200.753	0.07
200.973	1.21
201.192	1.25
201.412	-0.87
201.632	-0.14
201.851	1.11
202.071	-0.56
202.291	-0.28
202.51	-0.24
202.73	0.94
202.95	0.03
203.169	-0.09
203.389	0.54
203.608	0.48
203.828	-0.09
204.047	-0.19
204.267	0.55
204.486	0.49
204.706	0.43
204.925	-0.03
205.145	-0.24
205.364	0.7
205.583	0.95
205.803	-0.01
206.022	0
206.242	0.39
206.461	0.28
206.68	-0.13
206.9	0.39
207.119	0.66
207.338	1.01
207.557	0.15
207.777	0.15
207.996	0.12
208.215	0.75
208.434	0.2
208.654	-0.01
208.873	0.48
209.092	0.88
209.311	0.15
209.53	-0
209.749	0.23
209.968	0.06
210.187	0.06
210.407	-0.34
210.626	0.08
210.845	0.49
211.064	0.21
211.283	0.01
211.502	0.52
211.721	0.21
211.94	0.05
212.159	0.42
212.377	0.45
212.596	0.67
212.815	0.24
213.034	0.37
213.253	0.35
213.472	0.54
213.691	0.03
213.91	-0.01
214.128	0.01
214.347	0.44
214.566	-0.12
214.785	-0.08
215.003	0.35
215.222	0.47
215.441	0.2
215.66	-0.14
215.878	0.36
216.097	0.36
216.316	-0.07
216.534	0.06
216.753	0.31
216.972	0.14
217.19	0.21
217.409	0.14
217.627	0.22
217.846	0.1
218.064	0.11
218.283	0.06
218.501	0.79
218.72	0.35
218.938	-0.04
219.157	0.17
219.375	0.5
219.594	0.23
219.812	-0.11
220.031	-0.16
220.249	0.4
220.467	0.53
220.686	-0
220.904	-0.05
221.122	-0.03
221.341	0.48
221.559	0.19
221.777	-0.02
221.995	0.25
222.214	0.3
222.432	-0.09
222.65	0.31
222.868	0.13
223.086	0.29
223.305	0.17
223.523	0.12
223.741	0.5
223.959	0.04
224.177	-0.1
224.395	-0.09
224.613	0.24
224.831	0.31
225.049	-0.09
225.267	0.02
225.485	0.25
225.703	-0.04
225.921	0.08
226.139	0.13
226.357	0.32
226.575	0.21
226.793	-0.03
227.011	0.71
227.229	0.29
227.447	0.41
227.665	0.02
227.883	-0.12
228.1	0.19
228.318	0.04
228.536	-0.25
228.754	-0.04
228.972	0.19
229.189	0.21
229.407	-0.04
229.625	0.04
229.843	0.33
230.06	0.18
230.278	0.05
230.496	0.18
230.713	0.22
230.931	0.26
231.149	0.04
231.366	-0.13
231.584	0.21
231.801	0.47
232.019	0.03
232.236	0.03
232.454	0.07
232.671	0.16
232.889	0.15
233.106	-0
233.324	0.1
233.541	0.18
233.759	0.13
233.976	0.09
234.194	0.08
234.411	0.12
234.628	-0.03
234.846	-0.02
235.063	0.01
235.28	0.09
235.498	0.15
235.715	-0.05
235.932	0.3
236.149	0.09
236.367	0.06
236.584	0.15
236.801	0.03
237.018	0.17
237.236	0.12
237.453	-0.15
237.67	0.16
237.887	0.08
238.104	0.04
238.321	-0.08
238.538	0.03
238.755	0.27
238.973	-0.05
239.19	0.12
239.407	0.2
239.624	0.09
239.841	-0.03
240.058	0.02
240.275	0.26
240.492	0.14
240.709	0.12
240.925	0.03
241.142	0.1
241.359	-0.05
241.576	-0.02
241.793	0.02
242.01	0.07
242.227	0.18
242.444	0.16
242.66	0.16
242.877	0.12
243.094	0.09
243.311	0.12
243.527	0.15
243.744	0.11
243.961	0.15
244.178	0.1
244.394	0.05
244.611	0.29
244.828	0.32
245.044	0.05
245.261	0.1
245.477	0.18
245.694	0.19
245.911	0.03
246.127	0.12
246.344	0.22
246.56	0.14
246.777	-0.01
246.993	0.06
247.21	0.13
247.426	0.25
247.643	0.07
247.859	-0
248.076	-0.02
248.292	0.28
248.508	0.07
248.725	0.11
248.941	0.12
249.157	0.25
249.374	0.01
249.59	0.1
249.806	0.06
250.023	0.26
250.239	0.05
250.455	-0.02
250.671	0.16
250.888	0.16
251.104	0.19
251.32	0.06
251.536	0.11
251.752	0.06
251.969	0.07
252.185	0.13
252.401	0.22
252.617	0.03
252.833	0.09
253.049	0.08
253.265	0.2
253.481	0.16
253.697	0.09
253.913	0.08
254.129	0.06
254.345	0.04
254.561	0.01
254.777	0.09
254.993	0.12
255.209	0.09
255.425	0.02
255.641	0.02
255.857	0.18
256.073	0.09
256.288	0.01
256.504	0.09
256.72	0.11
256.936	0.15
257.152	0.11
257.367	0
257.583	0.07
257.799	0.16
258.015	0.04
258.23	-0.03
258.446	0.24
258.662	0.07
258.877	0.03
259.093	-0.02
259.309	0.12
259.524	0.12
259.74	0.05
259.955	-0.04
260.171	0.14
260.387	0.12
260.602	0.14
260.818	0.14
261.033	0.03
261.249	0.05
261.464	-0.03
261.68	-0.06
261.895	0.18
262.11	0.13
262.326	0.04
262.541	0.01
262.757	0.22
262.972	0.14
263.187	0.14
263.403	0.06
263.618	0.16
263.833	0.08
264.049	0.03
264.264	0.1
264.479	0.14
264.694	0.1
264.91	0.02
265.125	0.03
265.34	0.11
265.555	0.25
265.77	0.05
265.986	0.07
266.201	0.14
266.416	0.19
266.631	0.03
266.846	0.08
267.061	0.17
267.276	0.17
267.491	-0.14
267.706	0.11
267.921	0.07
268.136	0.1
268.351	0.11
268.566	0
268.781	0.16
268.996	0.19
269.211	0.06
269.426	0.04
269.641	0.02
269.856	0.19
270.071	0.01
270.285	-0.05
270.5	0.13
270.715	0.22
270.93	0.1
271.145	0.08
271.359	0.13
271.574	0.01
271.789	0.09
272.004	0.05
272.218	0.08
272.433	0.09
272.648	0.08
272.862	0.12
273.077	0.1
273.292	0.09
273.506	0.05
273.721	0.1
273.936	0.14
274.15	0.17
274.365	0.06
274.579	0.13
274.794	0.13
275.008	0.2
275.223	-0.03
275.437	0.05
275.652	0.16
275.866	0.15
276.081	0.11
276.295	0.14
276.509	0.12
276.724	0.1
276.938	0.09
277.153	0.1
277.367	0.12
277.581	0.09
277.796	0
278.01	0.03
278.224	0.15
278.438	0.19
278.653	-0.02
278.867	0.06
279.081	-0.1
279.295	0.09
279.51	0.09
279.724	-0.01
279.938	0.11
280.152	0.07
280.366	0.03
280.58	0.11
280.794	0.19
281.008	0.1
281.222	0.13
281.437	0.19
281.651	0.16
281.865	0.15
282.079	0.03
282.293	0.04
282.507	0.04
282.721	0.06
282.935	0.11
283.148	0.01
283.362	0.03
283.576	0.02
283.79	0.09
284.004	0.07
284.218	0.18
284.432	0.04
284.646	0.1
284.859	0.08
285.073	0.07
285.287	0.08
285.501	0.04
285.714	0.1
285.928	0.08
286.142	0.08
286.356	0.02
286.569	0.08
286.783	0.17
286.997	0.12
287.21	0.11
287.424	0.07
287.637	0.1
287.851	0.03
288.065	0.11
288.278	0.07
288.492	0.1
288.705	0.11
288.919	0.1
289.132	0.03
289.346	0.16
289.559	0.01
289.773	-0
289.986	0.08
290.2	0.08
290.413	0.13
290.626	0.02
290.84	0.08
291.053	0.08
291.267	0.14
291.48	0.06
291.693	0.13
291.906	0.05
292.12	0.11
292.333	0.09
292.546	0.03
292.76	0.17
292.973	0.08
293.186	0.09
293.399	0.08
293.612	0.11
293.826	0.11
294.039	0.03
294.252	0.04
294.465	0.17
294.678	0.1
294.891	0.07
295.104	0.05
295.317	0.1
295.53	0.11
295.743	0.13
295.956	0.07
296.169	0.17
296.382	0.17
296.595	0.1
296.808	0.01
297.021	0.11
297.234	0.13
297.447	0.05
297.66	0.12
297.873	0.12
298.086	0.1
298.299	0.06
298.511	0.02
298.724	0.05
298.937	0.02
299.15	0.08
299.363	0.06
299.575	0.15
299.788	0.14
300.001	0.03
300.213	0.06
300.426	0.1
300.639	0.04
300.852	0.05
301.064	0.09
301.277	0.14
301.489	0.13
301.702	0.15
301.915	0.09
302.127	0.1
302.34	0.1
302.552	0.07
302.765	0.05
302.977	0.1
303.19	0.08
303.402	0.06
303.615	0.04
303.827	0.07
304.04	0.08
304.252	0.13
304.464	0.06
304.677	0.24
304.889	0.15
305.102	0.06
305.314	0.06
305.526	0.15
305.739	0.1
305.951	0.08
306.163	0.04
306.375	0.17
306.588	0.09
306.8	0.05
307.012	0.02
307.224	0.08
307.436	0.19
307.649	0.06
307.861	0.07
308.073	0.16
308.285	0.11
308.497	0.06
308.709	0.08
308.921	0.11
309.133	0.14
309.346	0.09
309.558	0.09
309.77	0.09
309.982	0.12
310.194	0.13
310.406	0.03
310.617	0.17
310.829	0.08
311.041	0.09
311.253	0.06
311.465	0.08
311.677	0.07
311.889	0.06
312.101	0.05
312.313	0.13
312.524	0.1
312.736	0.05
312.948	0.08
313.16	0.18
313.372	0.12
313.583	0.14
313.795	0.07
314.007	0.05
314.218	0.15
314.43	0.07
314.642	0.05
314.853	0.01
315.065	0.16
315.277	0.09
315.488	0.04
315.7	0.13
315.912	0.11
316.123	0.11
316.335	0.08
316.546	0.2
316.758	0.05
316.969	0.06
317.181	0.1
317.392	0.09
317.604	0.18
317.815	0.07
318.026	0.04
318.238	0.06
318.449	0.11
318.661	-0
318.872	0.03
319.083	0.01
319.295	0.14
319.506	-0
319.717	0.1
319.929	0.12
320.14	0.11
320.351	0.09
320.562	0.03
320.774	0.12
320.985	0.11
321.196	0.04
321.407	0.04
321.618	0.11
321.829	0.1
322.041	0.11
322.252	0.13
322.463	0.09
322.674	0.06
322.885	0.04
323.096	0.06
323.307	0.05
323.518	0.1
323.729	0.05
323.94	0.06
324.151	0.06
324.362	0.09
324.573	0.07
324.784	0.08
324.995	0.13
325.206	0.08
325.417	0.08
325.628	0.07
325.838	0.08
326.049	0.08
326.26	0.13
326.471	0.08
326.682	0.13
326.892	0.13
327.103	0.04
327.314	0.06
327.525	0.15
327.735	0.05
327.946	0.09
328.157	0.06
328.368	0.09
328.578	0.08
328.789	0.1
328.999	0.1
329.21	0.11
329.421	0.14
329.631	0.05
329.842	0.05
330.052	0.09
330.263	0.14
330.473	0.12
330.684	0.06
330.894	0.08
331.105	0.09
331.315	0.08
331.526	0.03
331.736	0.18
331.947	0.12
332.157	0.11
332.367	0.06
332.578	0.1
332.788	0.19
332.999	0.12
333.209	0.09
333.419	0.03
333.629	0.15
333.84	0.11
334.05	0.07
334.26	0.16
334.47	0.09
334.681	0.16
334.891	0.06
335.101	0.14
335.311	0.16
335.521	0.09
335.732	0.03
335.942	0.16
336.152	0.11
336.362	0.12
336.572	0.09
336.782	0.17
336.992	0.1
337.202	0.07
337.412	0.06
337.622	0.13
337.832	0.09
338.042	0.09
338.252	0.09
338.462	0.07
338.672	0.09
338.882	0.02
339.092	0.05
339.302	0.12
339.511	0.16
339.721	0.05
339.931	0.08
340.141	0.15
340.351	0.15
340.561	0.1
340.77	0.08
340.98	0.11
341.19	0.13
341.4	0.03
341.609	0.02
341.819	0.04
342.029	0.03
342.238	0.09
342.448	0.04
342.658	0.13
342.867	0.1
343.077	0.08
343.286	0.11
343.496	0.13
343.706	0.14
343.915	0.06
344.125	0.1
344.334	0.11
344.544	0.04
344.753	0.03
344.963	0.08
345.172	0.05
345.381	0.06
345.591	0.05
345.8	0.08
346.01	0.16
346.219	0.12
346.428	-0.02
346.638	0.09
346.847	0.1
347.056	0.12
347.266	0.03
347.475	0.08
347.684	0.09
347.893	0.12
348.103	0.09
348.312	0.08
348.521	0.09
348.73	0.06
348.94	0.12
349.149	0.06
349.358	0.08
349.567	0.06
349.776	0.02
349.985	0.07
350.194	0.12
350.403	0.14
350.612	0.03
350.821	0.08
351.03	0.07
351.239	0.05
351.448	0.1
351.657	0.06
351.866	0.16
352.075	0.08
352.284	0.17
352.493	0.01
352.702	0.13
352.911	0.1
353.12	0.11
353.329	0.1
353.538	0.14
353.746	0.11
353.955	0.04
354.164	0.07
354.373	0.09
354.582	0.1
354.79	0.11
354.999	0.11
355.208	0.05
355.416	0.16
355.625	0.06
355.834	0.05
356.042	0.06
356.251	0.1
356.46	0.04
356.668	0.1
356.877	0.18
357.085	0.15
357.294	-0.03
357.503	0.09
357.711	0.06
357.92	0.22
358.128	0.1
358.337	0.05
358.545	0.06
358.754	0.05
358.962	0.12
359.17	0.04
359.379	0.11
359.587	0.1
359.796	0.08
360.004	0.13
360.212	0.13
360.421	0.15
360.629	0.09
360.837	0.08
361.046	0.13
361.254	0.15
361.462	0.07
361.67	0.09
361.879	0.13
362.087	0.16
362.295	0.08
362.503	0.09
362.711	0.05
362.92	0.08
363.128	0.04
363.336	0.04
363.544	0.05
363.752	0.07
363.96	0.06
364.168	0.04
364.376	0.09
364.584	0.07
364.792	0.15
365	0.08
365.208	0.13
365.416	0.15
365.624	0.14
365.832	0.06
366.04	0.15
366.248	0.07
366.456	0.1
366.664	0.1
366.872	0.09
367.079	0.1
367.287	0.07
367.495	0.11
367.703	0.08
367.911	0.09
368.118	0.09
368.326	0.08
368.534	0.03
368.742	0.13
368.949	0.04
369.157	0.07
369.365	0.19
369.572	0.08
369.78	0.05
369.988	0.1
370.195	0.11
370.403	0.12
370.61	0.07
370.818	0.11
371.026	0.17
371.233	0.05
371.441	0.09
371.648	0.02
371.856	0.1
372.063	0.08
372.271	0.08
372.478	0.05
372.685	0.08
372.893	0.15
373.1	0.08
373.308	0.07
373.515	0.2
373.722	0.13
373.93	0.07
374.137	0.13
374.344	0.19
374.552	0.11
374.759	0.14
374.966	0.11
375.173	0.08
375.381	0.13
375.588	0.1
375.795	0.04
376.002	0.1
376.209	0.06
376.417	0.07
376.624	0.06
376.831	0.12
377.038	0.12
377.245	-0
377.452	0.08
377.659	0.08
377.866	0.08
378.073	0.07
378.28	0.09
378.487	0.12
378.694	0.15
378.901	0.06
379.108	0.09
379.315	0.11
379.522	0.17
379.729	0.1
379.936	0.08
380.143	0.09
380.35	0.08
380.557	0.07
380.763	0.08
380.97	0.08
381.177	0.11
381.384	0.11
381.591	0.11
381.797	0.1
382.004	0.11
382.211	0.16
382.418	0.11
382.624	0.12
382.831	0.13
383.038	0.09
383.244	0.11
383.451	0.1
383.658	0.11
383.864	0.06
384.071	0.07
384.277	0.13
384.484	0.03
384.69	0.14
384.897	0.1
385.103	0.14
385.31	0.07
385.516	0.09
385.723	0.05
385.929	0.1
386.136	0.07
386.342	0.09
386.549	0.07
386.755	0.14
386.961	0.12
387.168	0.09
387.374	0.08
387.58	0.15
387.787	0.06
387.993	0.13
388.199	0.12
388.406	0.06
388.612	0.11
388.818	0.06
389.024	0.04
389.231	0.11
389.437	0.19
389.643	0.14
389.849	0.12
390.055	0.13
390.261	0.12
390.467	0.11
390.674	0.07
390.88	0.08
391.086	0.12
391.292	0.09
391.498	0.12
391.704	0.1
391.91	0.11
392.116	0.11
392.322	0.05
392.528	0.15
392.734	0.13
392.94	0.12
393.146	0.08
393.352	0.13
393.557	0.11
393.763	0.07
393.969	0.1
394.175	0.12
394.381	0.1
394.587	0.06
394.792	0.13
394.998	0.17
395.204	0.17
395.41	0.1
395.615	0.16
395.821	0.15
396.027	0.18
396.233	0.06
396.438	0.13
396.644	0.23
396.85	0.14
397.055	0.12
397.261	0.12
397.466	0.12
397.672	0.16
397.878	0.17
398.083	0.15
398.289	0.1
398.494	0.18
398.7	0.12
398.905	0.05
399.111	0.17
399.316	0.06
399.522	0.14
399.727	0.11
399.932	0.11
400.138	0.1
400.343	0.16
400.549	0.09
400.754	0.17
400.959	0.18
401.165	0.09
401.37	0.14
401.575	0.18
401.78	0.1
401.986	0.12
402.191	0.15
402.396	0.14
402.601	0.17
402.807	0.14
403.012	0.15
403.217	0.19
403.422	0.15
403.627	0.2
403.832	0.14
404.037	0.14
404.243	0.2
404.448	0.11
404.653	0.12
404.858	0.19
405.063	0.23
405.268	0.12
405.473	0.17
405.678	0.1
405.883	0.26
406.088	0.19
406.293	0.13
406.498	0.19
406.703	0.22
406.907	0.21
407.112	0.17
407.317	0.26
407.522	0.23
407.727	0.14
407.932	0.2
408.136	0.28
408.341	0.24
408.546	0.21
408.751	0.26
408.956	0.24
409.16	0.28
409.365	0.23
409.57	0.21
409.774	0.23
409.979	0.25
410.184	0.28
410.388	0.21
410.593	0.31
410.798	0.32
411.002	0.29
411.207	0.32
411.411	0.32
411.616	0.28
411.82	0.32
412.025	0.37
412.229	0.32
412.434	0.42
412.638	0.38
412.843	0.37
413.047	0.38
413.252	0.36
413.456	0.4
413.66	0.44
413.865	0.38
414.069	0.54
414.273	0.45
414.478	0.46
414.682	0.4
414.886	0.43
415.091	0.48
415.295	0.46
415.499	0.61
415.703	0.52
415.908	0.58
416.112	0.53
416.316	0.7
416.52	0.66
416.724	0.65
416.929	0.71
417.133	0.84
417.337	0.73
417.541	0.77
417.745	0.85
417.949	0.85
418.153	0.91
418.357	0.88
418.561	1.12
418.765	0.99
418.969	1.19
419.173	1.16
419.377	1.14
419.581	1.31
419.785	1.2
419.989	1.23
420.193	1.38
420.397	1.43
420.601	1.5
420.804	1.49
421.008	1.47
421.212	1.61
421.416	1.62
421.62	1.66
421.823	1.62
422.027	1.86
422.231	1.83
422.435	1.86
422.638	1.89
422.842	1.97
423.046	2.05
423.249	2.22
423.453	2.19
423.657	2.34
423.86	2.28
424.064	2.47
424.268	2.58
424.471	2.63
424.675	2.77
424.878	2.83
425.082	2.86
425.285	3.09
425.489	3.08
425.692	3.16
425.896	3.14
426.099	3.33
426.303	3.54
426.506	3.65
426.71	3.76
426.913	4.06
427.116	4.12
427.32	4.12
427.523	4.25
427.726	4.5
427.93	4.48
428.133	4.79
428.336	4.93
428.54	5.07
428.743	5.26
428.946	5.48
429.149	5.53
429.353	5.6
429.556	5.6
429.759	5.73
429.962	5.84
430.165	6.01
430.368	5.75
430.571	5.83
430.775	5.89
430.978	5.92
431.181	5.9
431.384	6.05
431.587	6.16
431.79	6.48
431.993	6.59
432.196	6.69
432.399	7.04
432.602	7.17
432.805	7.27
433.008	7.77
433.211	7.68
433.414	7.97
433.616	7.95
433.819	7.98
434.022	8.11
434.225	8.35
434.428	8.34
434.631	8.87
434.833	8.63
435.036	8.88
435.239	9.16
435.442	9.27
435.645	9.36
435.847	9.47
436.05	9.87
436.253	10.17
436.455	10.03
436.658	10.06
436.861	10.38
437.063	10.65
437.266	10.56
437.468	11.04
437.671	11.44
437.874	11.59
438.076	11.44
438.279	11.88
438.481	12.02
438.684	13.03
438.886	12.62
439.089	13.01
439.291	13.13
439.494	13.72
439.696	13.79
439.899	14.55
440.101	15.14
440.303	15.3
440.506	16.19
440.708	16.24
440.91	16.51
441.113	16.85
441.315	17.3
441.517	17.09
441.72	17.94
441.922	17.77
442.124	17.83
442.326	18.35
442.529	18.87
442.731	18.95
442.933	19.57
443.135	19.44
443.337	19.64
443.539	20.64
443.742	20.17
443.944	21.25
444.146	21.05
444.348	21.14
444.55	21.38
444.752	21.69
444.954	21.81
445.156	21.92
445.358	22.63
445.56	23.32
445.762	23.07
445.964	23.81
446.166	23.49
446.368	23.59
446.57	23.78
446.772	23.45
446.974	23.37
447.175	23.81
447.377	23.65
447.579	24.28
447.781	23.94
447.983	23.81
448.184	23.39
448.386	23.92
448.588	23.44
448.79	23.4
448.991	23.86
449.193	23.92
449.395	23.08
449.597	22.44
449.798	22.5
450	22.06
450.202	21.91
450.403	21.99
450.605	21.78
450.806	21.13
451.008	21.16
451.21	20.69
451.411	20.11
451.613	19.15
451.814	19.43
452.016	19.24
452.217	18.29
452.419	18.11
452.62	17.77
452.821	17.45
453.023	17.13
453.224	16.7
453.426	16.02
453.627	14.96
453.828	15.1
454.03	15.13
454.231	15.14
454.432	14.87
454.634	14.45
454.835	14.02
455.036	14.01
455.238	13.25
455.439	12.93
455.64	12.57
455.841	12.31
456.042	12.47
456.244	11.89
456.445	11.6
456.646	11.21
456.847	11.06
457.048	10.87
457.249	10.9
457.45	10.46
457.651	9.86
457.852	9.56
458.054	9.26
458.255	9.25
458.456	9.25
458.657	8.98
458.858	8.46
459.058	8.42
459.259	8.34
459.46	8.02
459.661	8.04
459.862	7.98
460.063	7.96
460.264	7.68
460.465	7.45
460.666	7.42
460.866	7.09
461.067	6.75
461.268	6.77
461.469	6.7
461.67	6.5
461.87	6.38
462.071	6.31
462.272	6.22
462.473	6.01
462.673	6.29
462.874	6.17
463.075	6.05
463.275	5.99
463.476	6.07
463.676	5.9
463.877	5.76
464.078	5.68
464.278	5.71
464.479	5.49
464.679	5.3
464.88	5.22
465.08	5.18
465.281	5.05
465.481	4.71
465.682	4.44
465.882	4.47
466.083	4.36
466.283	4.23
466.483	4.13
466.684	3.89
466.884	3.78
467.085	3.76
467.285	3.77
467.485	3.58
467.686	3.47
467.886	3.36
468.086	3.3
468.286	3.27
468.487	3.25
468.687	3.04
468.887	2.95
469.087	3.15
469.287	2.99
469.488	2.74
469.688	2.81
469.888	2.88
470.088	2.71
470.288	2.62
470.488	2.57
470.688	2.37
470.888	2.42
471.088	2.19
471.288	2.25
471.488	2.26
471.688	2.18
471.888	2.05
472.088	2.16
472.288	2.09
472.488	1.95
472.688	1.91
472.888	1.92
473.088	1.88
473.288	1.75
473.488	1.71
473.688	1.84
473.887	1.7
474.087	1.66
474.287	1.62
474.487	1.56
474.687	1.61
474.886	1.51
475.086	1.45
475.286	1.53
475.486	1.37
475.685	1.38
475.885	1.32
476.085	1.37
476.284	1.35
476.484	1.35
476.684	1.27
476.883	1.33
477.083	1.18
477.282	1.15
477.482	1.21
477.681	1.15
477.881	1.05
478.08	1.1
478.28	1.06
478.479	1.03
478.679	1.1
478.878	0.98
479.078	0.95
479.277	0.96
479.477	0.91
479.676	0.93
479.875	0.9
480.075	0.83
480.274	0.9
480.473	0.88
480.673	0.82
480.872	0.86
481.071	0.83
481.271	0.87
481.47	0.73
481.669	0.71
481.868	0.7
482.067	0.71
482.267	0.63
482.466	0.66
482.665	0.61
482.864	0.6
483.063	0.59
483.262	0.65
483.461	0.64
483.661	0.63
483.86	0.59
484.059	0.57
484.258	0.58
484.457	0.55
484.656	0.54
484.855	0.6
485.054	0.47
485.253	0.45
485.452	0.42
485.651	0.49
485.849	0.47
486.048	0.44
486.247	0.42
486.446	0.44
486.645	0.37
486.844	0.38
487.043	0.39
487.241	0.4
487.44	0.36
487.639	0.39
487.838	0.39
488.037	0.34
488.235	0.42
488.434	0.36
488.633	0.33
488.831	0.36
489.03	0.38
489.229	0.32
489.427	0.33
489.626	0.37
489.825	0.32
490.023	0.29
490.222	0.26
490.42	0.31
490.619	0.28
490.817	0.26
491.016	0.26
491.214	0.3
491.413	0.26
491.611	0.24
491.81	0.25
492.008	0.24
492.207	0.27
492.405	0.24
492.604	0.18
492.802	0.23
493	0.22
493.199	0.2
493.397	0.22
493.595	0.21
493.794	0.2
493.992	0.24
494.19	0.19
494.388	0.21
494.587	0.2
494.785	0.18
494.983	0.15
495.181	0.2
495.379	0.18
495.578	0.18
495.776	0.19
495.974	0.19
496.172	0.17
496.37	0.14
496.568	0.13
496.766	0.15
496.964	0.19
497.162	0.18
497.36	0.13
497.558	0.15
497.756	0.15
497.954	0.14
498.152	0.15
498.35	0.14
498.548	0.14
498.746	0.15
498.944	0.1
499.142	0.12
499.34	0.11
499.538	0.13
499.736	0.11
499.933	0.18
500.131	0.16
500.329	0.13
500.527	0.15
500.725	0.17
500.922	0.13
501.12	0.13
501.318	0.14
501.516	0.1
501.713	0.14
501.911	0.09
502.109	0.09
502.306	0.11
502.504	0.1
502.701	0.09
502.899	0.11
503.097	0.14
503.294	0.11
503.492	0.12
503.689	0.11
503.887	0.13
504.084	0.17
504.282	0.1
504.479	0.04
504.677	0.1
504.874	0.07
505.072	0.09
505.269	0.07
505.466	0.09
505.664	0.09
505.861	0.05
506.059	0.07
506.256	0.1
506.453	0.08
506.651	0.13
506.848	0.09
507.045	0.09
507.242	0.09
507.44	0.07
507.637	0.07
507.834	0.08
508.031	0.12
508.229	0.05
508.426	0.09
508.623	0.09
508.82	0.06
509.017	0.06
509.214	0.07
509.411	0.09
509.608	0.03
509.805	0.09
510.003	0.06
510.2	0.05
510.397	0.12
510.594	0.06
510.791	0.03
510.988	0.06
511.184	0.11
511.381	0.08
511.578	0.05
511.775	0.08
511.972	0.05
512.169	0.06
512.366	0.08
512.563	0.08
512.76	0.07
512.956	0.09
513.153	0.07
513.35	0.08
513.547	0.05
513.744	0.05
513.94	0.04
514.137	0.08
514.334	0.09
514.53	0.07
514.727	0.07
514.924	0.1
515.12	0.04
515.317	0.04
515.514	0.05
515.71	0.04
515.907	0.04
516.103	0.04
516.3	0.09
516.497	0.06
516.693	0.1
516.89	0.05
517.086	0.04
517.283	0.12
517.479	0.06
517.676	0.06
517.872	0.06
518.068	0.06
518.265	0.06
518.461	0.05
518.658	0
518.854	0.08
519.05	0.05
519.247	0.04
519.443	0.06
519.639	0.06
519.836	0.07
520.032	0.04
520.228	0.04
520.424	0.09
520.621	0.05
520.817	0.04
521.013	0.07
521.209	0.06
521.405	0.09
521.601	0.05
521.798	0.04
521.994	0.1
522.19	0.03
522.386	0.01
522.582	0.06
522.778	0.06
522.974	0.05
523.17	0.03
523.366	0.08
523.562	0.08
523.758	0.05
523.954	0.03
524.15	0.03
524.346	0.07
524.542	0.06
524.738	0.05
524.934	0.04
525.129	0.06
525.325	0.05
525.521	0.05
525.717	0.03
525.913	0.05
526.109	0.04
526.304	0.04
526.5	0.07
526.696	0.08
526.892	0.05
527.087	0.06
527.283	0.03
527.479	0.07
527.674	0.02
527.87	0.04
528.066	0.03
528.261	0.07
528.457	0.03
528.653	0.03
528.848	0.05
529.044	0.05
529.239	0.05
529.435	0.09
529.63	0.03
529.826	0.1
530.021	0.06
530.217	0.07
530.412	0.03
530.608	0.04
530.803	0.06
530.999	0.03
531.194	0
531.389	0.04
531.585	-0.01
531.78	0.04
531.975	0.05
532.171	0.07
532.366	0.02
532.561	0.05
532.757	0.03
532.952	0.05
533.147	0.06
533.342	0.03
533.538	0.02
533.733	0.07
533.928	0.04
534.123	0.02
534.318	0
534.513	0.05
534.709	0.04
534.904	0.02
535.099	0.04
535.294	0.04
535.489	0.04
535.684	0.03
535.879	0.02
536.074	0.07
536.269	0.02
536.464	0.05
536.659	0.03
536.854	0.02
537.049	0.06
537.244	0.05
537.439	0.03
537.634	0.07
537.828	0.03
538.023	0.03
538.218	-0
538.413	0.06
538.608	0.02
538.803	0.07
538.997	-0
539.192	0.07
539.387	0.04
539.582	0.04
539.776	0.06
539.971	0.04
540.166	0.04
540.36	0.02
540.555	0.03
540.75	0.02
540.944	0.03
541.139	0
541.334	0.04
541.528	0.07
541.723	0.07
541.917	0.03
542.112	0.01
542.306	0.03
542.501	0.03
542.695	0.03
542.89	0.02
543.084	0.04
543.279	0.04
543.473	0.03
543.668	0.04
543.862	0.04
544.056	0.05
544.251	0.05
544.445	0.05
544.64	0.01
544.834	0
545.028	0.05
545.222	0.03
545.417	0.05
545.611	0.02
545.805	0.04
546	0.03
546.194	0.03
546.388	0.02
546.582	0.05
546.776	0.04
546.97	0.04
547.165	0.07
547.359	0.06
547.553	0.02
547.747	0.04
547.941	0.05
548.135	0.03
548.329	0.07
548.523	0.04
548.717	0.03
548.911	0.01
549.105	0.04
549.299	0.03
549.493	0.07
549.687	0.03
549.881	0.05
550.075	0.02
550.269	0.01
550.463	0.05
550.657	0.01
550.85	0.03
551.044	-0.01
551.238	0.05
551.432	0.03
551.626	0
551.82	0.04
552.013	0
552.207	0.03
552.401	0.05
552.594	0.03
552.788	0.03
552.982	0.03
553.176	0.02
553.369	0.05
553.563	0.05
553.756	-0.02
553.95	-0.01
554.144	0.03
554.337	0.06
554.531	0.05
554.724	0.05
554.918	0.03
555.111	0.04
555.305	0.04
555.498	0.08
555.692	0.05
555.885	0.02
556.079	0.03
556.272	0.03
556.466	0.06
556.659	0.04
556.852	0
557.046	0.03
557.239	0.06
557.432	0
557.626	0.02
557.819	0.03
558.012	0.07
558.206	0.02
558.399	0.03
558.592	0.03
558.785	0.05
558.979	0.04
559.172	0.05
559.365	0.05
559.558	0.03
559.751	0.02
559.944	0.04
560.138	0.02
560.331	0.03
560.524	0.01
560.717	0.04
560.91	0.03
561.103	0.05
561.296	0.05
561.489	0.04
561.682	0.02
561.875	0.07
562.068	0.05
562.261	0.05
562.454	0.08
562.647	0.05
562.84	0.05
563.032	0.02
563.225	0.03
563.418	0.01
563.611	0.03
563.804	0.04
563.997	-0.01
564.19	-0.02
564.382	0.03
564.575	0.03
564.768	0.03
564.961	0.05
565.153	0.02
565.346	0.05
565.539	0.07
565.731	0.06
565.924	0.04
566.117	0.03
566.309	0.03
566.502	0.04
566.695	0.02
566.887	0.05
567.08	0.02
567.272	0.02
567.465	0
567.657	0.03
567.85	0.06
568.042	0.06
568.235	0.05
568.427	-0.01
568.62	0.02
568.812	0.04
569.005	0.01
569.197	-0.02
569.389	0.02
569.582	0.04
569.774	0.03
569.966	-0.01
570.159	-0.01
570.351	0.03
570.543	0.02
570.736	0.01
570.928	-0
571.12	0.04
571.312	0
571.505	0.01
571.697	0.04
571.889	0.01
572.081	0.02
572.273	-0
572.465	0.07
572.658	0.02
572.85	0.03
573.042	0
573.234	0.02
573.426	0.07
573.618	0
573.81	0.03
574.002	0.07
574.194	0.06
574.386	-0.02
574.578	-0.05
574.77	0.02
574.962	0.03
575.154	0
575.346	0.02
575.538	0.06
575.729	-0.01
575.921	0.01
576.113	0.02
576.305	0.06
576.497	0.02
576.689	0.02
576.88	-0.02
577.072	0.06
577.264	0.01
577.456	0.02
577.647	-0.04
577.839	0.04
578.031	0.06
578.223	0
578.414	-0.01
578.606	0.04
578.798	0.05
578.989	0
579.181	0.01
579.372	0.02
579.564	0.02
579.755	0.03
579.947	0.03
580.139	0.04
580.33	-0.02
580.522	0.03
580.713	-0.06
580.905	-0
581.096	0.06
581.287	0.02
581.479	0.01
581.67	0.06
581.862	0.03
582.053	0.02
582.244	-0.03
582.436	0.01
582.627	0.04
582.818	0.01
583.01	0
583.201	0.04
583.392	0.04
583.583	0.03
583.775	0
583.966	0.01
584.157	0.01
584.348	-0.01
584.54	0
584.731	0.04
584.922	0.03
585.113	-0.02
585.304	0.03
585.495	0.06
585.686	0.01
585.877	0.04
586.068	0.01
586.259	0.04
586.45	0.03
586.641	0
586.832	-0.03
587.023	0.03
587.214	0.01
587.405	0.03
587.596	-0.01
587.787	0.08
587.978	0.02
588.169	-0.01
588.36	-0
588.551	0.05
588.742	0.01
588.932	0.01
589.123	0.02
589.314	0.04
589.505	0.04
589.696	0.04
589.886	-0
590.077	-0.01
590.268	0.04
590.458	-0.03
590.649	-0.02
590.84	0.05
591.03	-0.01
591.221	-0.01
591.412	-0.01
591.602	0.04
591.793	0.06
591.984	-0
592.174	0.02
592.365	0.1
592.555	-0
592.746	0.05
592.936	0.05
593.127	0.03
593.317	0.06
593.508	0.02
593.698	0.02
593.889	0.01
594.079	0.02
594.269	0.02
594.46	0
594.65	0.01
594.84	0.02
595.031	0.01
595.221	0
595.411	0
595.602	0.06
595.792	0.01
595.982	0
596.172	0.07
596.363	0.03
596.553	0.04
596.743	0.01
596.933	0.03
597.123	0.07
597.314	0.01
597.504	-0.01
597.694	0.06
597.884	0.04
598.074	0.01
598.264	0.03
598.454	0.05
598.644	0.04
598.834	0.01
599.024	-0.01
599.214	0.02
599.404	0.04
599.594	0
599.784	-0
599.974	0.06
600.164	0.05
600.354	-0.01
600.544	0
600.734	-0
600.924	0.08
601.114	-0.01
601.303	0.01
601.493	0.04
601.683	0.03
601.873	0.02
602.063	-0.02
602.252	0.04
602.442	-0.03
602.632	-0.02
602.821	-0.02
603.011	0.05
603.201	0.02
603.39	0.01
603.58	-0
603.77	0.03
603.959	0.05
604.149	-0
604.339	-0
604.528	0.06
604.718	0.04
604.907	0
605.097	0.02
605.286	-0.03
605.476	0.05
605.665	0.03
605.855	-0
606.044	0.05
606.234	0.02
606.423	0.03
606.612	-0.02
606.802	0.02
606.991	0.07
607.181	0.03
607.37	-0.03
607.559	0.01
607.749	-0.01
607.938	0.03
608.127	-0
608.316	0.01
608.506	0.03
608.695	-0.02
608.884	-0
609.073	0.02
609.263	0.03
609.452	0.03
609.641	0.03
609.83	-0.03
610.019	0.03
610.208	-0.01
610.397	0.02
610.586	0.05
610.775	-0.03
610.965	0
611.154	-0.01
611.343	0.03
611.532	0.05
611.721	0.01
611.91	0
612.099	0.02
612.287	0
612.476	-0
612.665	0.03
612.854	0.01
613.043	0.05
613.232	0.02
613.421	-0.04
613.61	-0.01
613.798	-0
613.987	0.04
614.176	0.04
614.365	0.02
614.554	0.03
614.742	0.04
614.931	0
615.12	0.07
615.309	0.02
615.497	0.03
615.686	-0.02
615.875	-0
616.063	0.01
616.252	-0
616.44	-0
616.629	0.05
616.818	0.04
617.006	0.01
617.195	0.02
617.383	0.02
617.572	0.03
617.76	-0.01
617.949	0.02
618.137	0.03
618.326	0.04
618.514	0.02
618.703	0.01
618.891	0.05
619.079	-0.03
619.268	0.02
619.456	-0.02
619.644	0.04
619.833	0.01
620.021	0
620.209	-0.02
620.398	0.06
620.586	0.02
620.774	0.04
620.962	0.01
621.151	0.07
621.339	0.04
621.527	-0.03
621.715	-0.02
621.903	-0.01
622.092	-0.02
622.28	0.03
622.468	0
622.656	0.05
622.844	0.06
623.032	-0
623.22	-0.04
623.408	0.06
623.596	0.02
623.784	0.03
623.972	0.01
624.16	-0
624.348	0.07
624.536	-0.01
624.724	-0.01
624.912	0.07
625.1	0.05
625.288	-0.01
625.476	-0.03
625.664	0.04
625.851	-0
626.039	0.03
626.227	0.02
626.415	0
626.603	-0.03
626.79	0.01
626.978	0.01
627.166	0.04
627.354	0.02
627.541	0.01
627.729	-0.03
627.917	0.06
628.104	0.04
628.292	0.02
628.48	0.01
628.667	0.05
628.855	-0
629.042	0.05
629.23	-0.01
629.418	0.01
629.605	0.01
629.793	-0.03
629.98	-0.01
630.168	-0.02
630.355	0.03
630.543	-0
630.73	-0.02
630.917	0.04
631.105	0.08
631.292	-0.01
631.48	0.01
631.667	0.06
631.854	0.03
632.042	0.01
632.229	-0.05
632.416	0.03
632.604	0.02
632.791	-0.04
632.978	0.06
633.165	0.04
633.353	0.05
633.54	0.04
633.727	-0.04
633.914	-0.01
634.101	-0.06
634.289	0.06
634.476	-0
634.663	0.01
634.85	0.03
635.037	-0.02
635.224	-0.03
635.411	0.07
635.598	0.06
635.785	0.01
635.972	0.01
636.159	0.06
636.346	0.02
636.533	-0.01
636.72	-0.01
636.907	-0.01
637.094	0.05
637.281	-0
637.468	0.03
637.655	0.01
637.842	0
638.029	-0.01
638.215	0.06
638.402	0
638.589	-0.01
638.776	-0.01
638.963	0.02
639.149	0.03
639.336	0.09
639.523	0
639.709	0.03
639.896	-0.02
640.083	0.06
640.27	0.05
640.456	-0
640.643	0.03
640.829	-0.05
641.016	0
641.203	-0.03
641.389	0.05
641.576	0.01
641.762	-0.01
641.949	-0.01
642.135	0.02
642.322	0.03
642.508	-0.04
642.695	0.02
642.881	0.02
643.068	0.02
643.254	0.04
643.441	0.09
643.627	0.01
643.813	-0.05
644	0.03
644.186	-0.05
644.372	0.02
644.559	0.04
644.745	0.01
644.931	-0
645.118	0.01
645.304	0.05
645.49	-0
645.676	0.03
645.862	0.01
646.049	0.04
646.235	0.03
646.421	0.08
646.607	0.07
646.793	-0.03
646.979	-0.01
647.165	0
647.352	0.01
647.538	0.06
647.724	0.02
647.91	0.04
648.096	0.05
648.282	0.09
648.468	-0
648.654	0.01
648.84	0.02
649.026	0.05
649.212	0.03
649.397	-0.03
649.583	-0.02
649.769	0.04
649.955	0
650.141	0.04
650.327	0.1
650.513	0
650.698	0.04
650.884	-0.05
651.07	0.03
651.256	0.06
651.442	0.01
651.627	-0.01
651.813	0.03
651.999	0.02
652.184	-0.02
652.37	-0.03
652.556	-0.03
652.741	0.04
652.927	-0.04
653.113	-0.03
653.298	0.02
653.484	0.01
653.669	-0.05
653.855	0.03
654.04	0.04
654.226	0.02
654.412	-0.01
654.597	-0.02
654.782	0.02
654.968	0.07
655.153	0.03
655.339	-0.05
655.524	-0.01
655.71	0.07
655.895	-0.02
656.08	0.02
656.266	0.09
656.451	0.03
656.636	-0.04
656.822	-0
657.007	-0.05
657.192	-0.01
657.378	-0.04
657.563	0.03
657.748	0.06
657.933	0.06
658.118	0.01
658.304	-0.01
658.489	0.04
658.674	0.01
658.859	-0.05
659.044	0.03
659.229	-0
659.414	0.01
659.599	0.01
659.785	-0.05
659.97	-0.01
660.155	0.06
660.34	0.02
660.525	-0.02
660.71	-0.01
660.895	0.03
661.08	0.02
661.264	-0.01
661.449	0.06
661.634	0.05
661.819	0.03
662.004	0.02
662.189	-0.06
662.374	-0.05
662.559	-0.05
662.743	-0.06
662.928	0.02
663.113	0.02
663.298	-0.05
663.483	-0.02
663.667	0.02
663.852	-0.05
664.037	0.07
664.221	0
664.406	0.03
664.591	0.08
664.775	0.02
664.96	-0.05
665.145	0.06
665.329	0.07
665.514	-0.02
665.698	0.02
665.883	-0.03
666.068	0.07
666.252	0
666.437	0
666.621	0.01
666.806	0.02
666.99	0.02
667.174	-0.04
667.359	0.06
667.543	0.01
667.728	-0
667.912	-0.06
668.096	0.03
668.281	0.04
668.465	-0
668.649	-0.01
668.834	0.02
669.018	0.01
669.202	0
669.387	0.01
669.571	0.05
669.755	-0.04
669.939	-0.01
670.124	0.01
670.308	0.07
670.492	0.05
670.676	0.03
670.86	-0.01
671.044	-0.04
671.228	0.05
671.413	-0.01
671.597	-0.01
671.781	0.02
671.965	0.07
672.149	-0.02
672.333	-0.01
672.517	0.02
672.701	0.05
672.885	0.02
673.069	-0.05
673.253	0.05
673.437	-0
673.621	-0.04
673.804	0
673.988	0.02
674.172	0.04
674.356	-0.04
674.54	-0.01
674.724	0.1
674.908	0
675.091	0.08
675.275	-0.04
675.459	0.06
675.643	0.09
675.826	0.02
676.01	0
676.194	0.01
676.377	0.06
676.561	-0.01
676.745	-0.01
676.928	0.03
677.112	0.08
677.296	-0.03
677.479	-0.05
677.663	-0.01
677.846	0.06
678.03	-0.02
678.213	-0.01
678.397	0.05
678.58	0
678.764	-0.04
678.947	-0.04
679.131	-0.05
679.314	0.09
679.498	0.02
679.681	0.02
679.865	0.05
680.048	0.04
680.231	0.03
680.415	-0.01
680.598	-0.04
680.781	-0.01
680.965	-0.01
681.148	0.01
681.331	0.01
681.514	0.04
681.698	-0.03
681.881	0.07
682.064	0.06
682.247	0.07
682.43	-0.04
682.614	0.04
682.797	0.04
682.98	0.06
683.163	-0.03
683.346	-0.01
683.529	-0.02
683.712	-0.03
683.895	0.02
684.078	-0.09
684.261	0.04
684.444	0
684.627	0.04
684.81	-0.06
684.993	0.03
685.176	0.04
685.359	-0.01
685.542	0.04
685.725	0.1
685.908	0.01
686.091	-0.03
686.274	0.03
686.457	0.03
686.639	-0.02
686.822	0.08
687.005	-0.02
687.188	0.08
687.371	0.09
687.553	0.02
687.736	0.06
687.919	0.1
688.102	0.08
688.284	-0.05
688.467	0.03
688.65	-0.03
688.832	-0.02
689.015	-0.01
689.197	0
689.38	0.09
689.563	0.09
689.745	-0.01
689.928	-0.02
690.11	-0
690.293	0.02
690.475	-0.05
690.658	0.04
690.84	-0
691.023	-0
691.205	-0
691.388	0.01
691.57	0.06
691.752	0.07
691.935	-0.04
692.117	-0.04
692.3	0.06
692.482	0.04
692.664	0.03
692.847	0.08
693.029	0.05
693.211	0.03
693.393	0.01
693.576	-0.03
693.758	0.02
693.94	-0.02
694.122	0.02
694.304	0.02
694.487	0
694.669	0.12
694.851	0
695.033	-0.02
695.215	-0.05
695.397	-0.05
695.579	0.07
695.761	-0.07
695.943	-0.06
696.125	0.09
696.308	0.04
696.49	-0.11
696.671	0.16
696.853	-0.02
697.035	0.12
697.217	0.04
697.399	0.02
697.581	-0.01
697.763	-0.03
697.945	-0.06
698.127	-0.03
698.309	0.07
698.491	0.04
698.672	0.07
698.854	0.04
699.036	0.09
699.218	-0.04
699.399	0.07
699.581	0.08
699.763	0.02
699.945	-0.07
700.126	-0.01
700.308	0.03
700.49	0.02
700.671	-0.03
700.853	0
701.035	-0.03
701.216	0.05
701.398	-0.04
701.579	-0
701.761	0.05
701.943	0
702.124	-0.01
702.306	-0.01
702.487	0.18
702.669	0.03
702.85	-0.05
703.031	-0.05
703.213	0.15
703.394	0.1
703.576	0.04
703.757	0.08
703.938	0.06
704.12	0.22
704.301	0.05
704.483	-0
704.664	0.1
704.845	0.12
705.026	0.05
705.208	0.01
705.389	0.07
705.57	0.05
705.751	-0.01
705.933	0.02
706.114	0.07
706.295	0.04
706.476	-0.03
706.657	0.1
706.838	0.09
707.02	0.1
707.201	-0
707.382	-0
707.563	0.03
707.744	-0
707.925	-0.1
708.106	0
708.287	0.03
708.468	0.12
708.649	0.02
708.83	0.06
709.011	-0.03
709.192	0.07
709.373	-0.07
709.554	0.01
709.734	0.04
709.915	-0.04
710.096	-0.02
710.277	-0.09
710.458	0.07
710.639	0.06
710.819	-0.01
711	-0
711.181	0.04
711.362	0.07
711.542	0.05
711.723	-0.02
711.904	0.03
712.085	0.08
712.265	0.03
712.446	-0.03
712.627	-0
712.807	0
712.988	0.06
713.168	-0.06
713.349	0.12
713.53	-0.16
713.71	-0.03
713.891	-0.05
714.071	0
714.252	-0.02
714.432	-0.03
714.613	-0.11
714.793	0.01
714.974	0.1
715.154	0.1
715.334	0.08
715.515	0.12
715.695	-0.04
715.876	0.03
716.056	-0
716.236	-0.03
716.417	0.01
716.597	-0.02
716.777	0.22
716.957	0.03
717.138	0.06
717.318	0.03
717.498	-0.07
717.678	0.07
717.859	0.06
718.039	-0.05
718.219	0.02
718.399	0.06
718.579	-0.02
718.759	-0
718.939	0.08
719.12	0.01
719.3	0.01
719.48	-0.07
719.66	-0.09
719.84	0.19
720.02	-0
720.2	0.01
720.38	0.03
720.56	0.16
720.74	0.06
720.92	-0.01
721.1	0.07
721.279	0.16
721.459	0.04
721.639	-0.14
721.819	0.04
721.999	0.05
722.179	0.1
722.359	-0.06
722.538	-0.01
722.718	0.02
722.898	-0.01
723.078	-0
723.257	0
723.437	0.06
723.617	-0.03
723.797	0.02
723.976	-0.05
724.156	0.07
724.336	0.1
724.515	0.14
724.695	-0.07
724.874	0.04
725.054	0.13
725.234	-0.05
725.413	0.09
725.593	-0.03
725.772	0.05
725.952	-0.05
726.131	0.06
726.311	0.07
726.49	0.05
726.67	-0.08
726.849	-0.05
727.028	0.01
727.208	0.01
727.387	0.01
727.567	-0.07
727.746	0.02
727.925	-0.02
728.105	-0.11
728.284	-0.01
728.463	0.03
728.643	0.1
728.822	-0.13
729.001	0.07
729.18	0.05
729.359	0.07
729.539	0.09
729.718	0.09
729.897	0.05
730.076	-0
730.255	-0.11
730.434	0
730.614	0.08
730.793	0.08
730.972	0.01
731.151	0.1
731.33	0.12
731.509	0.04
731.688	0.01
731.867	0.02
732.046	-0.09
732.225	0.13
732.404	-0.01
732.583	0
732.762	0.04
732.941	0.1
733.12	0.08
733.298	-0.03
733.477	0.21
733.656	-0.08
733.835	-0.06
734.014	0.06
734.193	0.08
734.371	0.14
734.55	0.09
734.729	-0.11
734.908	0.16
735.086	-0
735.265	0.08
735.444	-0.19
735.623	0.02
735.801	-0
735.98	-0.03
736.159	-0.02
736.337	0.02
736.516	0.11
736.694	-0
736.873	0.05
737.052	0.14
737.23	0.26
737.409	-0.01
737.587	0.15
737.766	-0.12
737.944	-0.02
738.123	0.09
738.301	0.07
738.479	0.06
738.658	0.02
738.836	-0.09
739.015	0.11
739.193	0.19
739.371	-0.03
739.55	-0.09
739.728	0.1
739.906	0.09
740.085	0.16
740.263	0.08
740.441	-0.21
740.62	0.22
740.798	0.19
740.976	-0.07
741.154	0.01
741.332	0.13
741.511	-0.03
741.689	0.06
741.867	0.12
742.045	0.07
742.223	0
742.401	-0.07
742.579	0.06
742.757	0.19
742.935	-0.16
743.114	-0.1
743.292	0.02
743.47	0.06
743.648	0.01
743.826	0.04
744.004	0.07
744.181	0.16
744.359	0.06
744.537	0.06
744.715	0.02
744.893	0.03
745.071	-0.02
745.249	0.01
745.427	-0.02
745.605	0.09
745.782	0.03
745.96	0.14
746.138	0.05
746.316	0.1
746.493	0.04
746.671	0.04
746.849	-0.05
747.027	0.13
747.204	-0
747.382	0.1
747.56	-0.05
747.737	0.04
747.915	-0.01
748.093	0.04
748.27	-0
748.448	0.01
748.625	-0.15
748.803	-0.04
748.98	-0.04
749.158	0.09
749.335	0.1
749.513	0
749.69	-0.04
749.868	0.07
750.045	0.04
750.223	-0.01
750.4	-0.25
750.578	0.21
750.755	0.09
750.932	-0.2
751.11	0.17
751.287	-0.03
751.464	0.18
751.642	-0.1
751.819	0.11
751.996	0.08
752.173	0.02
752.351	-0.08
752.528	0.05
752.705	0.04
752.882	-0.02
753.06	0.02
753.237	0.09
753.414	0.2
753.591	0.16
753.768	-0.09
753.945	-0.03
754.122	0
754.299	0.02
754.476	-0.14
754.654	-0.03
754.831	0.19
755.008	0.07
755.185	-0.02
755.362	-0.17
755.539	0.19
755.716	0.02
755.892	0.02
756.069	-0.04
756.246	-0.07
756.423	-0.02
756.6	0.14
756.777	-0
756.954	0.12
757.131	-0.01
757.307	-0.03
757.484	0
757.661	0.13
757.838	0.09
758.015	-0.07
758.191	0.06
758.368	0.04
758.545	0.23
758.721	0.14
758.898	-0.04
759.075	0.04
759.251	0.07
759.428	0.07
759.605	-0.1
759.781	0.04
759.958	0.08
760.134	0.11
760.311	-0.08
760.488	0.25
760.664	0.14
760.841	-0.02
761.017	-0.05
761.194	0.06
761.37	0.17
761.547	0.01
761.723	0.05
761.899	0.05
762.076	-0.04
762.252	-0.12
762.429	-0.06
762.605	0.16
762.781	-0.03
762.958	0.08
763.134	-0.01
763.31	0.09
763.486	0.16
763.663	-0.14
763.839	0.1
764.015	-0.15
764.191	-0.05
764.368	0.03
764.544	-0.09
764.72	0.03
764.896	0.1
765.072	0.05
765.248	-0.04
765.425	0.01
765.601	0.08
765.777	0.09
765.953	-0.13
766.129	0
766.305	0.01
766.481	0.15
766.657	0.04
766.833	0.13
767.009	-0.13
767.185	-0.05
767.361	0.09
767.537	-0.08
767.713	0.2
767.889	-0.13
768.065	0.05
768.24	0.17
768.416	0.19
768.592	-0.11
768.768	0.07
768.944	0.1
769.12	-0.06
769.295	0.06
769.471	0.17
769.647	-0.02
769.823	0.15
769.998	0.02
770.174	-0.15
770.35	0.4
770.525	0.34
770.701	0.16
770.877	0.06
771.052	-0.01
771.228	0.2
771.403	0.01
771.579	0.18
771.755	0.36
771.93	-0.1
772.106	-0.23
772.281	-0.08
772.457	0.15
772.632	0.16
772.808	-0.2
772.983	-0.08
773.159	-0.09
773.334	0.25
773.509	-0.11
773.685	-0.08
773.86	0.38
774.036	0.19
774.211	-0.03
774.386	-0.01
774.562	0.05
774.737	0.1
774.912	-0.07
775.087	0.12
775.263	-0.03
775.438	0.14
775.613	-0.06
775.788	-0.05
775.964	0.18
776.139	0.54
776.314	-0.13
776.489	0.05
776.664	0.2
776.839	-0.13
777.014	0.31
777.19	0.09
777.365	0.42
777.54	0.32
777.715	0.06
777.89	0.06
778.065	-0.14
778.24	0.05
778.415	0.18
778.59	-0.15
778.765	-0
778.94	-0.01
779.115	-0.1
779.289	-0.17
779.464	0.02
779.639	-0.02
779.814	-0.18
779.989	-0.17
780.164	0.39
780.339	-0.01
780.513	-0.14
780.688	-0.26
780.863	-0.01
781.038	0.08
781.212	-0.16
781.387	0.17
781.562	0.49
781.737	-0.05
781.911	0.11
782.086	-0.11
782.261	0.18
782.435	0.46
782.61	-0.01
782.784	-0.09
782.959	0.21
783.134	0.12
783.308	-0.17
783.483	-0.06
783.657	0.22
783.832	0.17
784.006	-0.48
784.181	-0.09
784.355	0.2
784.53	-0.18
784.704	-0.05
784.878	0.26
785.053	0.35
785.227	0.22
785.402	0.44
785.576	-0.22
785.75	-0.01
785.925	-0.12
786.099	0.15
786.273	0.26
786.448	0.21
786.622	0.29
786.796	0.17
786.97	0.01
787.145	0.85
787.319	-0.19
787.493	0.02
787.667	-0.17
787.841	-0.11
788.015	0.33
788.19	-0.05
788.364	0.02
788.538	0.08
788.712	0.27
788.886	-0.03
789.06	0.2
789.234	0.05
789.408	-0.2
789.582	0.04
789.756	0.03
789.93	0.13
790.104	-0.13
790.278	-0.27
790.452	-0.16
790.626	0.11
790.8	-0.06
790.973	0.44
791.147	0.43
791.321	0.21
791.495	0.31
791.669	0.23
791.843	-0.04
792.016	0.09
792.19	0.39
792.364	-0.15
792.538	0.56
792.711	0.51
792.885	-0.12
793.059	-0.22
793.233	-0.03
793.406	0.28
793.58	0
793.754	0.02
793.927	-0.03
794.101	0.33
794.274	-0.15
794.448	0.26
794.622	-0.21
794.795	0.43
794.969	-0.33
795.142	0.43
795.316	-0.11
795.489	-0.03
795.663	0.45
795.836	0.36
796.009	-0.08
796.183	0.47
796.356	-0.16
796.53	-0.05
796.703	0.01
796.876	0.71
797.05	-0.04
797.223	0.05
797.396	0.22
797.57	0.35
797.743	0.38
797.916	-0.08
798.09	0.14
798.263	0.4
798.436	0.25
798.609	0.13
798.782	0.01
798.956	0.35
799.129	-0
799.302	0.04
799.475	-0.17
799.648	-0.1
799.821	0.11
799.994	-0.05
800.167	-0.35
800.34	-0.05
800.514	0.11
800.687	-0.03
800.86	0.1
801.033	0.19
801.206	0.13
801.379	-0.48
801.551	0.4
801.724	-0.11
801.897	0.56
802.07	-0.01
802.243	-0.53
802.416	0.16
802.589	0.04
802.762	0.09
802.935	0.04
803.107	0.27
803.28	0.11
803.453	0.16
803.626	-0.18
803.798	0.2
803.971	0.02
804.144	-0.17
804.317	0.12
804.489	0.37
804.662	0.11
804.835	0.29
805.007	-0.35
805.18	0.6
805.353	0.24
805.525	-0.03
805.698	-0.21
805.87	-0.15
806.043	0.37
806.215	-0.3
806.388	0.02
806.56	0.26
806.733	0.55
806.905	0.25
807.078	-0.09
807.25	-0.29
807.423	0.42
807.595	-0.14
807.768	0.06
807.94	0.05
808.112	0.04
808.285	0.04
808.457	-0.24
808.629	0.22
808.802	0.16
808.974	-0.07
809.146	-0.25
809.318	-0.01
809.491	-0.21
809.663	-0.11
809.835	-0.34
810.007	0.21
810.18	0
810.352	-0.45
810.524	-0.15
810.696	0.2
810.868	0.43
811.04	0.09
811.212	-0.08
811.384	0.48
811.556	0.05
811.728	0.05
811.901	0.78
812.073	-0.03
812.245	0.42
812.417	0.33
812.589	-0.89
812.76	0.36
812.932	0.39
813.104	-0.2
813.276	-0.02
813.448	0.74
813.62	-0.2
813.792	0.11
813.964	-0.15
814.136	-0.17
814.307	-0.03
814.479	-0.24
814.651	-0.06
814.823	0.8
814.995	-0.1
815.166	0.34
815.338	-0.36
815.51	-0.17
815.681	0.59
815.853	0.09
816.025	-0.36
816.196	0.7
816.368	0.45
816.54	-0.22
816.711	-0.29
816.883	0.35
817.054	0.76
817.226	-0.68
817.398	0.57
817.569	0.15
817.741	0.05
817.912	0.07
818.084	0.17
818.255	0.12
818.426	-0.24
818.598	-0.06
818.769	0.09
818.941	0.23
819.112	0.71
819.283	0.01
819.455	-0.22
819.626	-0.33
819.798	0.25
819.969	-0.21
820.14	-0.11
820.311	-0.28
820.483	0.25
820.654	0.22
820.825	0.26
820.996	-0.49
821.168	-0
821.339	-0.1
821.51	-0.36
821.681	-0.19
821.852	0.07
822.023	-0.55
822.195	-0.43
822.366	0.58
822.537	-0.23
822.708	0.18
822.879	-0.02
823.05	0.93
823.221	-0.05
823.392	0.68
823.563	-0.07
823.734	-0.04
823.905	-0.3
824.076	-0.36
824.247	-0.56
824.418	-0.49
824.589	1
824.759	-0.21
824.93	0.02
825.101	-0.71
825.272	0.76
825.443	0.2
825.614	0.84
825.784	-1.14
825.955	0.81
826.126	0.54
826.297	0.48
826.467	0.78
826.638	1.02
826.809	-1.11
826.98	-0.08
827.15	0.61
827.321	-0.21
827.492	0.99
827.662	0.43
827.833	0.7
828.003	0.57
828.174	-0.38
828.345	-0.61
828.515	0.99
828.686	0.39
828.856	-0.36
829.027	0.28
829.197	0.35
829.368	0.36
829.538	-0.38
829.709	-0.56
829.879	0.42
830.049	-0.39
830.22	-0.6
830.39	0.21
830.56	0.29
830.731	-0.46
830.901	-0.18
831.072	0.54
831.242	0.36
831.412	0.55
831.582	-0.62
831.753	-1.26
831.923	1.07
832.093	0.11
832.263	0.09
832.434	-0.34
832.604	0.16
832.774	0.66
832.944	-0.4
833.114	-0.22
833.284	0.44
833.454	-0.37
833.624	-0.41
833.795	0.22
833.965	0.92
834.135	0.61
834.305	-0.74
834.475	-0.75
834.645	0.22
834.815	-0.31
834.985	-0.28
835.155	-0.58
835.325	0.32
835.494	0.39
835.664	0.2
835.834	-0.49
836.004	0.71
836.174	0.73
836.344	0.08
836.514	-0.33
836.684	0.39
836.853	0.49
837.023	0.02
837.193	-0.04
837.363	0.58
837.532	0.7
837.702	0.15
837.872	-0.27
838.041	1.27
838.211	1.5
838.381	-0.72
838.55	0.24
838.72	1.86
838.89	0.59
839.059	0.16
839.229	-0.69
839.398	1.54
839.568	0.65
839.738	-0.03
839.907	1.24
840.077	0.28
840.246	-0.4
840.416	-0.62
840.585	-0.75
840.755	1.31
840.924	1.41
841.093	-0.96
841.263	-0.36
841.432	0.46
841.602	-0.29
841.771	-0.45
841.94	-0.52
842.11	1.47
842.279	1.78
842.448	-0.86
842.617	0.1
842.787	0.88
842.956	-0.57
843.125	-0.28
843.294	0.22
843.464	1.26
843.633	-0.18
843.802	-1.03
843.971	-0.66
844.14	0.18
844.309	1.55
844.479	-0.61
844.648	-0.44
844.817	-1.22
844.986	0.63
845.155	-1.05
845.324	-0.61
845.493	0.2
845.662	-0.79
845.831	0.39
846	0.31
846.169	0.65
846.338	1.14
846.507	0.03
846.676	0.57
846.844	-0.91
847.013	0.44
847.182	0.37
847.351	-1.2
847.52	-0.13
847.689	0.4
847.858	0.22
848.026	-0.49
848.195	0.58
848.364	0.18
848.533	-0.44
848.701	-0.53
848.87	-0.43
849.039	0.27
849.207	1.15
849.376	0.89
849.545	1.57
849.713	-0.08
849.882	-0.61
850.051	-0.1
850.219	1.34
850.388	0.4
850.556	-1.21
850.725	-0.08
850.893	0.51
851.062	-0.09
851.23	1.14
851.399	-0.78
851.567	-0.27
851.736	-0.03
851.904	-1.41
852.073	0.03
852.241	0.96
852.41	-0.1
852.578	-0.24
852.746	-0.44
852.915	1.28
853.083	0.15
853.251	-0.92
853.42	-0.24
853.588	-0.07
853.756	1.46
853.924	0.28
854.093	-0.91
854.261	0.45
854.429	-1.37
854.597	0.56
854.765	-0.55
854.934	-0.01
855.102	1.64
855.27	-0.38
855.438	0.96
855.606	0.35
855.774	0.51
855.942	-1.25
856.11	-1.77
856.278	0.36
856.446	-0.1
856.614	0.78
856.782	-0.06
856.95	0.77
857.118	0.33
857.286	0.53
857.454	-1.11
857.622	2.61
857.79	0.33
857.958	-1.41
858.126	0.21
858.294	-1.32
858.462	0.2
858.629	-0.32
858.797	0.17
858.965	1.11
859.133	0.71
859.301	-0.27
859.468	1.52
859.636	-0.08
859.804	1.59
859.971	0.75
860.139	-1.01
860.307	0.65
860.474	0.26
860.642	0.19
860.81	-1.03
860.977	0.54
861.145	1.28
861.313	-0.39
861.48	0.18
861.648	1.53
861.815	-0.66
861.983	-0.74
862.15	-0.4
862.318	1.13
862.485	2.32
862.653	-0.39
862.82	-1.58
862.988	2.06
863.155	1.4
863.322	-1
863.49	-2.11
863.657	-0.23
863.824	1.35
863.992	2.35
864.159	-0.4
864.326	2.96
864.494	-1.83
864.661	2.27
864.828	-1.86
864.996	1.1
865.163	1.37
865.33	-1.43
865.497	-2.53
865.664	-0.35
865.832	-2.14
865.999	-0.24
866.166	-0.93
866.333	-0.65
866.5	-0.2
866.667	-0.76
866.834	-0.08
867.001	2.76
867.168	-2.48
867.335	-1.31
867.502	-2.23
867.669	-0.38
867.836	3.06
868.003	-0.35
868.17	0.38
868.337	2.83
868.504	2.08
868.671	-1.68
868.838	-0.99
869.005	1.41
869.172	1.7
869.339	-0.18
869.505	0.05
869.672	-0.06
869.839	2.46
870.006	-0.18
870.173	-1.11
870.339	1.55
870.506	2.91
870.673	-1.72
870.84	0.38
871.006	1
871.173	-0.47
871.34	-0.07
871.506	-0.33
871.673	1.48
871.839	-1.48
872.006	0.32
872.173	0.6
872.339	0.47
872.506	1.53
872.672	0.62
872.839	-1.89
873.005	0.56
873.172	2.47
873.338	1.59
873.505	0.94
873.671	0.93
873.838	1.21
874.004	-2.27
874.171	-1.36
874.337	2.64
874.503	0.97
874.67	0.16
874.836	-0.49
875.002	2.37
875.169	1.01
875.335	0.76
875.501	1.13
875.668	2.4
875.834	-1.71
876	-0.26
876.166	-0.51
876.332	-0.69
876.499	1.88
876.665	0.21
876.831	-0.05
876.997	1.23
877.163	0.21
877.329	-0.49
877.495	1.18
877.662	2.28
877.828	1.86
877.994	0.17
878.16	-3.28
878.326	-0.86
878.492	-0.79
878.658	-1.12
878.824	1.14
878.99	0.42
879.156	-1.69
879.322	0.68
879.487	-1.79
879.653	-0.46
879.819	0.43
879.985	-0.59
880.151	0.44
880.317	-0.85
880.483	0.38
880.648	1.82
880.814	-1.11
880.98	-0.56
881.146	-0.8
881.312	-0.2
881.477	-1.01
881.643	0.78
881.809	1.81
881.974	0.87
882.14	-2.25
882.306	-0.28
882.471	2.57
882.637	-0.8
882.803	2.14
882.968	2.68
883.134	3.67
883.299	0.16
883.465	-0.54
883.63	1.27
883.796	-0.48
883.961	1.23
884.127	1.68
884.292	-3.67
884.458	-0.62
884.623	-0.62
