Data from Apollo_Calib_20240827__AbsoluteIrradiance__444__06-33-02-950.txt Node

Date: Wed Aug 28 06:33:02 BST 2024
User: biology
Spectrometer: FLMT08252
Trigger mode: 0
Integration Time (sec): 5.000000E-1
Scans to average: 5
Electric dark correction enabled: true
Nonlinearity correction enabled: false
Boxcar width: 0
XAxis mode: Wavelengths
Number of Pixels in Spectrum: 3648
>>>>>Begin Spectral Data<<<<<
179.588	-0
179.809	-0
180.03	-0
180.251	-0
180.473	-0
180.694	0
180.915	0
181.136	-0
181.357	0
181.578	-0
181.799	-0
182.02	-0
182.241	0
182.462	-0
182.683	0
182.904	-0
183.125	-0
183.346	0
183.567	0
183.788	0
184.009	0
184.23	0
184.451	0
184.672	0
184.892	0
185.113	0
185.334	0
185.555	0
185.776	0
185.996	0
186.217	0
186.438	0
186.659	0
186.879	0
187.1	0
187.321	0
187.541	0
187.762	0
187.983	0
188.203	0
188.424	0
188.644	0
188.865	0
189.086	0
189.306	0
189.527	0
189.747	0
189.968	0
190.188	0
190.409	0
190.629	0
190.849	0
191.07	0
191.29	0
191.511	0
191.731	0
191.951	0
192.172	0
192.392	0
192.612	0
192.833	0
193.053	0
193.273	0
193.493	0
193.714	0
193.934	0
194.154	0
194.374	0
194.594	0
194.815	0
195.035	0
195.255	0
195.475	0
195.695	0
195.915	0
196.135	0
196.355	0
196.575	0
196.795	0
197.015	0
197.235	0
197.455	0
197.675	0
197.895	0
198.115	0
198.335	0
198.555	0
198.775	0
198.995	0
199.214	0
199.434	0
199.654	0
199.874	0
200.094	0.31
200.313	1.06
200.533	0.91
200.753	0.18
200.973	2.15
201.192	1.94
201.412	0.4
201.632	0.92
201.851	2.04
202.071	0.2
202.291	1.06
202.51	0.54
202.73	1.69
202.95	0.49
203.169	0.62
203.389	1.17
203.608	0.93
203.828	0.75
204.047	0.98
204.267	1.33
204.486	0.53
204.706	0.87
204.925	0.57
205.145	0.71
205.364	1.26
205.583	1.58
205.803	0.39
206.022	0.91
206.242	0.72
206.461	0.56
206.68	0.09
206.9	0.78
207.119	1.23
207.338	1.19
207.557	0.79
207.777	0.58
207.996	0.52
208.215	1
208.434	0.45
208.654	0.18
208.873	0.84
209.092	1.08
209.311	0.59
209.53	0.42
209.749	0.65
209.968	0.58
210.187	0.49
210.407	0.1
210.626	0.52
210.845	0.83
211.064	0.5
211.283	0.2
211.502	0.74
211.721	0.59
211.94	0.51
212.159	0.63
212.377	0.63
212.596	0.83
212.815	0.58
213.034	0.75
213.253	0.77
213.472	0.59
213.691	0.45
213.91	0.36
214.128	0.43
214.347	0.84
214.566	0.28
214.785	0.09
215.003	0.67
215.222	0.64
215.441	0.55
215.66	0.22
215.878	0.45
216.097	0.68
216.316	0.31
216.534	0.41
216.753	0.39
216.972	0.33
217.19	0.39
217.409	0.18
217.627	0.29
217.846	0.52
218.064	0.46
218.283	0.24
218.501	0.67
218.72	0.61
218.938	0.18
219.157	0.21
219.375	0.53
219.594	0.47
219.812	0.31
220.031	0.09
220.249	0.52
220.467	0.67
220.686	0.3
220.904	0.11
221.122	0.2
221.341	0.69
221.559	0.33
221.777	0.34
221.995	0.48
222.214	0.47
222.432	0.31
222.65	0.37
222.868	0.37
223.086	0.27
223.305	0.39
223.523	0.23
223.741	0.51
223.959	0.21
224.177	0.22
224.395	0.19
224.613	0.35
224.831	0.47
225.049	0.16
225.267	0.31
225.485	0.47
225.703	0.18
225.921	0.23
226.139	0.26
226.357	0.37
226.575	0.27
226.793	0.23
227.011	0.87
227.229	0.32
227.447	0.47
227.665	0.27
227.883	-0.05
228.1	0.37
228.318	0.39
228.536	0.08
228.754	0.24
228.972	0.38
229.189	0.41
229.407	0.29
229.625	0.12
229.843	0.44
230.06	0.43
230.278	0.16
230.496	0.21
230.713	0.3
230.931	0.49
231.149	0.18
231.366	0.11
231.584	0.28
231.801	0.73
232.019	0.24
232.236	0.03
232.454	0.16
232.671	0.36
232.889	0.2
233.106	0.2
233.324	0.21
233.541	0.26
233.759	0.21
233.976	0.22
234.194	0.26
234.411	0.31
234.628	0.2
234.846	0.17
235.063	0.18
235.28	0.22
235.498	0.21
235.715	0.02
235.932	0.37
236.149	0.3
236.367	0.12
236.584	0.3
236.801	0.23
237.018	0.27
237.236	0.22
237.453	0.09
237.67	0.38
237.887	0.23
238.104	0.25
238.321	0.19
238.538	0.25
238.755	0.29
238.973	0.16
239.19	0.29
239.407	0.33
239.624	0.35
239.841	0.08
240.058	0.17
240.275	0.3
240.492	0.17
240.709	0.18
240.925	0.17
241.142	0.27
241.359	0.15
241.576	0.2
241.793	0.22
242.01	0.21
242.227	0.35
242.444	0.19
242.66	0.3
242.877	0.25
243.094	0.22
243.311	0.18
243.527	0.09
243.744	0.28
243.961	0.31
244.178	0.21
244.394	0.18
244.611	0.34
244.828	0.45
245.044	0.2
245.261	0.14
245.477	0.2
245.694	0.24
245.911	0.13
246.127	0.2
246.344	0.26
246.56	0.19
246.777	0.12
246.993	0.19
247.21	0.26
247.426	0.3
247.643	0.08
247.859	0.06
248.076	0.1
248.292	0.51
248.508	0.19
248.725	0.22
248.941	0.22
249.157	0.36
249.374	0.2
249.59	0.25
249.806	0.18
250.023	0.2
250.239	0.09
250.455	0.11
250.671	0.27
250.888	0.25
251.104	0.25
251.32	0.13
251.536	0.14
251.752	0.2
251.969	0.1
252.185	0.13
252.401	0.36
252.617	0.28
252.833	0.11
253.049	0.13
253.265	0.17
253.481	0.22
253.697	0.12
253.913	0.13
254.129	0.21
254.345	0.2
254.561	0.1
254.777	0.24
254.993	0.31
255.209	0.21
255.425	0.14
255.641	0.17
255.857	0.26
256.073	0.2
256.288	0.09
256.504	0.12
256.72	0.17
256.936	0.31
257.152	0.17
257.367	0.16
257.583	0.18
257.799	0.19
258.015	0.11
258.23	0.12
258.446	0.29
258.662	0.25
258.877	0.13
259.093	0.14
259.309	0.17
259.524	0.21
259.74	0.17
259.955	0.11
260.171	0.16
260.387	0.2
260.602	0.27
260.818	0.15
261.033	0.11
261.249	0.1
261.464	0.11
261.68	0.16
261.895	0.23
262.11	0.3
262.326	0.15
262.541	0.02
262.757	0.23
262.972	0.16
263.187	0.19
263.403	0.14
263.618	0.21
263.833	0.23
264.049	0.13
264.264	0.16
264.479	0.23
264.694	0.2
264.91	0.06
265.125	0.14
265.34	0.25
265.555	0.3
265.77	0.24
265.986	0.13
266.201	0.23
266.416	0.24
266.631	0.16
266.846	0.09
267.061	0.21
267.276	0.21
267.491	0.02
267.706	0.26
267.921	0.19
268.136	0.17
268.351	0.13
268.566	0.04
268.781	0.27
268.996	0.27
269.211	0.08
269.426	0.12
269.641	0.13
269.856	0.19
270.071	0.15
270.285	0.1
270.5	0.23
270.715	0.24
270.93	0.18
271.145	0.19
271.359	0.15
271.574	0.06
271.789	0.12
272.004	0.18
272.218	0.12
272.433	0.16
272.648	0.1
272.862	0.24
273.077	0.16
273.292	0.18
273.506	0.13
273.721	0.1
273.936	0.19
274.15	0.25
274.365	0.12
274.579	0.21
274.794	0.22
275.008	0.22
275.223	0.08
275.437	0.14
275.652	0.22
275.866	0.19
276.081	0.14
276.295	0.25
276.509	0.14
276.724	0.16
276.938	0.2
277.153	0.11
277.367	0.19
277.581	0.08
277.796	0.08
278.01	0.04
278.224	0.17
278.438	0.23
278.653	0.11
278.867	0.12
279.081	0.02
279.295	0.13
279.51	0.13
279.724	0.05
279.938	0.15
280.152	0.13
280.366	0.1
280.58	0.09
280.794	0.23
281.008	0.16
281.222	0.21
281.437	0.28
281.651	0.18
281.865	0.2
282.079	0.09
282.293	0.06
282.507	0.1
282.721	0.11
282.935	0.14
283.148	0.05
283.362	0.11
283.576	0.1
283.79	0.18
284.004	0.11
284.218	0.23
284.432	0.09
284.646	0.13
284.859	0.14
285.073	0.1
285.287	0.13
285.501	0.17
285.714	0.12
285.928	0.14
286.142	0.14
286.356	0.15
286.569	0.13
286.783	0.17
286.997	0.19
287.21	0.16
287.424	0.16
287.637	0.14
287.851	0.12
288.065	0.16
288.278	0.1
288.492	0.18
288.705	0.12
288.919	0.18
289.132	0.08
289.346	0.24
289.559	0.05
289.773	0.08
289.986	0.09
290.2	0.12
290.413	0.17
290.626	0.1
290.84	0.12
291.053	0.13
291.267	0.21
291.48	0.12
291.693	0.11
291.906	0.14
292.12	0.12
292.333	0.06
292.546	0.13
292.76	0.15
292.973	0.16
293.186	0.13
293.399	0.11
293.612	0.22
293.826	0.13
294.039	0.07
294.252	0.13
294.465	0.18
294.678	0.15
294.891	0.16
295.104	0.09
295.317	0.14
295.53	0.17
295.743	0.1
295.956	0.09
296.169	0.18
296.382	0.17
296.595	0.15
296.808	0.05
297.021	0.19
297.234	0.17
297.447	0.13
297.66	0.15
297.873	0.17
298.086	0.13
298.299	0.09
298.511	0.08
298.724	0.1
298.937	0.05
299.15	0.11
299.363	0.14
299.575	0.11
299.788	0.16
300.001	0.09
300.213	0.08
300.426	0.14
300.639	0.1
300.852	0.07
301.064	0.15
301.277	0.21
301.489	0.13
301.702	0.12
301.915	0.15
302.127	0.13
302.34	0.15
302.552	0.11
302.765	0.08
302.977	0.17
303.19	0.11
303.402	0.09
303.615	0.12
303.827	0.1
304.04	0.08
304.252	0.15
304.464	0.1
304.677	0.21
304.889	0.17
305.102	0.09
305.314	0.15
305.526	0.16
305.739	0.12
305.951	0.05
306.163	0.12
306.375	0.2
306.588	0.04
306.8	0.08
307.012	0.12
307.224	0.11
307.436	0.22
307.649	0.03
307.861	0.16
308.073	0.12
308.285	0.13
308.497	0.09
308.709	0.11
308.921	0.15
309.133	0.13
309.346	0.14
309.558	0.12
309.77	0.22
309.982	0.14
310.194	0.18
310.406	0.11
310.617	0.19
310.829	0.12
311.041	0.2
311.253	0.1
311.465	0.11
311.677	0.13
311.889	0.12
312.101	0.06
312.313	0.13
312.524	0.2
312.736	0.03
312.948	0.12
313.16	0.18
313.372	0.14
313.583	0.14
313.795	0.07
314.007	0.1
314.218	0.13
314.43	0.13
314.642	0.11
314.853	0.03
315.065	0.18
315.277	0.15
315.488	0.13
315.7	0.14
315.912	0.14
316.123	0.12
316.335	0.13
316.546	0.2
316.758	0.1
316.969	0.09
317.181	0.09
317.392	0.11
317.604	0.14
317.815	0.05
318.026	0.12
318.238	0.13
318.449	0.15
318.661	0.07
318.872	0.04
319.083	0.06
319.295	0.17
319.506	0.09
319.717	0.14
319.929	0.15
320.14	0.12
320.351	0.16
320.562	0.09
320.774	0.16
320.985	0.12
321.196	0.07
321.407	0.05
321.618	0.17
321.829	0.15
322.041	0.14
322.252	0.13
322.463	0.15
322.674	0.16
322.885	0.06
323.096	0.09
323.307	0.1
323.518	0.17
323.729	0.09
323.94	0.09
324.151	0.11
324.362	0.16
324.573	0.13
324.784	0.1
324.995	0.19
325.206	0.16
325.417	0.11
325.628	0.09
325.838	0.1
326.049	0.12
326.26	0.17
326.471	0.1
326.682	0.15
326.892	0.16
327.103	0.05
327.314	0.09
327.525	0.16
327.735	0.1
327.946	0.08
328.157	0.12
328.368	0.14
328.578	0.06
328.789	0.11
328.999	0.11
329.21	0.11
329.421	0.15
329.631	0.08
329.842	0.08
330.052	0.12
330.263	0.14
330.473	0.17
330.684	0.08
330.894	0.12
331.105	0.13
331.315	0.11
331.526	0.03
331.736	0.19
331.947	0.14
332.157	0.16
332.367	0.09
332.578	0.15
332.788	0.2
332.999	0.16
333.209	0.11
333.419	0.05
333.629	0.15
333.84	0.13
334.05	0.11
334.26	0.19
334.47	0.13
334.681	0.14
334.891	0.09
335.101	0.11
335.311	0.19
335.521	0.12
335.732	0.07
335.942	0.18
336.152	0.15
336.362	0.11
336.572	0.08
336.782	0.12
336.992	0.09
337.202	0.09
337.412	0.07
337.622	0.14
337.832	0.08
338.042	0.13
338.252	0.1
338.462	0.11
338.672	0.16
338.882	0.16
339.092	0.13
339.302	0.16
339.511	0.16
339.721	0.1
339.931	0.06
340.141	0.19
340.351	0.18
340.561	0.11
340.77	0.12
340.98	0.14
341.19	0.13
341.4	0.1
341.609	0.04
341.819	0.09
342.029	0.06
342.238	0.11
342.448	0.08
342.658	0.15
342.867	0.11
343.077	0.11
343.286	0.14
343.496	0.12
343.706	0.17
343.915	0.08
344.125	0.13
344.334	0.14
344.544	0.04
344.753	0.08
344.963	0.1
345.172	0.09
345.381	0.06
345.591	0.08
345.8	0.14
346.01	0.12
346.219	0.17
346.428	-0.03
346.638	0.11
346.847	0.1
347.056	0.14
347.266	0.1
347.475	0.11
347.684	0.15
347.893	0.11
348.103	0.13
348.312	0.08
348.521	0.12
348.73	0.1
348.94	0.09
349.149	0.1
349.358	0.11
349.567	0.1
349.776	0.07
349.985	0.09
350.194	0.12
350.403	0.15
350.612	0.11
350.821	0.11
351.03	0.1
351.239	0.05
351.448	0.12
351.657	0.07
351.866	0.17
352.075	0.13
352.284	0.13
352.493	0.11
352.702	0.19
352.911	0.11
353.12	0.16
353.329	0.12
353.538	0.18
353.746	0.1
353.955	0.09
354.164	0.16
354.373	0.11
354.582	0.13
354.79	0.13
354.999	0.12
355.208	0.11
355.416	0.15
355.625	0.07
355.834	0.11
356.042	0.12
356.251	0.16
356.46	0.12
356.668	0.16
356.877	0.23
357.085	0.17
357.294	0.06
357.503	0.12
357.711	0.07
357.92	0.25
358.128	0.15
358.337	0.09
358.545	0.12
358.754	0.12
358.962	0.16
359.17	0.12
359.379	0.18
359.587	0.15
359.796	0.11
360.004	0.17
360.212	0.13
360.421	0.15
360.629	0.09
360.837	0.12
361.046	0.15
361.254	0.18
361.462	0.08
361.67	0.14
361.879	0.12
362.087	0.15
362.295	0.1
362.503	0.07
362.711	0.07
362.92	0.11
363.128	0.06
363.336	0.06
363.544	0.08
363.752	0.07
363.96	0.12
364.168	0.08
364.376	0.13
364.584	0.13
364.792	0.13
365	0.12
365.208	0.1
365.416	0.15
365.624	0.16
365.832	0.09
366.04	0.19
366.248	0.12
366.456	0.14
366.664	0.11
366.872	0.1
367.079	0.11
367.287	0.12
367.495	0.12
367.703	0.12
367.911	0.05
368.118	0.13
368.326	0.12
368.534	0.08
368.742	0.17
368.949	0.08
369.157	0.09
369.365	0.13
369.572	0.05
369.78	0.09
369.988	0.14
370.195	0.13
370.403	0.13
370.61	0.06
370.818	0.13
371.026	0.21
371.233	0.05
371.441	0.17
371.648	0.07
371.856	0.11
372.063	0.12
372.271	0.11
372.478	0.12
372.685	0.09
372.893	0.18
373.1	0.15
373.308	0.08
373.515	0.15
373.722	0.15
373.93	0.11
374.137	0.14
374.344	0.22
374.552	0.16
374.759	0.15
374.966	0.11
375.173	0.11
375.381	0.16
375.588	0.07
375.795	0.04
376.002	0.08
376.209	0.11
376.417	0.13
376.624	0.09
376.831	0.13
377.038	0.12
377.245	0.04
377.452	0.1
377.659	0.14
377.866	0.09
378.073	0.12
378.28	0.13
378.487	0.14
378.694	0.16
378.901	0.12
379.108	0.13
379.315	0.17
379.522	0.21
379.729	0.12
379.936	0.15
380.143	0.16
380.35	0.13
380.557	0.12
380.763	0.14
380.97	0.11
381.177	0.11
381.384	0.15
381.591	0.07
381.797	0.16
382.004	0.13
382.211	0.17
382.418	0.14
382.624	0.16
382.831	0.14
383.038	0.12
383.244	0.13
383.451	0.11
383.658	0.16
383.864	0.08
384.071	0.09
384.277	0.21
384.484	0.11
384.69	0.13
384.897	0.15
385.103	0.12
385.31	0.14
385.516	0.1
385.723	0.08
385.929	0.11
386.136	0.11
386.342	0.18
386.549	0.11
386.755	0.15
386.961	0.16
387.168	0.11
387.374	0.18
387.58	0.13
387.787	0.13
387.993	0.16
388.199	0.12
388.406	0.11
388.612	0.14
388.818	0.09
389.024	0.12
389.231	0.15
389.437	0.2
389.643	0.16
389.849	0.12
390.055	0.15
390.261	0.15
390.467	0.19
390.674	0.08
390.88	0.11
391.086	0.14
391.292	0.11
391.498	0.21
391.704	0.18
391.91	0.13
392.116	0.13
392.322	0.03
392.528	0.16
392.734	0.14
392.94	0.11
393.146	0.14
393.352	0.16
393.557	0.1
393.763	0.12
393.969	0.15
394.175	0.15
394.381	0.17
394.587	0.1
394.792	0.12
394.998	0.18
395.204	0.22
395.41	0.1
395.615	0.15
395.821	0.12
396.027	0.18
396.233	0.07
396.438	0.15
396.644	0.25
396.85	0.19
397.055	0.15
397.261	0.17
397.466	0.24
397.672	0.16
397.878	0.2
398.083	0.17
398.289	0.13
398.494	0.21
398.7	0.18
398.905	0.06
399.111	0.21
399.316	0.1
399.522	0.19
399.727	0.11
399.932	0.14
400.138	0.07
400.343	0.16
400.549	0.15
400.754	0.17
400.959	0.18
401.165	0.13
401.37	0.15
401.575	0.3
401.78	0.16
401.986	0.13
402.191	0.12
402.396	0.17
402.601	0.15
402.807	0.18
403.012	0.11
403.217	0.25
403.422	0.17
403.627	0.15
403.832	0.13
404.037	0.2
404.243	0.17
404.448	0.14
404.653	0.14
404.858	0.15
405.063	0.2
405.268	0.12
405.473	0.1
405.678	0.09
405.883	0.32
406.088	0.13
406.293	0.1
406.498	0.11
406.703	0.19
406.907	0.21
407.112	0.12
407.317	0.16
407.522	0.19
407.727	0.12
407.932	0.19
408.136	0.2
408.341	0.19
408.546	0.16
408.751	0.14
408.956	0.15
409.16	0.18
409.365	0.19
409.57	0.18
409.774	0.15
409.979	0.21
410.184	0.19
410.388	0.14
410.593	0.19
410.798	0.14
411.002	0.17
411.207	0.19
411.411	0.17
411.616	0.09
411.82	0.16
412.025	0.22
412.229	0.13
412.434	0.22
412.638	0.13
412.843	0.17
413.047	0.16
413.252	0.18
413.456	0.19
413.66	0.18
413.865	0.17
414.069	0.23
414.273	0.15
414.478	0.12
414.682	0.15
414.886	0.16
415.091	0.1
415.295	0.12
415.499	0.2
415.703	0.14
415.908	0.22
416.112	0.04
416.316	0.25
416.52	0.15
416.724	0.11
416.929	0.16
417.133	0.28
417.337	0.12
417.541	0.14
417.745	0.19
417.949	0.21
418.153	0.21
418.357	0.12
418.561	0.28
418.765	0.17
418.969	0.3
419.173	0.24
419.377	0.21
419.581	0.27
419.785	0.1
419.989	0.14
420.193	0.18
420.397	0.19
420.601	0.24
420.804	0.24
421.008	0.17
421.212	0.23
421.416	0.2
421.62	0.18
421.823	0.19
422.027	0.27
422.231	0.24
422.435	0.18
422.638	0.19
422.842	0.15
423.046	0.15
423.249	0.24
423.453	0.24
423.657	0.22
423.86	0.14
424.064	0.18
424.268	0.29
424.471	0.17
424.675	0.25
424.878	0.24
425.082	0.2
425.285	0.28
425.489	0.18
425.692	0.2
425.896	0.17
426.099	0.22
426.303	0.17
426.506	0.13
426.71	0.23
426.913	0.21
427.116	0.25
427.32	0.25
427.523	0.22
427.726	0.32
427.93	0.18
428.133	0.2
428.336	0.21
428.54	0.18
428.743	0.22
428.946	0.24
429.149	0.18
429.353	0.21
429.556	0.27
429.759	0.23
429.962	0.17
430.165	0.24
430.368	0.19
430.571	0.2
430.775	0.22
430.978	0.17
431.181	0.21
431.384	0.24
431.587	0.19
431.79	0.17
431.993	0.24
432.196	0.18
432.399	0.15
432.602	0.27
432.805	0.21
433.008	0.16
433.211	0.14
433.414	0.26
433.616	0.23
433.819	0.25
434.022	0.17
434.225	0.25
434.428	0.27
434.631	0.32
434.833	0.26
435.036	0.21
435.239	0.3
435.442	0.21
435.645	0.18
435.847	0.21
436.05	0.27
436.253	0.24
436.455	0.18
436.658	0.25
436.861	0.29
437.063	0.2
437.266	0.21
437.468	0.27
437.671	0.34
437.874	0.22
438.076	0.14
438.279	0.13
438.481	0.22
438.684	0.17
438.886	0.26
439.089	0.14
439.291	0.22
439.494	0.23
439.696	0.16
439.899	0.25
440.101	0.2
440.303	0.13
440.506	0.26
440.708	0.26
440.91	0.29
441.113	0.23
441.315	0.26
441.517	0.18
441.72	0.29
441.922	0.25
442.124	0.23
442.326	0.3
442.529	0.29
442.731	0.24
442.933	0.33
443.135	0.23
443.337	0.2
443.539	0.21
443.742	0.28
443.944	0.23
444.146	0.19
444.348	0.24
444.55	0.19
444.752	0.22
444.954	0.22
445.156	0.23
445.358	0.25
445.56	0.36
445.762	0.21
445.964	0.28
446.166	0.19
446.368	0.21
446.57	0.27
446.772	0.25
446.974	0.19
447.175	0.3
447.377	0.26
447.579	0.24
447.781	0.19
447.983	0.29
448.184	0.27
448.386	0.31
448.588	0.15
448.79	0.31
448.991	0.25
449.193	0.23
449.395	0.24
449.597	0.3
449.798	0.26
450	0.3
450.202	0.28
450.403	0.25
450.605	0.31
450.806	0.25
451.008	0.21
451.21	0.28
451.411	0.28
451.613	0.27
451.814	0.28
452.016	0.28
452.217	0.26
452.419	0.33
452.62	0.27
452.821	0.28
453.023	0.35
453.224	0.31
453.426	0.26
453.627	0.31
453.828	0.33
454.03	0.28
454.231	0.32
454.432	0.29
454.634	0.37
454.835	0.3
455.036	0.3
455.238	0.34
455.439	0.32
455.64	0.25
455.841	0.28
456.042	0.41
456.244	0.33
456.445	0.26
456.646	0.25
456.847	0.31
457.048	0.36
457.249	0.41
457.45	0.61
457.651	0.3
457.852	0.39
458.054	0.36
458.255	0.35
458.456	0.32
458.657	0.35
458.858	0.32
459.058	0.33
459.259	0.36
459.46	0.34
459.661	0.39
459.862	0.49
460.063	0.37
460.264	0.47
460.465	0.31
460.666	0.49
460.866	0.33
461.067	0.36
461.268	0.41
461.469	0.33
461.67	0.37
461.87	0.36
462.071	0.35
462.272	0.33
462.473	0.39
462.673	0.45
462.874	0.37
463.075	0.4
463.275	0.38
463.476	0.44
463.676	0.44
463.877	0.42
464.078	0.4
464.278	0.49
464.479	0.45
464.679	0.45
464.88	0.42
465.08	0.55
465.281	0.39
465.481	0.45
465.682	0.43
465.882	0.5
466.083	0.51
466.283	0.45
466.483	0.45
466.684	0.45
466.884	0.44
467.085	0.49
467.285	0.54
467.485	0.45
467.686	0.51
467.886	0.43
468.086	0.48
468.286	0.51
468.487	0.61
468.687	0.51
468.887	0.5
469.087	0.58
469.287	0.54
469.488	0.49
469.688	0.54
469.888	0.6
470.088	0.67
470.288	0.65
470.488	0.68
470.688	0.58
470.888	0.59
471.088	0.59
471.288	0.65
471.488	0.68
471.688	0.69
471.888	0.62
472.088	0.75
472.288	0.75
472.488	0.63
472.688	0.66
472.888	0.75
473.088	0.76
473.288	0.72
473.488	0.69
473.688	0.84
473.887	0.78
474.087	0.79
474.287	0.8
474.487	0.77
474.687	0.85
474.886	0.79
475.086	0.84
475.286	0.83
475.486	0.9
475.685	0.89
475.885	0.86
476.085	0.93
476.284	0.97
476.484	0.99
476.684	0.97
476.883	1.09
477.083	1.06
477.282	1.02
477.482	1.1
477.681	1.07
477.881	1.04
478.08	1.08
478.28	1.08
478.479	1.13
478.679	1.18
478.878	1.14
479.078	1.2
479.277	1.2
479.477	1.2
479.676	1.23
479.875	1.24
480.075	1.26
480.274	1.33
480.473	1.36
480.673	1.36
480.872	1.44
481.071	1.43
481.271	1.49
481.47	1.43
481.669	1.52
481.868	1.47
482.067	1.5
482.267	1.51
482.466	1.56
482.665	1.56
482.864	1.67
483.063	1.65
483.262	1.76
483.461	1.78
483.661	1.87
483.86	1.8
484.059	1.89
484.258	1.9
484.457	1.93
484.656	1.9
484.855	2.06
485.054	1.94
485.253	2.04
485.452	2.06
485.651	2.18
485.849	2.13
486.048	2.17
486.247	2.22
486.446	2.24
486.645	2.3
486.844	2.38
487.043	2.36
487.241	2.41
487.44	2.49
487.639	2.54
487.838	2.55
488.037	2.59
488.235	2.72
488.434	2.74
488.633	2.59
488.831	2.86
489.03	2.87
489.229	2.9
489.427	2.93
489.626	3
489.825	3.07
490.023	3.17
490.222	3.1
490.42	3.16
490.619	3.25
490.817	3.36
491.016	3.33
491.214	3.48
491.413	3.53
491.611	3.5
491.81	3.55
492.008	3.6
492.207	3.79
492.405	3.82
492.604	3.77
492.802	3.9
493	4.07
493.199	4.1
493.397	4.21
493.595	4.23
493.794	4.25
493.992	4.43
494.19	4.46
494.388	4.57
494.587	4.51
494.785	4.64
494.983	4.59
495.181	4.78
495.379	4.87
495.578	5.02
495.776	5.01
495.974	4.97
496.172	5.18
496.37	5.4
496.568	5.43
496.766	5.52
496.964	5.64
497.162	5.65
497.36	5.77
497.558	5.88
497.756	6.09
497.954	6.04
498.152	6.2
498.35	6.44
498.548	6.28
498.746	6.41
498.944	6.56
499.142	6.6
499.34	6.83
499.538	7.03
499.736	6.89
499.933	7.09
500.131	7.06
500.329	7.44
500.527	7.45
500.725	7.68
500.922	7.85
501.12	7.87
501.318	8.13
501.516	8.15
501.713	8.31
501.911	8.36
502.109	8.36
502.306	8.67
502.504	8.51
502.701	8.85
502.899	9.07
503.097	9.34
503.294	9.12
503.492	9.56
503.689	9.7
503.887	9.62
504.084	9.88
504.282	9.87
504.479	10.05
504.677	10.39
504.874	10.47
505.072	10.24
505.269	10.88
505.466	10.98
505.664	11.06
505.861	11.01
506.059	11.37
506.256	11.37
506.453	11.63
506.651	11.85
506.848	12.09
507.045	12.05
507.242	12.23
507.44	12.33
507.637	12.57
507.834	12.57
508.031	12.97
508.229	13.02
508.426	12.97
508.623	13.34
508.82	13.53
509.017	13.54
509.214	13.64
509.411	14.02
509.608	13.98
509.805	14.33
510.003	14.38
510.2	14.52
510.397	14.76
510.594	14.62
510.791	14.93
510.988	15.08
511.184	14.98
511.381	14.72
511.578	15.37
511.775	15.64
511.972	15.53
512.169	15.72
512.366	15.87
512.563	16.12
512.76	16.42
512.956	16.41
513.153	16.4
513.35	16.24
513.547	16.36
513.744	16.78
513.94	16.73
514.137	17.01
514.334	16.99
514.53	17.14
514.727	17.72
514.924	17.24
515.12	17.39
515.317	17.45
515.514	17.31
515.71	17.3
515.907	17.89
516.103	17.89
516.3	17.51
516.497	17.92
516.693	17.84
516.89	17.99
517.086	18.03
517.283	18.04
517.479	17.69
517.676	18.24
517.872	18.24
518.068	18.29
518.265	18.24
518.461	18.02
518.658	18.28
518.854	18.13
519.05	18.56
519.247	18.53
519.443	18.19
519.639	18.59
519.836	18.22
520.032	18.05
520.228	18.35
520.424	18.07
520.621	18.2
520.817	18.34
521.013	17.97
521.209	18.46
521.405	18.29
521.601	18.06
521.798	17.89
521.994	17.82
522.19	17.66
522.386	17.76
522.582	17.79
522.778	17.93
522.974	17.67
523.17	17.5
523.366	17.33
523.562	17.31
523.758	17.32
523.954	16.84
524.15	17.24
524.346	17.08
524.542	17.08
524.738	16.85
524.934	16.94
525.129	16.8
525.325	16.34
525.521	16.36
525.717	16.63
525.913	16.19
526.109	16.17
526.304	16.22
526.5	16.05
526.696	15.9
526.892	15.65
527.087	15.98
527.283	15.64
527.479	15.44
527.674	14.97
527.87	15.15
528.066	15
528.261	14.88
528.457	14.61
528.653	14.86
528.848	14.58
529.044	14.54
529.239	14.2
529.435	14.06
529.63	13.88
529.826	13.71
530.021	13.65
530.217	13.63
530.412	13.48
530.608	13.35
530.803	13.21
530.999	12.91
531.194	13.02
531.389	12.89
531.585	12.78
531.78	12.84
531.975	12.52
532.171	12.46
532.366	12.28
532.561	12.15
532.757	12.07
532.952	12.11
533.147	11.65
533.342	11.71
533.538	11.55
533.733	11.61
533.928	11.04
534.123	11.23
534.318	11.17
534.513	10.92
534.709	11.03
534.904	10.82
535.099	10.81
535.294	10.65
535.489	10.57
535.684	10.35
535.879	10.19
536.074	10.14
536.269	10.07
536.464	10
536.659	9.85
536.854	9.75
537.049	9.7
537.244	9.49
537.439	9.43
537.634	9.31
537.828	9.31
538.023	9.14
538.218	9.02
538.413	8.83
538.608	8.86
538.803	8.71
538.997	8.6
539.192	8.57
539.387	8.39
539.582	8.39
539.776	8.19
539.971	8.24
540.166	8.15
540.36	8.01
540.555	8.05
540.75	7.89
540.944	7.77
541.139	7.72
541.334	7.62
541.528	7.52
541.723	7.54
541.917	7.41
542.112	7.26
542.306	7.02
542.501	6.99
542.695	6.97
542.89	6.92
543.084	6.82
543.279	6.79
543.473	6.73
543.668	6.65
543.862	6.48
544.056	6.49
544.251	6.54
544.445	6.44
544.64	6.39
544.834	6.02
545.028	5.85
545.222	6.11
545.417	6.16
545.611	5.94
545.805	5.83
546	5.63
546.194	5.74
546.388	5.67
546.582	5.54
546.776	5.51
546.97	5.47
547.165	5.4
547.359	5.27
547.553	5.2
547.747	5.14
547.941	5.28
548.135	4.97
548.329	5.04
548.523	4.99
548.717	4.87
548.911	4.82
549.105	4.75
549.299	4.78
549.493	4.65
549.687	4.53
549.881	4.6
550.075	4.5
550.269	4.39
550.463	4.39
550.657	4.32
550.85	4.23
551.044	4.21
551.238	4.15
551.432	4.11
551.626	4.06
551.82	4.05
552.013	3.94
552.207	3.95
552.401	3.89
552.594	3.81
552.788	3.69
552.982	3.64
553.176	3.6
553.369	3.72
553.563	3.6
553.756	3.49
553.95	3.52
554.144	3.45
554.337	3.45
554.531	3.3
554.724	3.27
554.918	3.26
555.111	3.19
555.305	3.16
555.498	3.15
555.692	3.14
555.885	3.07
556.079	3
556.272	2.95
556.466	2.94
556.659	2.86
556.852	2.92
557.046	2.78
557.239	2.78
557.432	2.74
557.626	2.71
557.819	2.73
558.012	2.65
558.206	2.67
558.399	2.62
558.592	2.55
558.785	2.49
558.979	2.49
559.172	2.43
559.365	2.46
559.558	2.42
559.751	2.36
559.944	2.34
560.138	2.29
560.331	2.3
560.524	2.28
560.717	2.21
560.91	2.21
561.103	2.15
561.296	2.14
561.489	2.13
561.682	2.1
561.875	2.07
562.068	2.09
562.261	2
562.454	2.05
562.647	1.95
562.84	1.98
563.032	1.92
563.225	1.89
563.418	1.87
563.611	1.83
563.804	1.86
563.997	1.72
564.19	1.7
564.382	1.78
564.575	1.76
564.768	1.71
564.961	1.71
565.153	1.65
565.346	1.66
565.539	1.65
565.731	1.61
565.924	1.64
566.117	1.66
566.309	1.55
566.502	1.51
566.695	1.51
566.887	1.53
567.08	1.45
567.272	1.47
567.465	1.4
567.657	1.4
567.85	1.41
568.042	1.37
568.235	1.42
568.427	1.34
568.62	1.35
568.812	1.34
569.005	1.35
569.197	1.25
569.389	1.29
569.582	1.27
569.774	1.28
569.966	1.16
570.159	1.16
570.351	1.19
570.543	1.15
570.736	1.16
570.928	1.13
571.12	1.13
571.312	1.09
571.505	1.04
571.697	1.13
571.889	1.02
572.081	1.06
572.273	1.01
572.465	1.09
572.658	1.04
572.85	1.05
573.042	0.98
573.234	0.98
573.426	1
573.618	0.94
573.81	0.98
574.002	0.96
574.194	0.99
574.386	0.89
574.578	0.83
574.77	0.88
574.962	0.88
575.154	0.85
575.346	0.87
575.538	0.85
575.729	0.82
575.921	0.86
576.113	0.8
576.305	0.83
576.497	0.79
576.689	0.8
576.88	0.77
577.072	0.8
577.264	0.77
577.456	0.77
577.647	0.69
577.839	0.77
578.031	0.76
578.223	0.7
578.414	0.65
578.606	0.73
578.798	0.71
578.989	0.66
579.181	0.68
579.372	0.69
579.564	0.63
579.755	0.67
579.947	0.66
580.139	0.66
580.33	0.57
580.522	0.62
580.713	0.55
580.905	0.61
581.096	0.62
581.287	0.6
581.479	0.6
581.67	0.6
581.862	0.6
582.053	0.56
582.244	0.51
582.436	0.59
582.627	0.58
582.818	0.51
583.01	0.5
583.201	0.55
583.392	0.53
583.583	0.5
583.775	0.48
583.966	0.49
584.157	0.49
584.348	0.5
584.54	0.46
584.731	0.49
584.922	0.48
585.113	0.44
585.304	0.5
585.495	0.51
585.686	0.45
585.877	0.49
586.068	0.45
586.259	0.46
586.45	0.45
586.641	0.42
586.832	0.41
587.023	0.46
587.214	0.42
587.405	0.46
587.596	0.36
587.787	0.47
587.978	0.44
588.169	0.39
588.36	0.4
588.551	0.42
588.742	0.39
588.932	0.41
589.123	0.37
589.314	0.43
589.505	0.4
589.696	0.39
589.886	0.35
590.077	0.33
590.268	0.37
590.458	0.33
590.649	0.31
590.84	0.38
591.03	0.34
591.221	0.31
591.412	0.31
591.602	0.38
591.793	0.35
591.984	0.3
592.174	0.31
592.365	0.41
592.555	0.3
592.746	0.32
592.936	0.33
593.127	0.34
593.317	0.33
593.508	0.3
593.698	0.33
593.889	0.33
594.079	0.28
594.269	0.27
594.46	0.3
594.65	0.3
594.84	0.29
595.031	0.26
595.221	0.26
595.411	0.23
595.602	0.31
595.792	0.3
595.982	0.26
596.172	0.32
596.363	0.27
596.553	0.27
596.743	0.28
596.933	0.26
597.123	0.31
597.314	0.25
597.504	0.22
597.694	0.29
597.884	0.24
598.074	0.23
598.264	0.24
598.454	0.26
598.644	0.26
598.834	0.26
599.024	0.18
599.214	0.23
599.404	0.28
599.594	0.24
599.784	0.19
599.974	0.28
600.164	0.26
600.354	0.21
600.544	0.17
600.734	0.23
600.924	0.24
601.114	0.22
601.303	0.21
601.493	0.21
601.683	0.22
601.873	0.24
602.063	0.18
602.252	0.24
602.442	0.17
602.632	0.21
602.821	0.18
603.011	0.23
603.201	0.2
603.39	0.19
603.58	0.18
603.77	0.22
603.959	0.23
604.149	0.23
604.339	0.18
604.528	0.24
604.718	0.22
604.907	0.17
605.097	0.19
605.286	0.18
605.476	0.19
605.665	0.2
605.855	0.2
606.044	0.25
606.234	0.2
606.423	0.17
606.612	0.16
606.802	0.21
606.991	0.21
607.181	0.21
607.37	0.17
607.559	0.19
607.749	0.15
607.938	0.18
608.127	0.16
608.316	0.17
608.506	0.21
608.695	0.16
608.884	0.14
609.073	0.19
609.263	0.19
609.452	0.24
609.641	0.16
609.83	0.11
610.019	0.12
610.208	0.16
610.397	0.17
610.586	0.2
610.775	0.16
610.965	0.15
611.154	0.14
611.343	0.16
611.532	0.14
611.721	0.13
611.91	0.15
612.099	0.15
612.287	0.15
612.476	0.1
612.665	0.17
612.854	0.14
613.043	0.21
613.232	0.16
613.421	0.11
613.61	0.14
613.798	0.12
613.987	0.21
614.176	0.15
614.365	0.17
614.554	0.13
614.742	0.16
614.931	0.12
615.12	0.17
615.309	0.16
615.497	0.16
615.686	0.12
615.875	0.13
616.063	0.16
616.252	0.13
616.44	0.13
616.629	0.12
616.818	0.18
617.006	0.13
617.195	0.11
617.383	0.12
617.572	0.16
617.76	0.13
617.949	0.12
618.137	0.13
618.326	0.18
618.514	0.12
618.703	0.11
618.891	0.17
619.079	0.09
619.268	0.13
619.456	0.12
619.644	0.18
619.833	0.14
620.021	0.1
620.209	0.07
620.398	0.13
620.586	0.12
620.774	0.17
620.962	0.15
621.151	0.19
621.339	0.12
621.527	0.11
621.715	0.08
621.903	0.1
622.092	0.07
622.28	0.18
622.468	0.16
622.656	0.13
622.844	0.13
623.032	0.09
623.22	0.05
623.408	0.17
623.596	0.16
623.784	0.15
623.972	0.1
624.16	0.14
624.348	0.2
624.536	0.14
624.724	0.11
624.912	0.16
625.1	0.16
625.288	0.1
625.476	0.12
625.664	0.19
625.851	0.1
626.039	0.14
626.227	0.14
626.415	0.1
626.603	0.08
626.79	0.11
626.978	0.1
627.166	0.14
627.354	0.11
627.541	0.09
627.729	0.05
627.917	0.1
628.104	0.11
628.292	0.12
628.48	0.1
628.667	0.13
628.855	0.12
629.042	0.16
629.23	0.12
629.418	0.13
629.605	0.11
629.793	0.09
629.98	0.07
630.168	0.14
630.355	0.09
630.543	0.13
630.73	0.07
630.917	0.12
631.105	0.18
631.292	0.1
631.48	0.12
631.667	0.15
631.854	0.13
632.042	0.13
632.229	0.06
632.416	0.11
632.604	0.11
632.791	0.09
632.978	0.13
633.165	0.12
633.353	0.14
633.54	0.14
633.727	0.05
633.914	0.06
634.101	0.04
634.289	0.14
634.476	0.09
634.663	0.09
634.85	0.11
635.037	0.07
635.224	0.09
635.411	0.19
635.598	0.15
635.785	0.08
635.972	0.13
636.159	0.16
636.346	0.1
636.533	0.12
636.72	0.08
636.907	0.1
637.094	0.13
637.281	0.1
637.468	0.13
637.655	0.11
637.842	0.07
638.029	0.09
638.215	0.14
638.402	0.11
638.589	0.09
638.776	0.09
638.963	0.09
639.149	0.14
639.336	0.16
639.523	0.08
639.709	0.1
639.896	0.09
640.083	0.14
640.27	0.1
640.456	0.08
640.643	0.12
640.829	0.09
641.016	0.13
641.203	0.02
641.389	0.12
641.576	0.12
641.762	0.1
641.949	0.06
642.135	0.12
642.322	0.13
642.508	0.04
642.695	0.09
642.881	0.09
643.068	0.11
643.254	0.08
643.441	0.15
643.627	0.1
643.813	0.08
644	0.13
644.186	0.08
644.372	0.06
644.559	0.14
644.745	0.07
644.931	0.06
645.118	0.13
645.304	0.09
645.49	0.08
645.676	0.06
645.862	0.11
646.049	0.15
646.235	0.1
646.421	0.16
646.607	0.17
646.793	0.08
646.979	0.07
647.165	0.14
647.352	0.13
647.538	0.15
647.724	0.12
647.91	0.1
648.096	0.15
648.282	0.13
648.468	0.11
648.654	0.11
648.84	0.13
649.026	0.1
649.212	0.09
649.397	0.08
649.583	0.06
649.769	0.11
649.955	0.1
650.141	0.11
650.327	0.16
650.513	0.1
650.698	0.13
650.884	0.03
651.07	0.09
651.256	0.09
651.442	0.1
651.627	0.08
651.813	0.12
651.999	0.12
652.184	0.1
652.37	0.1
652.556	0.07
652.741	0.16
652.927	0.04
653.113	0.08
653.298	0.1
653.484	0.11
653.669	0.05
653.855	0.1
654.04	0.1
654.226	0.1
654.412	0.09
654.597	0.04
654.782	0.1
654.968	0.12
655.153	0.12
655.339	0.08
655.524	0.08
655.71	0.13
655.895	0.1
656.08	0.09
656.266	0.15
656.451	0.11
656.636	0.07
656.822	0.1
657.007	0.09
657.192	0.05
657.378	0.05
657.563	0.12
657.748	0.14
657.933	0.11
658.118	0.08
658.304	0.09
658.489	0.13
658.674	0.12
658.859	0.07
659.044	0.09
659.229	0.14
659.414	0.08
659.599	0.1
659.785	0.09
659.97	0.11
660.155	0.13
660.34	0.08
660.525	0.11
660.71	0.07
660.895	0.14
661.08	0.11
661.264	0.08
661.449	0.16
661.634	0.14
661.819	0.13
662.004	0.16
662.189	0.06
662.374	0.09
662.559	0.07
662.743	0.1
662.928	0.1
663.113	0.07
663.298	0.03
663.483	0.1
663.667	0.12
663.852	0.08
664.037	0.13
664.221	0.1
664.406	0.17
664.591	0.12
664.775	0.13
664.96	0.11
665.145	0.16
665.329	0.13
665.514	0.09
665.698	0.11
665.883	0.02
666.068	0.17
666.252	0.13
666.437	0.07
666.621	0.12
666.806	0.15
666.99	0.1
667.174	0.1
667.359	0.15
667.543	0.09
667.728	0.11
667.912	0.03
668.096	0.16
668.281	0.12
668.465	0.11
668.649	0.11
668.834	0.06
669.018	0.09
669.202	0.09
669.387	0.15
669.571	0.12
669.755	0.09
669.939	0.12
670.124	0.07
670.308	0.18
670.492	0.15
670.676	0.14
670.86	0.12
671.044	0.1
671.228	0.16
671.413	0.09
671.597	0.14
671.781	0.08
671.965	0.12
672.149	0.11
672.333	0.09
672.517	0.12
672.701	0.14
672.885	0.1
673.069	0.04
673.253	0.2
673.437	0.14
673.621	0.11
673.804	0.12
673.988	0.16
674.172	0.15
674.356	0.09
674.54	0.15
674.724	0.22
674.908	0.14
675.091	0.19
675.275	0.11
675.459	0.18
675.643	0.11
675.826	0.12
676.01	0.13
676.194	0.14
676.377	0.15
676.561	0.15
676.745	0.16
676.928	0.19
677.112	0.21
677.296	0.13
677.479	0.13
677.663	0.09
677.846	0.17
678.03	0.14
678.213	0.13
678.397	0.12
678.58	0.12
678.764	0.11
678.947	0.1
679.131	0.12
679.314	0.2
679.498	0.1
679.681	0.14
679.865	0.23
680.048	0.14
680.231	0.17
680.415	0.14
680.598	0.13
680.781	0.14
680.965	0.1
681.148	0.11
681.331	0.15
681.514	0.17
681.698	0.12
681.881	0.18
682.064	0.15
682.247	0.12
682.43	0.06
682.614	0.15
682.797	0.19
682.98	0.17
683.163	0.11
683.346	0.15
683.529	0.09
683.712	0.1
683.895	0.14
684.078	0.05
684.261	0.13
684.444	0.12
684.627	0.14
684.81	0.1
684.993	0.14
685.176	0.1
685.359	0.07
685.542	0.11
685.725	0.16
685.908	0.1
686.091	0.08
686.274	0.18
686.457	0.17
686.639	0.15
686.822	0.16
687.005	0.13
687.188	0.16
687.371	0.2
687.553	0.18
687.736	0.17
687.919	0.19
688.102	0.15
688.284	0.09
688.467	0.09
688.65	0.13
688.832	0.14
689.015	0.12
689.197	0.06
689.38	0.24
689.563	0.17
689.745	0.08
689.928	0.09
690.11	0.08
690.293	0.13
690.475	0.03
690.658	0.14
690.84	0.14
691.023	0.11
691.205	0.1
691.388	0.12
691.57	0.17
691.752	0.2
691.935	0.05
692.117	0.11
692.3	0.13
692.482	0.12
692.664	0.09
692.847	0.14
693.029	0.2
693.211	0.15
693.393	0.08
693.576	0.13
693.758	0.1
693.94	0.16
694.122	0.14
694.304	0.09
694.487	0.11
694.669	0.2
694.851	0.07
695.033	0.13
695.215	0.11
695.397	0.07
695.579	0.17
695.761	0.09
695.943	0.07
696.125	0.2
696.308	0.22
696.49	0.01
696.671	0.2
696.853	0.11
697.035	0.25
697.217	0.17
697.399	0.14
697.581	0.12
697.763	0.17
697.945	0.09
698.127	0.14
698.309	0.2
698.491	0.17
698.672	0.23
698.854	0.2
699.036	0.19
699.218	0.1
699.399	0.16
699.581	0.14
699.763	0.13
699.945	0.09
700.126	0.14
700.308	0.11
700.49	0.15
700.671	0.06
700.853	0.13
701.035	0.14
701.216	0.09
701.398	0.07
701.579	0.08
701.761	0.19
701.943	0.15
702.124	0.08
702.306	0.12
702.487	0.26
702.669	0.13
702.85	0.1
703.031	0.09
703.213	0.23
703.394	0.25
703.576	0.14
703.757	0.23
703.938	0.11
704.12	0.3
704.301	0.17
704.483	0.11
704.664	0.17
704.845	0.19
705.026	0.23
705.208	0.13
705.389	0.16
705.57	0.15
705.751	0.16
705.933	0.15
706.114	0.2
706.295	0.12
706.476	0.15
706.657	0.22
706.838	0.17
707.02	0.17
707.201	0.1
707.382	0.13
707.563	0.15
707.744	0.09
707.925	0.08
708.106	0.08
708.287	0.25
708.468	0.32
708.649	0.15
708.83	0.13
709.011	0.06
709.192	0.16
709.373	0.12
709.554	0.16
709.734	0.2
709.915	0.12
710.096	0.09
710.277	0.01
710.458	0.07
710.639	0.19
710.819	0.04
711	0.2
711.181	0.22
711.362	0.22
711.542	0.15
711.723	0.14
711.904	0.22
712.085	0.09
712.265	0.14
712.446	0.1
712.627	0.09
712.807	0.1
712.988	0.13
713.168	0.02
713.349	0.21
713.53	0.05
713.71	0.07
713.891	0.11
714.071	0.11
714.252	0.06
714.432	0.08
714.613	0.02
714.793	0.15
714.974	0.16
715.154	0.19
715.334	0.21
715.515	0.19
715.695	0.03
715.876	0.11
716.056	0.11
716.236	0.05
716.417	0.14
716.597	0.1
716.777	0.26
716.957	0.16
717.138	0.2
717.318	0.18
717.498	0.03
717.678	0.19
717.859	0.16
718.039	0.05
718.219	0.17
718.399	0.16
718.579	0.02
718.759	0.03
718.939	0.14
719.12	0.22
719.3	0.13
719.48	-0.01
719.66	0.05
719.84	0.24
720.02	0.14
720.2	0.08
720.38	0.12
720.56	0.23
720.74	0.19
720.92	0.09
721.1	0.2
721.279	0.25
721.459	0.11
721.639	0.01
721.819	0.19
721.999	0.2
722.179	0.21
722.359	0.05
722.538	0.13
722.718	0.15
722.898	0.12
723.078	0.1
723.257	0.11
723.437	0.05
723.617	0.13
723.797	0.15
723.976	0.12
724.156	0.19
724.336	0.21
724.515	0.28
724.695	-0.03
724.874	0.08
725.054	0.19
725.234	0.09
725.413	0.22
725.593	0.18
725.772	0.19
725.952	0.14
726.131	0.1
726.311	0.17
726.49	0.1
726.67	0.02
726.849	0.09
727.028	0.11
727.208	0.2
727.387	0.19
727.567	0.08
727.746	0.2
727.925	0.04
728.105	0.01
728.284	0.07
728.463	0.09
728.643	0.21
728.822	0.04
729.001	0.09
729.18	0.2
729.359	0.24
729.539	0.06
729.718	0.12
729.897	0.27
730.076	0.04
730.255	0.06
730.434	0.17
730.614	0.19
730.793	0.13
730.972	0.12
731.151	0.12
731.33	0.14
731.509	0.18
731.688	0.14
731.867	0.15
732.046	-0
732.225	0.33
732.404	0.04
732.583	0.02
732.762	0.19
732.941	0.23
733.12	0.19
733.298	0.17
733.477	0.24
733.656	0.2
733.835	0.06
734.014	0.19
734.193	0.06
734.371	0.27
734.55	0.21
734.729	0.1
734.908	0.27
735.086	0.19
735.265	0.3
735.444	-0.07
735.623	0.11
735.801	0.07
735.98	0.22
736.159	0.11
736.337	0.33
736.516	0.27
736.694	0.17
736.873	0.1
737.052	0.25
737.23	0.22
737.409	0.04
737.587	0.4
737.766	-0.12
737.944	0.1
738.123	0.2
738.301	0.17
738.479	0.18
738.658	0.23
738.836	0
739.015	0.26
739.193	0.36
739.371	0.08
739.55	0.2
739.728	0.02
739.906	0.27
740.085	0.3
740.263	0.05
740.441	-0.03
740.62	0.39
740.798	0.24
740.976	0.05
741.154	0.06
741.332	0.3
741.511	0.11
741.689	0.25
741.867	0.21
742.045	0.08
742.223	0.1
742.401	0.07
742.579	0.25
742.757	0.18
742.935	0.06
743.114	0.09
743.292	0.02
743.47	0.09
743.648	0.01
743.826	-0.03
744.004	0.1
744.181	0.18
744.359	0.14
744.537	0.14
744.715	0.17
744.893	0.22
745.071	0.11
745.249	0.15
745.427	0.15
745.605	0.04
745.782	0.19
745.96	0.29
746.138	0.24
746.316	0.12
746.493	0.1
746.671	0.1
746.849	0.11
747.027	0.35
747.204	0.16
747.382	0.16
747.56	0.02
747.737	0.16
747.915	0.07
748.093	0.21
748.27	0.02
748.448	0.14
748.625	0.05
748.803	0.06
748.98	0.01
749.158	0.19
749.335	0.22
749.513	0.18
749.69	0.07
749.868	0.08
750.045	0.08
750.223	-0.03
750.4	-0.04
750.578	0.23
750.755	0.14
750.932	-0.05
751.11	0.26
751.287	0.04
751.464	0.15
751.642	0.06
751.819	0.18
751.996	0.18
752.173	0.13
752.351	0.09
752.528	0.12
752.705	0.14
752.882	0.12
753.06	0.21
753.237	0.16
753.414	0.23
753.591	0.34
753.768	0.12
753.945	0.01
754.122	0.08
754.299	0.18
754.476	-0
754.654	0.11
754.831	0.15
755.008	0.24
755.185	0.16
755.362	0.03
755.539	0.19
755.716	0.11
755.892	0.15
756.069	0.08
756.246	0.08
756.423	0.15
756.6	0.27
756.777	0.11
756.954	0.21
757.131	0.15
757.307	0.02
757.484	-0.02
757.661	0.13
757.838	0.09
758.015	0.05
758.191	0.24
758.368	0.28
758.545	0.38
758.721	0.2
758.898	0.07
759.075	0.22
759.251	0.25
759.428	0.17
759.605	0.03
759.781	0.2
759.958	0.09
760.134	0.12
760.311	0.13
760.488	0.18
760.664	0.32
760.841	0.16
761.017	0.05
761.194	0.25
761.37	0.22
761.547	0.17
761.723	0.11
761.899	0.34
762.076	0.02
762.252	0.01
762.429	0.12
762.605	0.14
762.781	0.15
762.958	0.22
763.134	0.03
763.31	0.06
763.486	0.4
763.663	-0.05
763.839	0.27
764.015	0.01
764.191	-0.01
764.368	0.05
764.544	-0.01
764.72	0.18
764.896	0.15
765.072	0.12
765.248	0.13
765.425	0.1
765.601	0.09
765.777	0.14
765.953	-0.05
766.129	0.08
766.305	0.05
766.481	0.19
766.657	0.13
766.833	0.26
767.009	0.06
767.185	0.11
767.361	0.06
767.537	0.08
767.713	0.2
767.889	0.11
768.065	0.17
768.24	0.18
768.416	0.18
768.592	0.02
768.768	0.02
768.944	0.11
769.12	0.05
769.295	0.1
769.471	0.18
769.647	0.16
769.823	0.35
769.998	0.06
770.174	-0.02
770.35	0.32
770.525	0.36
770.701	0.19
770.877	0.04
771.052	0.07
771.228	0.23
771.403	0.13
771.579	0.21
771.755	0.38
771.93	0.18
772.106	0.05
772.281	-0.05
772.457	0.05
772.632	0.11
772.808	0.03
772.983	0.2
773.159	-0.05
773.334	0.32
773.509	0.08
773.685	-0.09
773.86	0.56
774.036	0.3
774.211	0.1
774.386	0.05
774.562	0.19
774.737	0.2
774.912	0.16
775.087	0.24
775.263	0.27
775.438	0.38
775.613	-0.03
775.788	0.11
775.964	0.27
776.139	0.44
776.314	0.07
776.489	0.25
776.664	0.14
776.839	0.05
777.014	0.36
777.19	0.31
777.365	0.45
777.54	0.36
777.715	0.11
777.89	0.15
778.065	0.04
778.24	0.22
778.415	0.19
778.59	-0.06
778.765	0.14
778.94	0.24
779.115	0.15
779.289	0.12
779.464	0.14
779.639	0.07
779.814	-0.12
779.989	-0.18
780.164	0.28
780.339	0.22
780.513	0.25
780.688	-0.02
780.863	0.03
781.038	0.26
781.212	-0.02
781.387	0.18
781.562	0.57
781.737	-0.07
781.911	0.32
782.086	-0.09
782.261	0.2
782.435	0.34
782.61	-0.05
782.784	0.07
782.959	0.54
783.134	0.05
783.308	-0.11
783.483	0.08
783.657	0.56
783.832	0.32
784.006	-0.35
784.181	0.26
784.355	0.48
784.53	0.14
784.704	0.15
784.878	0.49
785.053	0.32
785.227	0.13
785.402	0.63
785.576	-0
785.75	0.16
785.925	0.13
786.099	0.26
786.273	0.35
786.448	0.12
786.622	0.48
786.796	0.05
786.97	0.04
787.145	0.45
787.319	-0.17
787.493	-0.04
787.667	0.04
787.841	0.16
788.015	0.28
788.19	0.25
788.364	0.14
788.538	0.12
788.712	0.5
788.886	0.24
789.06	0.44
789.234	0.21
789.408	-0.18
789.582	0.1
789.756	0.02
789.93	0.02
790.104	-0.07
790.278	0.09
790.452	-0.07
790.626	0.39
790.8	0.06
790.973	0.19
791.147	0.41
791.321	0.5
791.495	0.45
791.669	0.21
791.843	0.2
792.016	-0.05
792.19	0.61
792.364	-0.09
792.538	0.63
792.711	0.21
792.885	0.15
793.059	-0.09
793.233	-0.12
793.406	0.38
793.58	0.07
793.754	0.26
793.927	0.03
794.101	0.57
794.274	0.08
794.448	0.5
794.622	-0.03
794.795	0.42
794.969	-0.01
795.142	0.45
795.316	0.21
795.489	0.24
795.663	0.41
795.836	0.09
796.009	0.06
796.183	0.61
796.356	0.5
796.53	0.14
796.703	0.07
796.876	0.75
797.05	-0.08
797.223	0.05
797.396	0.62
797.57	0.52
797.743	0.42
797.916	0.32
798.09	0.1
798.263	0.47
798.436	0.29
798.609	0.18
798.782	-0.08
798.956	0.19
799.129	0.24
799.302	0.29
799.475	0.14
799.648	0.03
799.821	-0.09
799.994	0.29
800.167	-0.21
800.34	-0.24
800.514	0.26
800.687	0.09
800.86	-0.16
801.033	0.28
801.206	0.31
801.379	0.02
801.551	0.31
801.724	0.35
801.897	0.61
802.07	0.1
802.243	-0.06
802.416	0.12
802.589	0.31
802.762	0.29
802.935	0.09
803.107	0.38
803.28	0.55
803.453	0.76
803.626	-0.15
803.798	0.27
803.971	0.08
804.144	0.3
804.317	0.55
804.489	0.35
804.662	0.12
804.835	0.09
805.007	-0.03
805.18	0.59
805.353	0.58
805.525	0.01
805.698	0.16
805.87	0.5
806.043	0.58
806.215	-0.05
806.388	-0.16
806.56	0.28
806.733	0.47
806.905	0.34
807.078	-0.04
807.25	0.04
807.423	0.43
807.595	0.24
807.768	0.31
807.94	0.56
808.112	0.36
808.285	-0.03
808.457	0.13
808.629	0.17
808.802	0.45
808.974	0.06
809.146	-0.01
809.318	-0.13
809.491	0.28
809.663	0.21
809.835	-0.12
810.007	0.7
810.18	-0.03
810.352	-0.07
810.524	0.33
810.696	0.39
810.868	0.61
811.04	0.03
811.212	-0.12
811.384	0.54
811.556	0.49
811.728	0.02
811.901	0.95
812.073	0.06
812.245	0.66
812.417	0.45
812.589	-0.18
812.76	0.35
812.932	0.33
813.104	0.51
813.276	0.15
813.448	0.68
813.62	0.32
813.792	0.41
813.964	0.29
814.136	0.14
814.307	0.23
814.479	0.03
814.651	0.27
814.823	0.89
814.995	0.09
815.166	0.18
815.338	-0.07
815.51	-0.25
815.681	1.17
815.853	0.19
816.025	0.22
816.196	0.48
816.368	0.69
816.54	0.02
816.711	0.12
816.883	1.03
817.054	1.36
817.226	-0.47
817.398	0.43
817.569	-0.26
817.741	0.02
817.912	0.25
818.084	-0.12
818.255	0.8
818.426	0.33
818.598	0.35
818.769	0.24
818.941	0.42
819.112	0.74
819.283	0.3
819.455	0.02
819.626	0.1
819.798	0.26
819.969	0.21
820.14	-0.18
820.311	0.22
820.483	0.28
820.654	0.43
820.825	-0.02
820.996	0.11
821.168	0
821.339	0.36
821.51	-0.14
821.681	0.54
821.852	0.5
822.023	-0.01
822.195	0.21
822.366	0.48
822.537	0.22
822.708	0.71
822.879	0.07
823.05	0.98
823.221	-0.14
823.392	0.51
823.563	0.37
823.734	0.79
823.905	-0.28
824.076	0.19
824.247	-0.47
824.418	0.3
824.589	1.11
824.759	0.22
824.93	-0.17
825.101	-0.26
825.272	1.14
825.443	1.2
825.614	1.33
825.784	-0.42
825.955	1.55
826.126	0.61
826.297	0.54
826.467	0.76
826.638	0.96
826.809	-0.27
826.98	0.04
827.15	0.33
827.321	0.16
827.492	0.62
827.662	0.36
827.833	1.1
828.003	0.63
828.174	-0.26
828.345	-0.81
828.515	0.69
828.686	0.45
828.856	0.05
829.027	0.61
829.197	0.45
829.368	0.18
829.538	0.21
829.709	-0.03
829.879	0.31
830.049	0.37
830.22	0.06
830.39	0.57
830.56	0.32
830.731	0.49
830.901	-0.4
831.072	0.3
831.242	0.35
831.412	0.03
831.582	0.41
831.753	-0.43
831.923	0.57
832.093	0.32
832.263	0.1
832.434	0.32
832.604	-0.12
832.774	0.54
832.944	0.69
833.114	-0.02
833.284	0.83
833.454	-0.24
833.624	0.1
833.795	-0.28
833.965	0.97
834.135	1.18
834.305	-0.35
834.475	-0.49
834.645	0.44
834.815	-0.29
834.985	0.03
835.155	0.46
835.325	0.64
835.494	0.94
835.664	0.23
835.834	-0.35
836.004	0.26
836.174	0.09
836.344	0.46
836.514	-0.38
836.684	-0.16
836.853	1.09
837.023	0.88
837.193	0.3
837.363	1.17
837.532	0.62
837.702	0.6
837.872	0.4
838.041	1.08
838.211	1.29
838.381	-0.34
838.55	0.25
838.72	1.99
838.89	1.88
839.059	0.19
839.229	-0.1
839.398	1.64
839.568	0.53
839.738	0.33
839.907	1.47
840.077	1.07
840.246	0.03
840.416	-0.22
840.585	0.04
840.755	1.13
840.924	1.35
841.093	-0.33
841.263	0.58
841.432	0.75
841.602	-0.26
841.771	-0.82
841.94	0.57
842.11	2.3
842.279	1.51
842.448	0.09
842.617	-0.17
842.787	1.74
842.956	-0.99
843.125	0.67
843.294	1.15
843.464	1.17
843.633	-0.4
843.802	-1.09
843.971	0.99
844.14	0.79
844.309	1.25
844.479	0.02
844.648	0.05
844.817	0.45
844.986	-0.21
845.155	-0.02
845.324	0.79
845.493	0.07
845.662	-0.38
845.831	0.97
846	1.4
846.169	0.29
846.338	1.04
846.507	1.32
846.676	0.6
846.844	-0.74
847.013	1.43
847.182	1.48
847.351	-0.39
847.52	0.11
847.689	0.94
847.858	-0.15
848.026	0.05
848.195	0.35
848.364	0.37
848.533	0.04
848.701	-0.12
848.87	0.27
849.039	0.77
849.207	0.91
849.376	1.35
849.545	1.46
849.713	0.59
849.882	0.1
850.051	0.57
850.219	1.85
850.388	1.33
850.556	-0.18
850.725	-0.01
850.893	0.92
851.062	-0.3
851.23	1.11
851.399	-0.97
851.567	0.42
851.736	0.54
851.904	-1.07
852.073	0.71
852.241	0.93
852.41	0.88
852.578	0.49
852.746	-0.4
852.915	1.59
853.083	0.59
853.251	-0.09
853.42	-0.24
853.588	0.61
853.756	0.93
853.924	-0.14
854.093	0.21
854.261	-0.31
854.429	-0.32
854.597	0.92
854.765	-0.56
854.934	0.68
855.102	1.92
855.27	0.6
855.438	1.21
855.606	1.91
855.774	3
855.942	-0.72
856.11	-0.77
856.278	1.56
856.446	1.14
856.614	0.35
856.782	-0.36
856.95	2.18
857.118	0.44
857.286	2.01
857.454	-0.15
857.622	1.53
857.79	1.39
857.958	-1.05
858.126	0.22
858.294	-2.12
858.462	-0.79
858.629	-0.62
858.797	0.06
858.965	0.94
859.133	1.1
859.301	-0
859.468	1.36
859.636	-0.16
859.804	2.82
859.971	1.54
860.139	0.49
860.307	1.92
860.474	0.4
860.642	0.7
860.81	-0.86
860.977	0.41
861.145	0.73
861.313	-0.81
861.48	1.5
861.648	1.3
861.815	0.01
861.983	-1.76
862.15	-0.33
862.318	2.12
862.485	3.05
862.653	-0.07
862.82	-0.13
862.988	3.25
863.155	2.14
863.322	-0.42
863.49	0.18
863.657	-0.2
863.824	2.57
863.992	2.29
864.159	0.75
864.326	0.82
864.494	0.21
864.661	2.21
864.828	-0.97
864.996	2.84
865.163	2.1
865.33	0.24
865.497	-0.86
865.664	-0.07
865.832	-1.56
865.999	-0.82
866.166	-0.12
866.333	0.13
866.5	0.52
866.667	1.2
866.834	1.33
867.001	4.55
867.168	-0.06
867.335	1.38
867.502	-1.66
867.669	1.26
867.836	3.6
868.003	-0.47
868.17	1.56
868.337	-1.29
868.504	3.17
868.671	-1.21
868.838	0.78
869.005	0.91
869.172	-0.89
869.339	0.85
869.505	1.06
869.672	-0.32
869.839	1.09
870.006	0.49
870.173	-1.53
870.339	1.48
870.506	2.91
870.673	-0.6
870.84	2.15
871.006	0.86
871.173	-0.46
871.34	2.48
871.506	-0.74
871.673	1.33
871.839	-0.29
872.006	1.33
872.173	0.54
872.339	0.84
872.506	1.14
872.672	0.93
872.839	-0.65
873.005	0.75
873.172	4.13
873.338	1.15
873.505	-0.28
873.671	1.48
873.838	2.76
874.004	-3.11
874.171	-0.02
874.337	1.59
874.503	0.86
874.67	0.48
874.836	-0.47
875.002	1.88
875.169	1.91
875.335	1.27
875.501	0.75
875.668	1
875.834	2.21
876	0.69
876.166	2.07
876.332	0.13
876.499	5.2
876.665	0.4
876.831	1.42
876.997	4.83
877.163	1.98
877.329	1.76
877.495	0.88
877.662	1.21
877.828	1.01
877.994	-0.29
878.16	-0.43
878.326	0.17
878.492	0.56
878.658	-1.06
878.824	1.45
878.99	0.71
879.156	-1.6
879.322	3.83
879.487	0
879.653	0.37
879.819	1.58
879.985	-0.67
880.151	0.58
880.317	1.94
880.483	-0.84
880.648	2.54
880.814	-0.37
880.98	0.56
881.146	-2.18
881.312	-0.15
881.477	0.21
881.643	1.35
881.809	1
881.974	2.93
882.14	-0.34
882.306	1.09
882.471	3.22
882.637	1.13
882.803	1.44
882.968	4.92
883.134	3.7
883.299	0.45
883.465	1.12
883.63	2.84
883.796	1.7
883.961	2.09
884.127	1.69
884.292	-2.32
884.458	-0.04
884.623	-0.04
