Data from Apollo_Calib_20240827__AbsoluteIrradiance__681__10-30-00-009.txt Node

Date: Wed Aug 28 10:30:00 BST 2024
User: biology
Spectrometer: FLMT08252
Trigger mode: 0
Integration Time (sec): 5.000000E-1
Scans to average: 5
Electric dark correction enabled: true
Nonlinearity correction enabled: false
Boxcar width: 0
XAxis mode: Wavelengths
Number of Pixels in Spectrum: 3648
>>>>>Begin Spectral Data<<<<<
179.588	-0
179.809	-0
180.03	-0
180.251	-0
180.473	-0
180.694	0
180.915	0
181.136	-0
181.357	0
181.578	-0
181.799	-0
182.02	0
182.241	-0
182.462	-0
182.683	0
182.904	-0
183.125	0
183.346	0
183.567	0
183.788	0
184.009	0
184.23	0
184.451	0
184.672	0
184.892	0
185.113	0
185.334	0
185.555	0
185.776	0
185.996	0
186.217	0
186.438	0
186.659	-0
186.879	0
187.1	0
187.321	0
187.541	0
187.762	0
187.983	0
188.203	0
188.424	0
188.644	0
188.865	0
189.086	0
189.306	0
189.527	0
189.747	0
189.968	-0
190.188	0
190.409	0
190.629	0
190.849	-0
191.07	0
191.29	0
191.511	0
191.731	0
191.951	0
192.172	-0
192.392	-0
192.612	0
192.833	0
193.053	0
193.273	0
193.493	0
193.714	0
193.934	0
194.154	0
194.374	0
194.594	0
194.815	0
195.035	0
195.255	0
195.475	0
195.695	0
195.915	0
196.135	0
196.355	0
196.575	0
196.795	0
197.015	-0
197.235	-0
197.455	0
197.675	0
197.895	0
198.115	0
198.335	0
198.555	0
198.775	0
198.995	0
199.214	0
199.434	0
199.654	0
199.874	0
200.094	1.4
200.313	0.37
200.533	0.38
200.753	-0.33
200.973	1.39
201.192	1.4
201.412	-0.01
201.632	0.03
201.851	1.36
202.071	0.26
202.291	0.24
202.51	-0.21
202.73	0.56
202.95	0.25
203.169	-0.21
203.389	0.34
203.608	0.22
203.828	-0.46
204.047	0.28
204.267	0.69
204.486	0.45
204.706	0.01
204.925	0.55
205.145	0.27
205.364	0.76
205.583	0.85
205.803	0.18
206.022	0.11
206.242	0.25
206.461	0.68
206.68	-0.22
206.9	0.45
207.119	0.56
207.338	0.91
207.557	0.38
207.777	0.05
207.996	-0.01
208.215	0.74
208.434	0.24
208.654	-0.3
208.873	0.24
209.092	0.96
209.311	0.22
209.53	0.02
209.749	0.36
209.968	0.22
210.187	0.18
210.407	-0.27
210.626	0.14
210.845	0.34
211.064	0.34
211.283	-0.07
211.502	0.31
211.721	0.19
211.94	0.16
212.159	0.44
212.377	0.43
212.596	0.67
212.815	0.28
213.034	0.41
213.253	0.07
213.472	0.36
213.691	0.11
213.91	0.02
214.128	0.13
214.347	0.38
214.566	-0.28
214.785	-0.05
215.003	0.53
215.222	0.32
215.441	0.16
215.66	-0.16
215.878	0.25
216.097	0.53
216.316	0.18
216.534	0.14
216.753	0.36
216.972	0.2
217.19	0.24
217.409	-0.1
217.627	0.01
217.846	-0.06
218.064	0.13
218.283	-0.04
218.501	0.57
218.72	0.33
218.938	-0.1
219.157	0.11
219.375	0.2
219.594	0.31
219.812	0.02
220.031	0.01
220.249	0.45
220.467	0.62
220.686	0.04
220.904	-0.03
221.122	0.09
221.341	0.35
221.559	0.3
221.777	0.06
221.995	0.2
222.214	0.19
222.432	0.15
222.65	0.12
222.868	0.27
223.086	0.38
223.305	0.28
223.523	0.11
223.741	0.45
223.959	0.11
224.177	-0.13
224.395	0.01
224.613	0.25
224.831	0.1
225.049	-0.01
225.267	0.13
225.485	0.18
225.703	-0.06
225.921	0.15
226.139	0.12
226.357	0.25
226.575	0.24
226.793	0.16
227.011	0.61
227.229	0.17
227.447	0.28
227.665	-0.01
227.883	-0.07
228.1	0.11
228.318	0.15
228.536	-0.18
228.754	0.12
228.972	0.15
229.189	0.1
229.407	0.07
229.625	0.06
229.843	0.25
230.06	0.25
230.278	0.02
230.496	0.16
230.713	0.19
230.931	0.21
231.149	0.11
231.366	-0.12
231.584	0.05
231.801	0.42
232.019	0.03
232.236	-0
232.454	-0.02
232.671	0.15
232.889	0.04
233.106	-0.06
233.324	0.16
233.541	-0.03
233.759	0.05
233.976	0.07
234.194	0.15
234.411	0.04
234.628	-0.11
234.846	0.09
235.063	-0.03
235.28	0.05
235.498	0.02
235.715	-0.01
235.932	0.29
236.149	-0.07
236.367	-0.02
236.584	0.05
236.801	0.15
237.018	0.27
237.236	0.13
237.453	0.03
237.67	0.26
237.887	0.07
238.104	0.09
238.321	0.02
238.538	-0.04
238.755	0.27
238.973	0.02
239.19	0.19
239.407	0.16
239.624	0.14
239.841	-0.1
240.058	-0.03
240.275	0.19
240.492	0.09
240.709	0.06
240.925	0.06
241.142	0.12
241.359	0.01
241.576	0.04
241.793	0.05
242.01	0.11
242.227	0.18
242.444	0.08
242.66	0.19
242.877	0.06
243.094	0.12
243.311	0.12
243.527	0.08
243.744	0.12
243.961	0.15
244.178	-0.06
244.394	0.11
244.611	0.17
244.828	0.23
245.044	-0.04
245.261	0.02
245.477	0.11
245.694	0.08
245.911	-0.02
246.127	0.12
246.344	0.22
246.56	0.16
246.777	0.08
246.993	0.19
247.21	0.09
247.426	0.16
247.643	0.05
247.859	-0.05
248.076	0.11
248.292	0.19
248.508	0.01
248.725	0.12
248.941	0.1
249.157	0.14
249.374	0.03
249.59	0.02
249.806	0.12
250.023	0.05
250.239	0
250.455	-0.04
250.671	0.14
250.888	0.12
251.104	0.12
251.32	0.07
251.536	0.1
251.752	0.03
251.969	0.07
252.185	0.15
252.401	0.23
252.617	0.12
252.833	-0.02
253.049	0.08
253.265	0.07
253.481	0.14
253.697	0.05
253.913	-0.02
254.129	0.07
254.345	0.14
254.561	0.01
254.777	0.06
254.993	0.08
255.209	0.08
255.425	0.07
255.641	-0.05
255.857	0.18
256.073	0.1
256.288	-0.04
256.504	0.03
256.72	0.15
256.936	0.25
257.152	0.07
257.367	0.05
257.583	0.15
257.799	0.08
258.015	-0.01
258.23	0.02
258.446	0.22
258.662	0.08
258.877	-0.02
259.093	0.04
259.309	0.09
259.524	0.08
259.74	0.05
259.955	-0.05
260.171	0.07
260.387	0.08
260.602	0.12
260.818	0.07
261.033	0.05
261.249	0.04
261.464	0.04
261.68	-0.05
261.895	0.11
262.11	0.09
262.326	0.02
262.541	-0.07
262.757	0.17
262.972	0.08
263.187	0.03
263.403	0.08
263.618	0.15
263.833	0.09
264.049	-0
264.264	0.05
264.479	0.12
264.694	0.24
264.91	-0.06
265.125	0.04
265.34	0.17
265.555	0.17
265.77	0.14
265.986	-0.01
266.201	0.05
266.416	0.16
266.631	0.05
266.846	0.08
267.061	0.11
267.276	0.08
267.491	-0.05
267.706	0.06
267.921	0.04
268.136	0.12
268.351	0.13
268.566	0.06
268.781	0.19
268.996	0.11
269.211	0.08
269.426	0.01
269.641	-0.02
269.856	0.1
270.071	0.02
270.285	-0.01
270.5	0.12
270.715	0.13
270.93	0.1
271.145	0.12
271.359	0.16
271.574	0.08
271.789	0.08
272.004	-0.02
272.218	0.05
272.433	0.11
272.648	0.04
272.862	0.14
273.077	0.07
273.292	0.11
273.506	0.06
273.721	0.07
273.936	0.06
274.15	0.13
274.365	0.01
274.579	0.11
274.794	0.11
275.008	0.14
275.223	-0.05
275.437	0.04
275.652	0.03
275.866	0.12
276.081	0.05
276.295	0.12
276.509	0.03
276.724	0.09
276.938	0.04
277.153	0.03
277.367	0.13
277.581	-0.01
277.796	0.07
278.01	-0.02
278.224	0.16
278.438	0.17
278.653	0
278.867	-0.03
279.081	0.1
279.295	0.03
279.51	0.1
279.724	-0.06
279.938	0.08
280.152	0.06
280.366	-0.02
280.58	0.07
280.794	0.09
281.008	0.09
281.222	0.12
281.437	0.17
281.651	0.07
281.865	0.15
282.079	0.02
282.293	-0.05
282.507	0
282.721	0.03
282.935	0.03
283.148	-0.03
283.362	0.03
283.576	0.01
283.79	0.1
284.004	-0.03
284.218	0.07
284.432	-0.03
284.646	0.09
284.859	0.05
285.073	0.04
285.287	0.05
285.501	0.05
285.714	0.02
285.928	0.1
286.142	0.08
286.356	0.03
286.569	0.03
286.783	0.12
286.997	0.08
287.21	0.06
287.424	0.06
287.637	0.02
287.851	0.01
288.065	0.09
288.278	0.04
288.492	0.07
288.705	0.03
288.919	0.08
289.132	0.05
289.346	0.13
289.559	-0.04
289.773	-0.05
289.986	0.06
290.2	0.03
290.413	0.11
290.626	-0.01
290.84	0.06
291.053	0.07
291.267	0.11
291.48	0.01
291.693	0.09
291.906	0.03
292.12	0.03
292.333	0.01
292.546	0.03
292.76	0.14
292.973	0.02
293.186	0.06
293.399	-0.01
293.612	0.09
293.826	0.06
294.039	0.06
294.252	0.03
294.465	0.09
294.678	0.05
294.891	0.05
295.104	0.01
295.317	0.03
295.53	0.05
295.743	0.04
295.956	0.04
296.169	0.11
296.382	0.11
296.595	0.06
296.808	0.01
297.021	0.1
297.234	0.07
297.447	-0
297.66	0.06
297.873	0.11
298.086	0.1
298.299	-0
298.511	0
298.724	0.03
298.937	0.01
299.15	-0.02
299.363	0.08
299.575	0.11
299.788	0.08
300.001	0.05
300.213	-0.01
300.426	0.01
300.639	0.06
300.852	0.03
301.064	0.07
301.277	0.12
301.489	0.09
301.702	0.07
301.915	0.03
302.127	0.03
302.34	0.09
302.552	0.05
302.765	-0.01
302.977	0.08
303.19	0.02
303.402	0.05
303.615	0.04
303.827	0.03
304.04	0.1
304.252	0.09
304.464	0.08
304.677	0.15
304.889	0.1
305.102	-0.01
305.314	0.01
305.526	0.1
305.739	0.08
305.951	0.06
306.163	0.01
306.375	0.12
306.588	0.01
306.8	0
307.012	-0.03
307.224	0.08
307.436	0.11
307.649	-0.03
307.861	0.06
308.073	0.08
308.285	0.02
308.497	0.01
308.709	0.01
308.921	0.04
309.133	0.11
309.346	0.02
309.558	0.03
309.77	0.07
309.982	0.11
310.194	0.08
310.406	0.04
310.617	0.14
310.829	0.06
311.041	0.07
311.253	-0.01
311.465	0.05
311.677	0.06
311.889	-0.01
312.101	-0.02
312.313	0.14
312.524	0.07
312.736	0.01
312.948	0.06
313.16	0.13
313.372	0.07
313.583	0.08
313.795	0.02
314.007	0.01
314.218	0.07
314.43	0.03
314.642	0.02
314.853	0.01
315.065	0.05
315.277	0.05
315.488	0.06
315.7	0.09
315.912	0.12
316.123	0.02
316.335	0.03
316.546	0.13
316.758	0.02
316.969	-0.01
317.181	0.09
317.392	0.07
317.604	0.06
317.815	0
318.026	0.04
318.238	0.03
318.449	0.03
318.661	-0
318.872	-0.02
319.083	-0.02
319.295	0.04
319.506	0.02
319.717	0.05
319.929	0.03
320.14	0.06
320.351	0.05
320.562	-0.01
320.774	0.01
320.985	0.04
321.196	-0.05
321.407	-0.01
321.618	0.08
321.829	0.05
322.041	0.08
322.252	0.06
322.463	0.07
322.674	0.08
322.885	0.02
323.096	0
323.307	0.01
323.518	0.06
323.729	-0.02
323.94	0.02
324.151	0.05
324.362	0.06
324.573	0.05
324.784	-0.01
324.995	0.1
325.206	0.11
325.417	0.01
325.628	0.01
325.838	0.05
326.049	0.02
326.26	0.08
326.471	0.06
326.682	0.04
326.892	0.02
327.103	-0.02
327.314	-0.01
327.525	0.1
327.735	0.08
327.946	0.02
328.157	-0.01
328.368	0.07
328.578	0.01
328.789	0.09
328.999	0.07
329.21	0.05
329.421	0.08
329.631	0.02
329.842	0.02
330.052	0.1
330.263	0.05
330.473	0.07
330.684	0.07
330.894	0.06
331.105	0.05
331.315	0.06
331.526	-0.02
331.736	0.09
331.947	0.05
332.157	0.04
332.367	-0
332.578	0.04
332.788	0.11
332.999	0.08
333.209	0.06
333.419	-0.02
333.629	0.07
333.84	0.07
334.05	0.03
334.26	0.08
334.47	0.03
334.681	0.08
334.891	0.01
335.101	0.08
335.311	0.12
335.521	0.05
335.732	-0.01
335.942	0.12
336.152	0.06
336.362	0.12
336.572	0.05
336.782	0.05
336.992	-0
337.202	0.02
337.412	-0.04
337.622	0.05
337.832	0.04
338.042	0.05
338.252	0.04
338.462	0.02
338.672	0.08
338.882	0.01
339.092	0.02
339.302	0.08
339.511	0.05
339.721	-0.02
339.931	-0.01
340.141	0.07
340.351	0.09
340.561	0.07
340.77	0.05
340.98	0.05
341.19	0.05
341.4	0.03
341.609	-0.01
341.819	0.03
342.029	-0.06
342.238	0.04
342.448	-0.02
342.658	0.07
342.867	0.1
343.077	0.04
343.286	0.06
343.496	0.04
343.706	0.12
343.915	0.01
344.125	0.02
344.334	0.09
344.544	-0.03
344.753	0.01
344.963	0.03
345.172	0.04
345.381	0.02
345.591	0.01
345.8	0.01
346.01	0.12
346.219	0.08
346.428	-0.1
346.638	0.05
346.847	0.04
347.056	0.1
347.266	0.01
347.475	0.03
347.684	0.1
347.893	0.05
348.103	0.02
348.312	0.02
348.521	0.03
348.73	0.04
348.94	0.1
349.149	0.04
349.358	-0.01
349.567	-0
349.776	-0.02
349.985	-0
350.194	0.11
350.403	0.06
350.612	-0.02
350.821	0.01
351.03	-0
351.239	-0.03
351.448	0
351.657	0
351.866	0.16
352.075	0.05
352.284	0.08
352.493	-0
352.702	0.1
352.911	0.07
353.12	0.04
353.329	0.01
353.538	0.08
353.746	0.04
353.955	-0.01
354.164	0.04
354.373	0.02
354.582	0.06
354.79	0.07
354.999	0.09
355.208	0.02
355.416	0.1
355.625	-0.01
355.834	0.08
356.042	0.04
356.251	-0.01
356.46	-0.01
356.668	0.05
356.877	0.11
357.085	0.1
357.294	-0.06
357.503	0.02
357.711	0.02
357.92	0.14
358.128	0.05
358.337	0.02
358.545	0.05
358.754	-0.01
358.962	0.06
359.17	0.02
359.379	0.03
359.587	0.06
359.796	0.03
360.004	0.08
360.212	0.08
360.421	0.09
360.629	0.02
360.837	0.04
361.046	0.03
361.254	0.15
361.462	0.02
361.67	-0.01
361.879	0.03
362.087	0.11
362.295	0.03
362.503	0.02
362.711	0.02
362.92	0.01
363.128	0
363.336	-0.01
363.544	-0.04
363.752	0.03
363.96	-0
364.168	0.02
364.376	0.06
364.584	0.02
364.792	0.1
365	0.02
365.208	0.05
365.416	0.08
365.624	0.09
365.832	0.01
366.04	0.1
366.248	0.05
366.456	0.05
366.664	0.05
366.872	0.04
367.079	0.03
367.287	0.05
367.495	0.02
367.703	0.01
367.911	0.06
368.118	0.05
368.326	0.01
368.534	-0.01
368.742	0.08
368.949	-0.01
369.157	0.04
369.365	0.07
369.572	-0
369.78	0.02
369.988	0.08
370.195	0.08
370.403	0.04
370.61	0
370.818	0.04
371.026	0.09
371.233	0.01
371.441	0.02
371.648	0.02
371.856	0.05
372.063	-0
372.271	0.03
372.478	0.02
372.685	-0
372.893	0.09
373.1	0.03
373.308	0.02
373.515	0.11
373.722	0.05
373.93	0.04
374.137	0.04
374.344	0.07
374.552	0.07
374.759	0.05
374.966	0.01
375.173	0.03
375.381	0.08
375.588	0.03
375.795	-0.01
376.002	-0
376.209	0.01
376.417	0.04
376.624	-0
376.831	0.05
377.038	-0
377.245	-0.06
377.452	0.01
377.659	0.03
377.866	-0
378.073	0.03
378.28	-0
378.487	0.06
378.694	0.1
378.901	0.03
379.108	0.02
379.315	0.07
379.522	0.11
379.729	-0.01
379.936	0.03
380.143	0.07
380.35	0.03
380.557	0.02
380.763	0.05
380.97	-0
381.177	0.03
381.384	0.07
381.591	-0.01
381.797	0.01
382.004	0.07
382.211	0.04
382.418	-0.01
382.624	0.08
382.831	0.1
383.038	-0
383.244	0.04
383.451	-0.02
383.658	0.04
383.864	0.04
384.071	0.01
384.277	0.11
384.484	0.01
384.69	0.08
384.897	0.02
385.103	0.06
385.31	-0
385.516	0.03
385.723	-0.01
385.929	-0.02
386.136	0.03
386.342	0.05
386.549	-0.03
386.755	0.09
386.961	0.08
387.168	-0
387.374	0.04
387.58	0.04
387.787	0.01
387.993	0.05
388.199	0.04
388.406	0.02
388.612	0.01
388.818	0.01
389.024	0.02
389.231	0.04
389.437	0.11
389.643	-0
389.849	0.04
390.055	0.07
390.261	0.04
390.467	0.02
390.674	0.01
390.88	0.03
391.086	0.04
391.292	0
391.498	0.07
391.704	0.04
391.91	0.04
392.116	0.02
392.322	-0.05
392.528	0.02
392.734	0.05
392.94	0.01
393.146	0.02
393.352	0.07
393.557	0.01
393.763	0.02
393.969	0.03
394.175	0.02
394.381	0.04
394.587	-0.01
394.792	0.04
394.998	0.1
395.204	0.06
395.41	0.02
395.615	0.06
395.821	0.03
396.027	0.02
396.233	-0
396.438	0.06
396.644	0.06
396.85	0.05
397.055	0.02
397.261	0.04
397.466	0.03
397.672	0.03
397.878	0.03
398.083	0.09
398.289	-0.01
398.494	0.1
398.7	0.08
398.905	-0.05
399.111	0.1
399.316	0
399.522	0.03
399.727	0.03
399.932	0.02
400.138	0.01
400.343	0.09
400.549	0.03
400.754	0.07
400.959	0.02
401.165	0.05
401.37	0.09
401.575	0.12
401.78	0.06
401.986	0
402.191	0.02
402.396	0.01
402.601	0.07
402.807	0.03
403.012	0.04
403.217	0.13
403.422	0.01
403.627	0.03
403.832	0.04
404.037	0.08
404.243	0.06
404.448	0.06
404.653	0.02
404.858	0.03
405.063	0.09
405.268	0.01
405.473	-0.03
405.678	0.02
405.883	0.15
406.088	0.04
406.293	-0
406.498	0.04
406.703	0.09
406.907	0.03
407.112	-0.02
407.317	0.05
407.522	0.1
407.727	-0.02
407.932	-0
408.136	0.09
408.341	0.04
408.546	0.07
408.751	0.04
408.956	0.02
409.16	0.07
409.365	0.06
409.57	-0.01
409.774	0.04
409.979	0.08
410.184	0.11
410.388	0.03
410.593	0.09
410.798	0.04
411.002	-0.04
411.207	0.04
411.411	0.04
411.616	-0.01
411.82	0.02
412.025	0.06
412.229	-0.04
412.434	0.1
412.638	0.06
412.843	0.02
413.047	0.01
413.252	0.01
413.456	0.05
413.66	0.07
413.865	0
414.069	0.09
414.273	-0.01
414.478	-0
414.682	0.02
414.886	0.02
415.091	-0
415.295	-0.08
415.499	0.04
415.703	0.05
415.908	0.04
416.112	-0.06
416.316	0.05
416.52	0.03
416.724	-0.02
416.929	0.05
417.133	0.05
417.337	-0
417.541	0.06
417.745	-0.01
417.949	0.02
418.153	0.03
418.357	-0.01
418.561	0.14
418.765	0.04
418.969	0.13
419.173	0.07
419.377	-0.03
419.581	0.1
419.785	0.02
419.989	-0.02
420.193	0.02
420.397	0.04
420.601	0.05
420.804	0.08
421.008	0.02
421.212	0.02
421.416	0.06
421.62	-0
421.823	0.05
422.027	0.09
422.231	0.07
422.435	0.05
422.638	0.04
422.842	0.03
423.046	-0.01
423.249	0.07
423.453	0.03
423.657	-0
423.86	0
424.064	0.06
424.268	0.06
424.471	0.06
424.675	0.09
424.878	0.11
425.082	0.03
425.285	0.09
425.489	0.01
425.692	0.05
425.896	0.02
426.099	0.11
426.303	0.02
426.506	-0.03
426.71	0.04
426.913	0.08
427.116	0.09
427.32	0.06
427.523	0.02
427.726	0.12
427.93	0.04
428.133	0.05
428.336	-0
428.54	-0.06
428.743	0.05
428.946	0.05
429.149	0.02
429.353	0.04
429.556	0.01
429.759	0.03
429.962	0.01
430.165	0.05
430.368	0.03
430.571	-0
430.775	0.08
430.978	-0.02
431.181	0.04
431.384	0.03
431.587	0.05
431.79	0.07
431.993	0.05
432.196	-0.01
432.399	0.01
432.602	0.12
432.805	0.03
433.008	0
433.211	-0.01
433.414	0.06
433.616	0.07
433.819	0.03
434.022	-0.07
434.225	0.12
434.428	0.04
434.631	0.12
434.833	0.03
435.036	0.04
435.239	0.1
435.442	0.03
435.645	-0
435.847	0.02
436.05	0.08
436.253	0.04
436.455	-0.03
436.658	0.02
436.861	0.08
437.063	0.04
437.266	-0
437.468	-0.04
437.671	0.12
437.874	0.03
438.076	-0
438.279	-0.05
438.481	0
438.684	-0.06
438.886	0.03
439.089	-0.03
439.291	0.03
439.494	0.07
439.696	-0.02
439.899	0.02
440.101	0.04
440.303	-0.01
440.506	0.05
440.708	0.05
440.91	0.08
441.113	-0.04
441.315	0.08
441.517	-0.05
441.72	0.1
441.922	0.01
442.124	0
442.326	0.01
442.529	0.12
442.731	-0.02
442.933	0.08
443.135	0.03
443.337	0.02
443.539	0.01
443.742	0.04
443.944	0.07
444.146	0.02
444.348	-0.02
444.55	-0.01
444.752	0.01
444.954	-0.04
445.156	0.05
445.358	-0.07
445.56	0.08
445.762	0.04
445.964	0.01
446.166	-0.03
446.368	0.02
446.57	0.08
446.772	-0
446.974	0.03
447.175	0.05
447.377	-0.04
447.579	-0
447.781	-0.07
447.983	0.1
448.184	0.01
448.386	0.05
448.588	-0.01
448.79	0.03
448.991	-0
449.193	-0.05
449.395	0.05
449.597	0.04
449.798	0.04
450	0.04
450.202	0.03
450.403	0.01
450.605	0.06
450.806	0.04
451.008	-0.05
451.21	0.06
451.411	0.02
451.613	-0.01
451.814	0.04
452.016	0.03
452.217	0.04
452.419	0.09
452.62	0.06
452.821	0.05
453.023	0.06
453.224	0.13
453.426	0.05
453.627	0.08
453.828	0.1
454.03	-0.01
454.231	0.03
454.432	-0.04
454.634	0.07
454.835	-0
455.036	0.01
455.238	0.06
455.439	0.08
455.64	-0.01
455.841	0.02
456.042	0.1
456.244	0.03
456.445	-0
456.646	-0.05
456.847	0.01
457.048	0.12
457.249	0.09
457.45	0.26
457.651	-0.01
457.852	0.04
458.054	0.07
458.255	0.02
458.456	0.07
458.657	0.1
458.858	-0.03
459.058	0.06
459.259	0.1
459.46	0.04
459.661	-0.01
459.862	0.09
460.063	-0.01
460.264	0.03
460.465	-0.04
460.666	0.08
460.866	0.05
461.067	-0.02
461.268	0.05
461.469	0.04
461.67	0.06
461.87	0.04
462.071	-0.01
462.272	0.02
462.473	0.04
462.673	0.05
462.874	-0.03
463.075	0.05
463.275	-0.02
463.476	0.04
463.676	0.08
463.877	0.05
464.078	0.01
464.278	0.05
464.479	0.02
464.679	0.01
464.88	0.02
465.08	0.09
465.281	0
465.481	-0.01
465.682	0.04
465.882	0.04
466.083	0.05
466.283	0.02
466.483	0.03
466.684	0
466.884	-0.01
467.085	-0
467.285	0.06
467.485	-0.03
467.686	-0
467.886	-0
468.086	0.02
468.286	0.02
468.487	0.04
468.687	-0.02
468.887	0.01
469.087	0.05
469.287	0.02
469.488	-0.01
469.688	0.06
469.888	0.04
470.088	0.06
470.288	0.04
470.488	0.07
470.688	-0.05
470.888	-0.02
471.088	0.02
471.288	0.08
471.488	0.04
471.688	0.04
471.888	-0.02
472.088	0.08
472.288	0.07
472.488	-0.03
472.688	0.05
472.888	0.05
473.088	-0.01
473.288	0.03
473.488	0.02
473.688	0.1
473.887	0.06
474.087	-0
474.287	-0
474.487	-0.02
474.687	0.05
474.886	0.03
475.086	0.02
475.286	0.04
475.486	0.02
475.685	0.01
475.885	-0.01
476.085	0.03
476.284	0.07
476.484	0.03
476.684	0.04
476.883	0.06
477.083	0.04
477.282	0
477.482	0.06
477.681	0.06
477.881	0.03
478.08	0.01
478.28	-0.01
478.479	0.03
478.679	0.1
478.878	-0.02
479.078	0.02
479.277	-0
479.477	0.02
479.676	0.09
479.875	0.01
480.075	-0.05
480.274	0.04
480.473	0.04
480.673	0
480.872	0.06
481.071	0.04
481.271	0.03
481.47	0
481.669	0.03
481.868	-0.01
482.067	-0.04
482.267	0
482.466	-0
482.665	-0.02
482.864	-0.03
483.063	-0.03
483.262	0.06
483.461	0.07
483.661	0.05
483.86	0
484.059	0.04
484.258	0.03
484.457	0.03
484.656	0.02
484.855	0.03
485.054	-0.01
485.253	-0.02
485.452	0
485.651	-0
485.849	0.02
486.048	-0.02
486.247	-0.01
486.446	0.03
486.645	-0.01
486.844	-0
487.043	0
487.241	0.05
487.44	-0
487.639	-0.02
487.838	0.03
488.037	0.02
488.235	0.07
488.434	0.02
488.633	0.02
488.831	0.02
489.03	0.04
489.229	0.02
489.427	-0.01
489.626	0.03
489.825	0.06
490.023	0.02
490.222	0.01
490.42	0.02
490.619	0.03
490.817	0.03
491.016	-0.01
491.214	0.04
491.413	0.01
491.611	0.01
491.81	0
492.008	0.02
492.207	0.04
492.405	0.03
492.604	-0
492.802	0.01
493	-0
493.199	-0
493.397	0.01
493.595	0.01
493.794	0
493.992	0.06
494.19	0
494.388	0.03
494.587	-0.01
494.785	0.02
494.983	-0.02
495.181	0.01
495.379	0.02
495.578	0
495.776	0.04
495.974	0.03
496.172	0.02
496.37	0.01
496.568	-0.01
496.766	-0
496.964	0.04
497.162	0.03
497.36	-0.01
497.558	0.03
497.756	0.03
497.954	0.01
498.152	-0.02
498.35	0
498.548	0.02
498.746	0.01
498.944	-0.02
499.142	-0.01
499.34	-0
499.538	-0
499.736	-0
499.933	0.05
500.131	0.04
500.329	0.01
500.527	0.05
500.725	0.03
500.922	0.01
501.12	0.01
501.318	0.01
501.516	-0.01
501.713	0.04
501.911	0
502.109	-0.01
502.306	0.01
502.504	0.01
502.701	0
502.899	0.01
503.097	0.07
503.294	0.04
503.492	0.01
503.689	0.04
503.887	0.03
504.084	0.06
504.282	-0
504.479	-0.02
504.677	-0.02
504.874	-0.04
505.072	0
505.269	-0
505.466	0.01
505.664	0.04
505.861	-0.01
506.059	-0.04
506.256	0.05
506.453	0
506.651	0.05
506.848	0.05
507.045	0.02
507.242	0.02
507.44	0.01
507.637	0.01
507.834	0.02
508.031	0.04
508.229	-0.03
508.426	0.02
508.623	0.02
508.82	-0
509.017	-0.02
509.214	-0
509.411	0.03
509.608	0.01
509.805	0
510.003	0.01
510.2	0
510.397	0.04
510.594	-0.01
510.791	-0
510.988	0
511.184	0.03
511.381	0.02
511.578	-0.01
511.775	0.04
511.972	-0.01
512.169	0.01
512.366	-0
512.563	0.01
512.76	-0
512.956	0.02
513.153	0.01
513.35	0
513.547	-0.01
513.744	-0.01
513.94	-0
514.137	0.02
514.334	0.03
514.53	0.01
514.727	0.02
514.924	0.06
515.12	-0.02
515.317	-0
515.514	0.02
515.71	-0.01
515.907	-0.01
516.103	-0
516.3	0.02
516.497	0.03
516.693	0.05
516.89	0.01
517.086	-0.01
517.283	0.02
517.479	0.02
517.676	0.02
517.872	0.01
518.068	-0.01
518.265	-0.01
518.461	-0
518.658	-0.01
518.854	0.03
519.05	0.02
519.247	-0
519.443	0.01
519.639	0.03
519.836	-0
520.032	0.04
520.228	0.03
520.424	0.08
520.621	0.03
520.817	0.01
521.013	0.02
521.209	0.03
521.405	0.05
521.601	0.01
521.798	0.01
521.994	0.07
522.19	-0.02
522.386	-0.01
522.582	0.01
522.778	0.02
522.974	-0.02
523.17	-0
523.366	0.02
523.562	0.05
523.758	-0.01
523.954	-0
524.15	-0.01
524.346	0.02
524.542	0.01
524.738	-0.01
524.934	0.01
525.129	0
525.325	0.01
525.521	0.01
525.717	0.03
525.913	0.02
526.109	0.01
526.304	0.01
526.5	0.01
526.696	0.05
526.892	-0.01
527.087	0.01
527.283	-0.01
527.479	0.03
527.674	0.01
527.87	-0
528.066	0.01
528.261	0.04
528.457	0.02
528.653	0
528.848	0.01
529.044	-0.01
529.239	0
529.435	0.02
529.63	0.03
529.826	0.04
530.021	0.02
530.217	0.05
530.412	0
530.608	0.01
530.803	0.02
530.999	0.01
531.194	-0.02
531.389	0.01
531.585	-0.04
531.78	-0.01
531.975	-0
532.171	0.04
532.366	0
532.561	0.01
532.757	-0.01
532.952	0.01
533.147	0.02
533.342	0.02
533.538	-0.01
533.733	0.05
533.928	0.02
534.123	-0.01
534.318	-0.03
534.513	0.01
534.709	0.01
534.904	-0.01
535.099	-0
535.294	0
535.489	0
535.684	-0.01
535.879	-0.01
536.074	0.02
536.269	-0.02
536.464	0.03
536.659	0
536.854	0
537.049	0.01
537.244	-0
537.439	0.01
537.634	0.05
537.828	0.01
538.023	-0
538.218	-0.03
538.413	-0
538.608	-0.02
538.803	0.03
538.997	-0.04
539.192	0.04
539.387	0.03
539.582	0.03
539.776	-0.01
539.971	-0
540.166	-0
540.36	-0.02
540.555	0.01
540.75	0.01
540.944	-0
541.139	-0.04
541.334	-0
541.528	0.03
541.723	0.03
541.917	-0.01
542.112	-0.03
542.306	0.01
542.501	0.01
542.695	0
542.89	-0.01
543.084	0.02
543.279	0.01
543.473	0.01
543.668	0
543.862	0.02
544.056	0.03
544.251	0.01
544.445	0.01
544.64	-0.01
544.834	-0.02
545.028	-0
545.222	0.01
545.417	0.03
545.611	0.01
545.805	0
546	0.02
546.194	0.01
546.388	-0.02
546.582	0.01
546.776	-0
546.97	0
547.165	0.02
547.359	0.02
547.553	-0.01
547.747	0.01
547.941	0.02
548.135	0.01
548.329	0.02
548.523	-0.01
548.717	0.01
548.911	0
549.105	0
549.299	0
549.493	0.02
549.687	0.02
549.881	0.02
550.075	0
550.269	-0.03
550.463	0.01
550.657	-0
550.85	0
551.044	-0.03
551.238	-0.01
551.432	0.01
551.626	-0.02
551.82	0.03
552.013	0
552.207	0.03
552.401	0.04
552.594	-0.01
552.788	0.01
552.982	0
553.176	0.01
553.369	0.03
553.563	0.01
553.756	-0.03
553.95	-0.02
554.144	0.01
554.337	0.04
554.531	-0
554.724	0.02
554.918	0.01
555.111	0.02
555.305	0.02
555.498	0.04
555.692	0.04
555.885	0
556.079	0.02
556.272	-0
556.466	0.04
556.659	0.01
556.852	0.01
557.046	-0.01
557.239	0.05
557.432	-0.01
557.626	0
557.819	0.01
558.012	0.02
558.206	0
558.399	0
558.592	0.01
558.785	0
558.979	0.03
559.172	0.02
559.365	0.06
559.558	0.02
559.751	0.02
559.944	0.02
560.138	0.01
560.331	0.01
560.524	0
560.717	0.01
560.91	0.01
561.103	0.02
561.296	0.02
561.489	0.03
561.682	-0
561.875	0.06
562.068	0.04
562.261	0.03
562.454	0.02
562.647	0.01
562.84	0.03
563.032	0.01
563.225	0.01
563.418	-0.01
563.611	-0
563.804	0
563.997	-0.03
564.19	-0.02
564.382	-0.04
564.575	0.01
564.768	0.01
564.961	-0.02
565.153	-0.01
565.346	0.03
565.539	0.02
565.731	0.04
565.924	0.01
566.117	0.04
566.309	0.02
566.502	0.01
566.695	0.02
566.887	0.02
567.08	0
567.272	0.01
567.465	-0.02
567.657	-0.01
567.85	0.04
568.042	0.02
568.235	0.05
568.427	0.02
568.62	0.03
568.812	0.03
569.005	0
569.197	-0.04
569.389	0.02
569.582	0.01
569.774	0.02
569.966	-0
570.159	-0
570.351	0.01
570.543	-0.01
570.736	-0.01
570.928	-0.03
571.12	0.03
571.312	-0.01
571.505	-0.01
571.697	0.04
571.889	-0.02
572.081	0
572.273	-0.01
572.465	0.03
572.658	0.02
572.85	0.01
573.042	0.01
573.234	0.01
573.426	0.05
573.618	-0.04
573.81	0
574.002	0.03
574.194	0.03
574.386	-0.02
574.578	-0.05
574.77	-0.02
574.962	0
575.154	-0.01
575.346	0.03
575.538	0.02
575.729	0.02
575.921	-0.03
576.113	-0
576.305	0.04
576.497	0
576.689	-0
576.88	-0.05
577.072	0.02
577.264	0
577.456	0
577.647	-0.05
577.839	0.01
578.031	0.04
578.223	-0.02
578.414	-0.01
578.606	0.04
578.798	0.02
578.989	-0.02
579.181	0.02
579.372	0.01
579.564	0.01
579.755	0.01
579.947	0.02
580.139	0.02
580.33	-0.02
580.522	-0.01
580.713	-0.06
580.905	0.01
581.096	0.02
581.287	-0.01
581.479	0.01
581.67	0.05
581.862	0.02
582.053	-0.01
582.244	-0.04
582.436	-0.01
582.627	0.02
582.818	-0.01
583.01	-0.02
583.201	0.01
583.392	0.02
583.583	0.01
583.775	0.01
583.966	-0.01
584.157	0.02
584.348	-0.01
584.54	-0.04
584.731	0.02
584.922	0.01
585.113	-0.02
585.304	0.03
585.495	0.04
585.686	0.01
585.877	0.02
586.068	0.03
586.259	0.01
586.45	0.01
586.641	0
586.832	-0.05
587.023	0.03
587.214	-0.01
587.405	0
587.596	-0.02
587.787	0.08
587.978	0.02
588.169	-0
588.36	-0.05
588.551	0.03
588.742	-0
588.932	0.01
589.123	0.02
589.314	0.03
589.505	0.03
589.696	0.02
589.886	-0
590.077	-0.03
590.268	0.03
590.458	-0.02
590.649	-0.03
590.84	0.01
591.03	-0.02
591.221	-0.01
591.412	-0.03
591.602	0.03
591.793	0.05
591.984	-0.04
592.174	-0
592.365	0.07
592.555	0.02
592.746	0.02
592.936	0.03
593.127	0.01
593.317	0.06
593.508	0.03
593.698	0
593.889	0.01
594.079	0
594.269	-0.01
594.46	-0
594.65	0
594.84	0.03
595.031	0.01
595.221	0.02
595.411	-0.06
595.602	0.03
595.792	0.01
595.982	-0
596.172	0.04
596.363	0.01
596.553	0.04
596.743	0.02
596.933	0.01
597.123	0.03
597.314	-0.01
597.504	0.01
597.694	0.03
597.884	0.04
598.074	0.02
598.264	0.04
598.454	0.02
598.644	0.01
598.834	0.01
599.024	-0.06
599.214	0.01
599.404	0.02
599.594	-0.01
599.784	-0.03
599.974	0.03
600.164	0.03
600.354	-0.02
600.544	-0.02
600.734	0.04
600.924	0.07
601.114	-0
601.303	0.03
601.493	0.01
601.683	-0
601.873	0.01
602.063	-0.05
602.252	0.03
602.442	-0.04
602.632	-0.01
602.821	-0.02
603.011	0.02
603.201	0.01
603.39	0.01
603.58	0.01
603.77	0.03
603.959	0.02
604.149	-0.01
604.339	0
604.528	0.03
604.718	0.04
604.907	-0.02
605.097	-0.02
605.286	-0.06
605.476	0.01
605.665	0.06
605.855	-0
606.044	0.07
606.234	0.05
606.423	0
606.612	-0.03
606.802	0.03
606.991	0.03
607.181	0.06
607.37	-0.03
607.559	-0
607.749	-0.03
607.938	0
608.127	0.01
608.316	-0.01
608.506	0.04
608.695	0.03
608.884	-0.01
609.073	-0.01
609.263	0.01
609.452	0.03
609.641	0.01
609.83	-0
610.019	0.03
610.208	-0.01
610.397	0.02
610.586	0
610.775	0.02
610.965	-0.03
611.154	0.01
611.343	0.03
611.532	-0.01
611.721	0
611.91	-0.02
612.099	0.01
612.287	-0.03
612.476	-0.02
612.665	0.03
612.854	0
613.043	0.06
613.232	0.01
613.421	-0.04
613.61	0.02
613.798	0.01
613.987	0.04
614.176	0.02
614.365	0.04
614.554	0.02
614.742	0.06
614.931	0
615.12	0.06
615.309	-0
615.497	0.04
615.686	-0.02
615.875	-0.02
616.063	0.03
616.252	0.01
616.44	-0.02
616.629	0.01
616.818	0.03
617.006	0
617.195	0.04
617.383	0.01
617.572	0.04
617.76	0
617.949	0
618.137	0.02
618.326	0.02
618.514	-0.02
618.703	-0.01
618.891	0.05
619.079	-0
619.268	0
619.456	-0.02
619.644	0.08
619.833	-0.01
620.021	-0.01
620.209	-0.04
620.398	0.03
620.586	0
620.774	0.03
620.962	0.02
621.151	0.07
621.339	0
621.527	-0.02
621.715	-0.02
621.903	-0.01
622.092	-0.03
622.28	0.03
622.468	-0.02
622.656	0
622.844	0.04
623.032	0.01
623.22	-0.03
623.408	0.04
623.596	0.04
623.784	0.04
623.972	0
624.16	0
624.348	0.04
624.536	-0.02
624.724	-0.02
624.912	0.08
625.1	0.03
625.288	-0.02
625.476	0
625.664	0.06
625.851	-0.02
626.039	-0.02
626.227	0.01
626.415	-0.01
626.603	-0.05
626.79	0.02
626.978	0.05
627.166	0.01
627.354	0.02
627.541	-0.02
627.729	-0.06
627.917	0.02
628.104	0.06
628.292	0.02
628.48	0.02
628.667	0.01
628.855	0.02
629.042	0.06
629.23	0
629.418	0.01
629.605	0
629.793	-0.02
629.98	0.01
630.168	0.02
630.355	0
630.543	0.03
630.73	-0.03
630.917	0.06
631.105	0.08
631.292	-0
631.48	-0
631.667	0.09
631.854	0.06
632.042	0.01
632.229	-0.04
632.416	0.04
632.604	0.01
632.791	-0.02
632.978	0.04
633.165	0.05
633.353	0.07
633.54	0.05
633.727	-0.05
633.914	-0.01
634.101	-0.05
634.289	0.06
634.476	-0.03
634.663	-0.01
634.85	0.04
635.037	-0.03
635.224	-0.02
635.411	0.05
635.598	0.04
635.785	0.01
635.972	0
636.159	0.04
636.346	-0.01
636.533	0.02
636.72	-0.02
636.907	-0
637.094	0.02
637.281	-0.03
637.468	0.04
637.655	-0.01
637.842	0.01
638.029	-0.01
638.215	0.07
638.402	0.03
638.589	-0
638.776	0.02
638.963	-0.03
639.149	0.04
639.336	0.06
639.523	0.01
639.709	0.06
639.896	-0.02
640.083	0.05
640.27	0.04
640.456	-0.01
640.643	0.02
640.829	-0.03
641.016	0.05
641.203	-0
641.389	0.05
641.576	0.01
641.762	0.01
641.949	-0.01
642.135	0.04
642.322	0.03
642.508	-0.05
642.695	0.03
642.881	-0
643.068	-0.02
643.254	0.01
643.441	0.02
643.627	0.03
643.813	-0.01
644	0.05
644.186	-0.02
644.372	-0.01
644.559	0.08
644.745	0.02
644.931	-0.01
645.118	0.02
645.304	0.02
645.49	-0
645.676	0.03
645.862	0.02
646.049	0.05
646.235	0.03
646.421	0.09
646.607	0.07
646.793	-0
646.979	0.01
647.165	0.02
647.352	0.02
647.538	0.06
647.724	0.03
647.91	0.05
648.096	0.01
648.282	0.07
648.468	0.03
648.654	0.02
648.84	0.04
649.026	-0.01
649.212	0
649.397	0
649.583	-0.02
649.769	0.07
649.955	0.01
650.141	0.06
650.327	0.08
650.513	0.01
650.698	0.09
650.884	-0.03
651.07	0.04
651.256	0.05
651.442	0.02
651.627	0.02
651.813	0.06
651.999	0.03
652.184	0.05
652.37	-0.02
652.556	-0.01
652.741	0.09
652.927	-0.01
653.113	0.05
653.298	0.04
653.484	0.04
653.669	-0.04
653.855	0.04
654.04	0.03
654.226	0.06
654.412	0.03
654.597	0
654.782	0.05
654.968	0.09
655.153	0.03
655.339	0.02
655.524	0.01
655.71	0.08
655.895	0.03
656.08	0.05
656.266	0.06
656.451	0.06
656.636	0.03
656.822	0.06
657.007	0
657.192	-0.02
657.378	0.01
657.563	0.05
657.748	0.05
657.933	0.04
658.118	0.04
658.304	0.04
658.489	0.08
658.674	0.04
658.859	0.03
659.044	0.07
659.229	0.07
659.414	0.04
659.599	0.04
659.785	-0.02
659.97	0.04
660.155	0.1
660.34	0.02
660.525	0.03
660.71	0.03
660.895	0.09
661.08	0.04
661.264	0.05
661.449	0.13
661.634	0.08
661.819	0.09
662.004	0.04
662.189	-0.02
662.374	0.02
662.559	0.04
662.743	0.02
662.928	0.04
663.113	0.02
663.298	-0
663.483	0.04
663.667	0.05
663.852	-0.01
664.037	0.12
664.221	-0.01
664.406	0.09
664.591	0.07
664.775	0.07
664.96	0.01
665.145	0.05
665.329	0.1
665.514	0.02
665.698	0.03
665.883	0.01
666.068	0.13
666.252	0.06
666.437	-0.02
666.621	0.08
666.806	0.12
666.99	0.06
667.174	0.05
667.359	0.1
667.543	0.02
667.728	0.06
667.912	0.01
668.096	0.06
668.281	0.07
668.465	0.06
668.649	0.08
668.834	0.07
669.018	0.05
669.202	0.05
669.387	0.05
669.571	0.1
669.755	0.03
669.939	0.05
670.124	0.1
670.308	0.13
670.492	0.12
670.676	0.12
670.86	0.1
671.044	0.06
671.228	0.11
671.413	0.09
671.597	0.08
671.781	0.09
671.965	0.1
672.149	0.12
672.333	0.05
672.517	0.05
672.701	0.11
672.885	0.09
673.069	0.06
673.253	0.15
673.437	0.12
673.621	0.12
673.804	0.12
673.988	0.06
674.172	0.1
674.356	0.07
674.54	0.09
674.724	0.17
674.908	0.11
675.091	0.13
675.275	0.11
675.459	0.19
675.643	0.19
675.826	0.13
676.01	0.15
676.194	0.14
676.377	0.21
676.561	0.16
676.745	0.19
676.928	0.15
677.112	0.22
677.296	0.12
677.479	0.14
677.663	0.14
677.846	0.16
678.03	0.13
678.213	0.1
678.397	0.17
678.58	0.15
678.764	0.14
678.947	0.13
679.131	0.17
679.314	0.19
679.498	0.15
679.681	0.22
679.865	0.2
680.048	0.17
680.231	0.2
680.415	0.18
680.598	0.13
680.781	0.15
680.965	0.11
681.148	0.21
681.331	0.14
681.514	0.25
681.698	0.17
681.881	0.2
682.064	0.19
682.247	0.22
682.43	0.15
682.614	0.25
682.797	0.29
682.98	0.25
683.163	0.15
683.346	0.25
683.529	0.21
683.712	0.15
683.895	0.24
684.078	0.18
684.261	0.21
684.444	0.24
684.627	0.26
684.81	0.22
684.993	0.24
685.176	0.25
685.359	0.23
685.542	0.24
685.725	0.33
685.908	0.35
686.091	0.31
686.274	0.35
686.457	0.36
686.639	0.3
686.822	0.3
687.005	0.26
687.188	0.31
687.371	0.41
687.553	0.37
687.736	0.32
687.919	0.43
688.102	0.38
688.284	0.32
688.467	0.36
688.65	0.32
688.832	0.34
689.015	0.34
689.197	0.29
689.38	0.43
689.563	0.47
689.745	0.35
689.928	0.35
690.11	0.35
690.293	0.44
690.475	0.39
690.658	0.48
690.84	0.41
691.023	0.41
691.205	0.39
691.388	0.44
691.57	0.5
691.752	0.47
691.935	0.37
692.117	0.44
692.3	0.51
692.482	0.41
692.664	0.48
692.847	0.51
693.029	0.52
693.211	0.53
693.393	0.51
693.576	0.54
693.758	0.54
693.94	0.56
694.122	0.56
694.304	0.53
694.487	0.55
694.669	0.68
694.851	0.55
695.033	0.6
695.215	0.59
695.397	0.58
695.579	0.63
695.761	0.57
695.943	0.54
696.125	0.69
696.308	0.68
696.49	0.58
696.671	0.79
696.853	0.67
697.035	0.89
697.217	0.73
697.399	0.77
697.581	0.73
697.763	0.78
697.945	0.68
698.127	0.79
698.309	0.85
698.491	0.79
698.672	0.94
698.854	0.83
699.036	0.94
699.218	0.86
699.399	0.9
699.581	0.93
699.763	0.91
699.945	0.86
700.126	0.86
700.308	0.98
700.49	0.88
700.671	0.91
700.853	0.93
701.035	0.97
701.216	0.99
701.398	1.02
701.579	1.02
701.761	1.13
701.943	1.03
702.124	1.03
702.306	1.09
702.487	1.3
702.669	1.2
702.85	1.11
703.031	1.16
703.213	1.27
703.394	1.3
703.576	1.21
703.757	1.41
703.938	1.3
704.12	1.41
704.301	1.31
704.483	1.33
704.664	1.33
704.845	1.47
705.026	1.54
705.208	1.45
705.389	1.46
705.57	1.5
705.751	1.56
705.933	1.61
706.114	1.55
706.295	1.56
706.476	1.55
706.657	1.78
706.838	1.63
707.02	1.69
707.201	1.75
707.382	1.7
707.563	1.74
707.744	1.73
707.925	1.81
708.106	1.88
708.287	1.88
708.468	1.99
708.649	1.96
708.83	1.98
709.011	1.97
709.192	2.07
709.373	2.05
709.554	2.09
709.734	2.2
709.915	2.27
710.096	2.23
710.277	2.06
710.458	2.2
710.639	2.21
710.819	2.25
711	2.35
711.181	2.53
711.362	2.48
711.542	2.48
711.723	2.57
711.904	2.68
712.085	2.72
712.265	2.66
712.446	2.59
712.627	2.77
712.807	2.83
712.988	2.84
713.168	2.84
713.349	2.95
713.53	2.86
713.71	2.82
713.891	2.98
714.071	3.01
714.252	3.24
714.432	3.14
714.613	3.14
714.793	3.37
714.974	3.52
715.154	3.46
715.334	3.52
715.515	3.47
715.695	3.4
715.876	3.51
716.056	3.58
716.236	3.68
716.417	3.78
716.597	3.73
716.777	4.02
716.957	3.87
717.138	4.18
717.318	3.97
717.498	4.13
717.678	4.34
717.859	4.15
718.039	4.37
718.219	4.4
718.399	4.47
718.579	4.48
718.759	4.55
718.939	4.72
719.12	4.73
719.3	4.8
719.48	4.78
719.66	4.85
719.84	5.04
720.02	5.09
720.2	5.01
720.38	5.26
720.56	5.49
720.74	5.26
720.92	5.51
721.1	5.62
721.279	5.77
721.459	5.62
721.639	5.66
721.819	5.93
721.999	6.04
722.179	6.12
722.359	5.99
722.538	6.13
722.718	6.37
722.898	6.48
723.078	6.54
723.257	6.64
723.437	6.7
723.617	6.82
723.797	6.98
723.976	6.93
724.156	7.18
724.336	7.15
724.515	7.5
724.695	7.25
724.874	7.61
725.054	7.71
725.234	7.66
725.413	7.93
725.593	7.89
725.772	7.91
725.952	8.06
726.131	8.03
726.311	8.23
726.49	8.49
726.67	8.44
726.849	8.68
727.028	8.62
727.208	8.75
727.387	8.91
727.567	9.03
727.746	8.95
727.925	9.15
728.105	9.13
728.284	9.35
728.463	9.39
728.643	9.53
728.822	9.64
729.001	9.72
729.18	9.99
729.359	10.17
729.539	10.29
729.718	10.12
729.897	10.43
730.076	10.49
730.255	10.46
730.434	10.75
730.614	10.89
730.793	10.94
730.972	10.99
731.151	11.16
731.33	11.38
731.509	11.4
731.688	11.23
731.867	11.72
732.046	11.62
732.225	12.03
732.404	11.87
732.583	11.92
732.762	12.25
732.941	12.37
733.12	12.61
733.298	12.65
733.477	12.83
733.656	12.82
733.835	12.91
734.014	13.22
734.193	12.92
734.371	13.31
734.55	13.29
734.729	13.24
734.908	13.59
735.086	13.59
735.265	13.81
735.444	13.48
735.623	13.89
735.801	14.29
735.98	14.23
736.159	14.03
736.337	14.41
736.516	14.38
736.694	14.2
736.873	14.17
737.052	14.65
737.23	14.47
737.409	14.4
737.587	14.81
737.766	14.54
737.944	14.53
738.123	14.82
738.301	14.55
738.479	14.71
738.658	14.7
738.836	14.53
739.015	14.51
739.193	14.62
739.371	14.13
739.55	13.77
739.728	13.93
739.906	14.13
740.085	14.19
740.263	14.02
740.441	13.44
740.62	13.62
740.798	13.28
740.976	12.76
741.154	12.76
741.332	12.91
741.511	12.46
741.689	12.22
741.867	12.27
742.045	11.91
742.223	11.4
742.401	11.3
742.579	11.06
742.757	11
742.935	10.55
743.114	10.4
743.292	10.31
743.47	10.09
743.648	9.83
743.826	9.66
744.004	9.5
744.181	9.17
744.359	8.69
744.537	8.7
744.715	8.23
744.893	8.4
745.071	7.86
745.249	7.59
745.427	7.42
745.605	7.23
745.782	7.11
745.96	6.99
746.138	6.78
746.316	6.42
746.493	6.13
746.671	6.13
746.849	5.83
747.027	5.87
747.204	5.5
747.382	5.42
747.56	4.97
747.737	4.95
747.915	4.75
748.093	4.67
748.27	4.42
748.448	4.51
748.625	4.08
748.803	4.12
748.98	4.01
749.158	4.01
749.335	3.73
749.513	3.63
749.69	3.43
749.868	3.43
750.045	3.36
750.223	3.17
750.4	2.94
750.578	3.2
750.755	2.99
750.932	2.88
751.11	2.98
751.287	2.62
751.464	2.77
751.642	2.38
751.819	2.55
751.996	2.48
752.173	2.21
752.351	2.24
752.528	2.21
752.705	2.18
752.882	2.04
753.06	2.06
753.237	2.04
753.414	2.19
753.591	2.14
753.768	1.89
753.945	1.71
754.122	1.54
754.299	1.68
754.476	1.54
754.654	1.58
754.831	1.63
755.008	1.49
755.185	1.27
755.362	1.32
755.539	1.37
755.716	1.45
755.892	1.3
756.069	1.2
756.246	1.1
756.423	1.19
756.6	1.3
756.777	1.11
756.954	1.05
757.131	1.11
757.307	0.97
757.484	0.84
757.661	1.03
757.838	1.04
758.015	0.81
758.191	0.94
758.368	0.88
758.545	1.1
758.721	0.91
758.898	0.64
759.075	0.8
759.251	0.92
759.428	0.9
759.605	0.62
759.781	0.63
759.958	0.77
760.134	0.73
760.311	0.62
760.488	0.83
760.664	0.76
760.841	0.68
761.017	0.51
761.194	0.72
761.37	0.62
761.547	0.63
761.723	0.55
761.899	0.7
762.076	0.45
762.252	0.33
762.429	0.44
762.605	0.57
762.781	0.49
762.958	0.55
763.134	0.49
763.31	0.36
763.486	0.51
763.663	0.31
763.839	0.48
764.015	0.29
764.191	0.37
764.368	0.44
764.544	0.36
764.72	0.5
764.896	0.48
765.072	0.51
765.248	0.42
765.425	0.38
765.601	0.37
765.777	0.38
765.953	0.28
766.129	0.28
766.305	0.25
766.481	0.36
766.657	0.35
766.833	0.53
767.009	0.27
767.185	0.28
767.361	0.33
767.537	0.16
767.713	0.52
767.889	0.24
768.065	0.33
768.24	0.18
768.416	0.29
768.592	0.17
768.768	0.26
768.944	0.44
769.12	0.11
769.295	0.26
769.471	0.14
769.647	0.21
769.823	0.39
769.998	0.13
770.174	0.21
770.35	0.5
770.525	0.53
770.701	0.18
770.877	0.28
771.052	0.14
771.228	0.31
771.403	0.19
771.579	0.28
771.755	0.49
771.93	0.13
772.106	0.09
772.281	0.03
772.457	0.3
772.632	0.27
772.808	0.1
772.983	0.16
773.159	0.08
773.334	0.25
773.509	0.14
773.685	0.04
773.86	0.3
774.036	0.35
774.211	0.3
774.386	0.14
774.562	0.11
774.737	0.28
774.912	0.06
775.087	0.24
775.263	0.32
775.438	0.21
775.613	-0.02
775.788	0.2
775.964	0.52
776.139	0.44
776.314	0
776.489	0.22
776.664	0.2
776.839	0.07
777.014	0.32
777.19	0.24
777.365	0.3
777.54	0.37
777.715	0.24
777.89	0.21
778.065	0.02
778.24	0.11
778.415	0.19
778.59	0.06
778.765	0.04
778.94	0.07
779.115	0.08
779.289	0.12
779.464	0.08
779.639	0.16
779.814	0.06
779.989	0.02
780.164	0.28
780.339	0.31
780.513	-0.08
780.688	0.08
780.863	0.09
781.038	0.28
781.212	0.18
781.387	0.22
781.562	0.39
781.737	0.16
781.911	0.3
782.086	0.08
782.261	0.26
782.435	0.27
782.61	0.01
782.784	0.11
782.959	0.23
783.134	0.07
783.308	-0.08
783.483	-0.02
783.657	0.57
783.832	0.36
784.006	-0.06
784.181	0.29
784.355	0.34
784.53	0.02
784.704	0.02
784.878	0.49
785.053	0.16
785.227	0.29
785.402	0.52
785.576	-0.08
785.75	0.09
785.925	0.23
786.099	0.16
786.273	0.24
786.448	0.3
786.622	0.3
786.796	0.12
786.97	0.1
787.145	0.67
787.319	-0.23
787.493	0.13
787.667	-0.23
787.841	0.35
788.015	0.21
788.19	0.21
788.364	0.14
788.538	0.31
788.712	0.29
788.886	0.34
789.06	0.56
789.234	0.35
789.408	0.05
789.582	0.18
789.756	0.13
789.93	0.14
790.104	0.16
790.278	0.14
790.452	-0.07
790.626	0.29
790.8	0.04
790.973	0.14
791.147	0.48
791.321	0.57
791.495	0.33
791.669	0.2
791.843	0.23
792.016	0.22
792.19	0.49
792.364	0
792.538	0.63
792.711	0.31
792.885	-0.07
793.059	0.13
793.233	-0.41
793.406	0.2
793.58	0.29
793.754	0.32
793.927	-0.02
794.101	0.44
794.274	0.08
794.448	0.56
794.622	-0.05
794.795	0.18
794.969	0.01
795.142	0.45
795.316	0.19
795.489	-0.01
795.663	0.57
795.836	0.04
796.009	-0.09
796.183	0.49
796.356	0.17
796.53	0.1
796.703	0.21
796.876	0.64
797.05	0.17
797.223	-0.09
797.396	0.23
797.57	0.09
797.743	0.45
797.916	0.43
798.09	0.16
798.263	0.3
798.436	0.24
798.609	-0.09
798.782	0.2
798.956	0.25
799.129	0.16
799.302	0.11
799.475	-0.03
799.648	0.12
799.821	-0.08
799.994	0.28
800.167	-0.11
800.34	0.38
800.514	0.24
800.687	0.23
800.86	-0.09
801.033	0.04
801.206	0.27
801.379	0.05
801.551	0.65
801.724	0.68
801.897	0.33
802.07	0.14
802.243	-0.3
802.416	0.18
802.589	-0.01
802.762	0.31
802.935	0.26
803.107	0.24
803.28	0.53
803.453	0.46
803.626	0.14
803.798	0.15
803.971	-0.07
804.144	0.2
804.317	0.33
804.489	0.4
804.662	0.16
804.835	0.29
805.007	0.11
805.18	0.66
805.353	0.23
805.525	0.03
805.698	-0.09
805.87	0.41
806.043	0.57
806.215	-0.07
806.388	-0.01
806.56	0.16
806.733	0.57
806.905	0.11
807.078	0.12
807.25	0.2
807.423	-0
807.595	-0.1
807.768	0.16
807.94	0.72
808.112	0.18
808.285	0.35
808.457	-0.14
808.629	0.29
808.802	0.44
808.974	0.29
809.146	-0.02
809.318	-0.19
809.491	0.17
809.663	0.85
809.835	0.17
810.007	0.47
810.18	0.23
810.352	-0.29
810.524	-0.06
810.696	0.01
810.868	0.83
811.04	-0.16
811.212	0.09
811.384	0.68
811.556	0.12
811.728	0.2
811.901	0.92
812.073	-0.47
812.245	0.21
812.417	0.3
812.589	-0.18
812.76	0.08
812.932	0.31
813.104	0.55
813.276	0.31
813.448	0.39
813.62	0.03
813.792	0.33
813.964	0.14
814.136	0.17
814.307	-0.07
814.479	0.05
814.651	0.35
814.823	1.08
814.995	0.26
815.166	0.06
815.338	-0.1
815.51	0.2
815.681	1.14
815.853	0.35
816.025	0.62
816.196	0.86
816.368	0.57
816.54	0.05
816.711	-0.11
816.883	0.21
817.054	1.08
817.226	-0.36
817.398	0.18
817.569	0.04
817.741	0.27
817.912	0.45
818.084	-0.06
818.255	0.56
818.426	-0.74
818.598	0.22
818.769	0.15
818.941	0.43
819.112	0.68
819.283	0.49
819.455	-0.23
819.626	0.42
819.798	0.36
819.969	0.09
820.14	0.22
820.311	0.2
820.483	-0.19
820.654	0.48
820.825	0.25
820.996	0.27
821.168	-0.13
821.339	0.36
821.51	-0.24
821.681	1.35
821.852	-0.1
822.023	-0.21
822.195	-0.17
822.366	0.58
822.537	0.36
822.708	0.72
822.879	0.2
823.05	0.82
823.221	0.19
823.392	0.62
823.563	0.25
823.734	0.58
823.905	0.48
824.076	-0.17
824.247	0.14
824.418	0.05
824.589	0.86
824.759	0.19
824.93	-0.24
825.101	-0.65
825.272	0.71
825.443	0.87
825.614	0.54
825.784	-0.65
825.955	1.24
826.126	1.02
826.297	1.02
826.467	0.57
826.638	0.93
826.809	0.07
826.98	0.24
827.15	0.42
827.321	0.38
827.492	0.71
827.662	0.33
827.833	0.63
828.003	0.52
828.174	-0.87
828.345	0.08
828.515	0.9
828.686	0.17
828.856	0.04
829.027	0.53
829.197	0.21
829.368	0.52
829.538	-0.44
829.709	-0.02
829.879	0.38
830.049	0.28
830.22	-0.14
830.39	0.53
830.56	0.91
830.731	0.3
830.901	-0.22
831.072	0.76
831.242	0.29
831.412	0.49
831.582	-0.07
831.753	-0.61
831.923	0.93
832.093	0.74
832.263	-0.35
832.434	-0.14
832.604	-0.35
832.774	0.6
832.944	0.4
833.114	0.23
833.284	0.46
833.454	0.01
833.624	-0.04
833.795	0.12
833.965	0.95
834.135	1.2
834.305	-0.35
834.475	-0.81
834.645	0.54
834.815	-0.19
834.985	-0.32
835.155	-0.1
835.325	0.22
835.494	0.86
835.664	0.12
835.834	0.04
836.004	0.1
836.174	0.58
836.344	-0
836.514	-0.43
836.684	-0.02
836.853	0.35
837.023	0.64
837.193	0.25
837.363	0.64
837.532	1.39
837.702	0.64
837.872	0.16
838.041	1.01
838.211	1.52
838.381	-0.12
838.55	0.64
838.72	1.79
838.89	1.33
839.059	0.32
839.229	0.03
839.398	2.17
839.568	0.6
839.738	0.64
839.907	1.63
840.077	0.55
840.246	0.14
840.416	0.02
840.585	-0.31
840.755	1.51
840.924	1.15
841.093	-0.31
841.263	-0.25
841.432	0.7
841.602	-0.49
841.771	-0.63
841.94	0.54
842.11	2
842.279	1.84
842.448	-0.72
842.617	-0.31
842.787	1.74
842.956	-0.63
843.125	0.32
843.294	0.67
843.464	0.95
843.633	1.2
843.802	-0.18
843.971	0.44
844.14	0.69
844.309	1.27
844.479	-0.68
844.648	-0.01
844.817	0.35
844.986	-0.4
845.155	0.27
845.324	0.76
845.493	0.34
845.662	-0.35
845.831	0.43
846	0.58
846.169	-0.38
846.338	1.01
846.507	0.46
846.676	1.2
846.844	-0.56
847.013	1.31
847.182	0.63
847.351	0.3
847.52	-0.08
847.689	0.5
847.858	1.19
848.026	0.97
848.195	0.88
848.364	-0.91
848.533	-0.25
848.701	0.19
848.87	1.83
849.039	1.54
849.207	1.91
849.376	1.7
849.545	1.21
849.713	-0.47
849.882	0.73
850.051	-0.06
850.219	0.45
850.388	1.04
850.556	0.34
850.725	-0.02
850.893	0.82
851.062	0.15
851.23	1.42
851.399	-0.98
851.567	-0.17
851.736	0.64
851.904	0.05
852.073	0.83
852.241	0.38
852.41	0.55
852.578	1.04
852.746	0.07
852.915	2.24
853.083	0.62
853.251	-0.12
853.42	0.37
853.588	0.59
853.756	1.58
853.924	0.56
854.093	1.12
854.261	-0.15
854.429	-0.44
854.597	1.71
854.765	-0.11
854.934	1.5
855.102	2.16
855.27	0.61
855.438	1.69
855.606	0.81
855.774	1.75
855.942	-1.13
856.11	-0.88
856.278	0.16
856.446	0.49
856.614	1.33
856.782	-0.02
856.95	1.78
857.118	1.32
857.286	1.35
857.454	0.21
857.622	1.74
857.79	1.2
857.958	0.21
858.126	0.06
858.294	-2.24
858.462	1.08
858.629	0.95
858.797	-0.56
858.965	0.78
859.133	1.49
859.301	0.34
859.468	1.63
859.636	1.23
859.804	2.48
859.971	1.72
860.139	-0.44
860.307	1.48
860.474	0.88
860.642	-0.3
860.81	1.06
860.977	0.57
861.145	1.84
861.313	0.65
861.48	2.12
861.648	1.03
861.815	0.11
861.983	-0.51
862.15	-0.19
862.318	2.22
862.485	1.64
862.653	0.17
862.82	-0.28
862.988	2.56
863.155	1.98
863.322	-0.59
863.49	0.51
863.657	2.06
863.824	3.12
863.992	2.23
864.159	1.33
864.326	2.88
864.494	1.42
864.661	4.37
864.828	-0.22
864.996	2.91
865.163	2.59
865.33	-0.85
865.497	-0.42
865.664	0.75
865.832	-0.68
865.999	0.73
866.166	-0.39
866.333	-1.02
866.5	-0.45
866.667	0.94
866.834	-0.05
867.001	3.44
867.168	-0.34
867.335	1.02
867.502	-1.11
867.669	2.31
867.836	3.93
868.003	1.97
868.17	2.27
868.337	2.78
868.504	2.35
868.671	-1.35
868.838	-0.12
869.005	1.61
869.172	1.45
869.339	1.94
869.505	1.65
869.672	-0.68
869.839	3.05
870.006	2.75
870.173	-0.69
870.339	0.96
870.506	4.34
870.673	0.65
870.84	2.49
871.006	1.3
871.173	2.52
871.34	0.11
871.506	-0.61
871.673	1.23
871.839	-0.7
872.006	2.67
872.173	0.48
872.339	1.91
872.506	1.06
872.672	0.66
872.839	-0.1
873.005	0.83
873.172	3.62
873.338	2.63
873.505	2.18
873.671	0.74
873.838	3.07
874.004	-1.62
874.171	0.68
874.337	3.06
874.503	3.25
874.67	3.32
874.836	0.5
875.002	3.85
875.169	3.3
875.335	3.35
875.501	1.05
875.668	1.39
875.834	0.94
876	1.4
876.166	2.66
876.332	1.38
876.499	3.32
876.665	1.2
876.831	1.66
876.997	3.99
877.163	1.72
877.329	-0.42
877.495	0.79
877.662	1.77
877.828	1.83
877.994	2.69
878.16	-1.52
878.326	0.35
878.492	2.78
878.658	0.63
878.824	1.69
878.99	2.4
879.156	-1.55
879.322	4.42
879.487	0.73
879.653	0.95
879.819	0.48
879.985	0.04
880.151	1.81
880.317	2.26
880.483	3.21
880.648	3.21
880.814	-0.86
880.98	1.61
881.146	-2.65
881.312	-0.13
881.477	1.18
881.643	2.2
881.809	2.69
881.974	3.66
882.14	0.07
882.306	2.03
882.471	4.18
882.637	0.36
882.803	2.53
882.968	4.15
883.134	4.6
883.299	1.76
883.465	2.78
883.63	1.32
883.796	3.88
883.961	1.94
884.127	1.71
884.292	-2.88
884.458	0.05
884.623	0.05
