Data from Apollo_Calib_20240827__AbsoluteIrradiance__441__06-30-00-559.txt Node

Date: Wed Aug 28 06:30:00 BST 2024
User: biology
Spectrometer: FLMT08252
Trigger mode: 0
Integration Time (sec): 5.000000E-1
Scans to average: 5
Electric dark correction enabled: true
Nonlinearity correction enabled: false
Boxcar width: 0
XAxis mode: Wavelengths
Number of Pixels in Spectrum: 3648
>>>>>Begin Spectral Data<<<<<
179.588	-0
179.809	-0
180.03	-0
180.251	-0
180.473	-0
180.694	0
180.915	0
181.136	-0
181.357	0
181.578	-0
181.799	-0
182.02	-0
182.241	0
182.462	-0
182.683	0
182.904	-0
183.125	-0
183.346	0
183.567	0
183.788	0
184.009	0
184.23	0
184.451	0
184.672	0
184.892	-0
185.113	0
185.334	0
185.555	0
185.776	0
185.996	0
186.217	0
186.438	0
186.659	0
186.879	0
187.1	0
187.321	0
187.541	0
187.762	0
187.983	0
188.203	0
188.424	0
188.644	0
188.865	0
189.086	0
189.306	0
189.527	0
189.747	0
189.968	0
190.188	0
190.409	0
190.629	0
190.849	0
191.07	0
191.29	0
191.511	0
191.731	0
191.951	0
192.172	0
192.392	0
192.612	0
192.833	0
193.053	0
193.273	0
193.493	0
193.714	0
193.934	0
194.154	0
194.374	0
194.594	0
194.815	0
195.035	0
195.255	0
195.475	0
195.695	0
195.915	0
196.135	0
196.355	0
196.575	0
196.795	0
197.015	0
197.235	0
197.455	0
197.675	0
197.895	0
198.115	0
198.335	0
198.555	0
198.775	0
198.995	0
199.214	0
199.434	0
199.654	0
199.874	0
200.094	-0.07
200.313	0.81
200.533	0.31
200.753	0.2
200.973	1.64
201.192	1.45
201.412	0.3
201.632	0.78
201.851	2.13
202.071	0.55
202.291	0.77
202.51	0.38
202.73	1.12
202.95	0.73
203.169	0.26
203.389	0.93
203.608	0.7
203.828	0.75
204.047	0.72
204.267	1.44
204.486	1.18
204.706	1.04
204.925	0.81
205.145	0.47
205.364	1.09
205.583	1.37
205.803	0.57
206.022	0.31
206.242	0.61
206.461	0.27
206.68	0.25
206.9	0.97
207.119	1.21
207.338	1.13
207.557	0.35
207.777	0.39
207.996	0.42
208.215	0.96
208.434	0.27
208.654	0.2
208.873	0.76
209.092	0.99
209.311	0.65
209.53	0.49
209.749	0.32
209.968	0.23
210.187	0.71
210.407	0.23
210.626	0.61
210.845	0.54
211.064	0.58
211.283	0.3
211.502	0.58
211.721	0.51
211.94	0.56
212.159	0.82
212.377	0.67
212.596	0.63
212.815	0.73
213.034	0.66
213.253	0.52
213.472	0.68
213.691	0.36
213.91	0.13
214.128	0.37
214.347	0.72
214.566	0.13
214.785	0.08
215.003	0.34
215.222	0.45
215.441	0.41
215.66	0.14
215.878	0.38
216.097	0.77
216.316	-0.06
216.534	0.28
216.753	0.31
216.972	0.19
217.19	0.29
217.409	0.11
217.627	0.07
217.846	0.33
218.064	0.36
218.283	0.32
218.501	0.69
218.72	0.59
218.938	0.14
219.157	0.24
219.375	0.58
219.594	0.47
219.812	0.14
220.031	0.26
220.249	0.65
220.467	0.52
220.686	0.31
220.904	0.07
221.122	0.09
221.341	0.55
221.559	0.28
221.777	0.18
221.995	0.3
222.214	0.33
222.432	0.2
222.65	0.42
222.868	0.49
223.086	0.32
223.305	0.49
223.523	0.23
223.741	0.6
223.959	0.1
224.177	0.13
224.395	0.29
224.613	0.37
224.831	0.49
225.049	0.13
225.267	0.27
225.485	0.35
225.703	0.13
225.921	0.34
226.139	0.09
226.357	0.35
226.575	0.26
226.793	0.16
227.011	0.74
227.229	0.41
227.447	0.35
227.665	0.18
227.883	-0.01
228.1	0.27
228.318	0.28
228.536	-0.03
228.754	0.11
228.972	0.34
229.189	0.32
229.407	0.22
229.625	0.24
229.843	0.45
230.06	0.36
230.278	0.09
230.496	0.29
230.713	0.31
230.931	0.41
231.149	0.29
231.366	0.08
231.584	0.4
231.801	0.55
232.019	0.32
232.236	0.12
232.454	0.06
232.671	0.31
232.889	0.16
233.106	0.12
233.324	0.28
233.541	0.24
233.759	0.27
233.976	0.12
234.194	0.24
234.411	0.24
234.628	0.15
234.846	0.11
235.063	0.22
235.28	0.22
235.498	0.17
235.715	0.2
235.932	0.34
236.149	0.19
236.367	0.08
236.584	0.22
236.801	0.24
237.018	0.29
237.236	0.29
237.453	0.03
237.67	0.36
237.887	0.25
238.104	0.23
238.321	0.09
238.538	0.13
238.755	0.35
238.973	0.09
239.19	0.19
239.407	0.31
239.624	0.23
239.841	0.02
240.058	0.14
240.275	0.27
240.492	0.16
240.709	0.2
240.925	0.19
241.142	0.2
241.359	0.04
241.576	0.12
241.793	0.18
242.01	0.2
242.227	0.28
242.444	0.33
242.66	0.34
242.877	0.18
243.094	0.09
243.311	0.23
243.527	0.17
243.744	0.16
243.961	0.27
244.178	0.19
244.394	0.15
244.611	0.35
244.828	0.36
245.044	0.05
245.261	0.1
245.477	0.27
245.694	0.17
245.911	0.08
246.127	0.15
246.344	0.34
246.56	0.25
246.777	0.13
246.993	0.13
247.21	0.15
247.426	0.21
247.643	0.12
247.859	0.16
248.076	0.12
248.292	0.36
248.508	0.13
248.725	0.25
248.941	0.24
249.157	0.24
249.374	0.09
249.59	0.11
249.806	0.23
250.023	0.37
250.239	0.17
250.455	0.13
250.671	0.25
250.888	0.25
251.104	0.25
251.32	0.11
251.536	0.08
251.752	0.14
251.969	0.23
252.185	0.22
252.401	0.44
252.617	0.18
252.833	0.18
253.049	0.17
253.265	0.23
253.481	0.18
253.697	0.13
253.913	0.12
254.129	0.11
254.345	0.11
254.561	0.13
254.777	0.14
254.993	0.2
255.209	0.24
255.425	0.15
255.641	0.08
255.857	0.24
256.073	0.15
256.288	0.06
256.504	0.13
256.72	0.16
256.936	0.25
257.152	0.13
257.367	0.07
257.583	0.19
257.799	0.24
258.015	0.11
258.23	0.17
258.446	0.33
258.662	0.19
258.877	0.05
259.093	0.06
259.309	0.13
259.524	0.2
259.74	0.12
259.955	0.04
260.171	0.19
260.387	0.14
260.602	0.33
260.818	0.19
261.033	0.09
261.249	0.15
261.464	0.1
261.68	0.11
261.895	0.2
262.11	0.3
262.326	0.13
262.541	0.05
262.757	0.24
262.972	0.17
263.187	0.21
263.403	0.1
263.618	0.22
263.833	0.16
264.049	0.17
264.264	0.16
264.479	0.26
264.694	0.31
264.91	0.04
265.125	0.14
265.34	0.22
265.555	0.31
265.77	0.19
265.986	0.06
266.201	0.15
266.416	0.24
266.631	0.11
266.846	0.17
267.061	0.13
267.276	0.23
267.491	0.03
267.706	0.19
267.921	0.17
268.136	0.11
268.351	0.13
268.566	0.07
268.781	0.29
268.996	0.17
269.211	0.12
269.426	0.04
269.641	0.11
269.856	0.24
270.071	0.14
270.285	0.06
270.5	0.2
270.715	0.21
270.93	0.15
271.145	0.13
271.359	0.19
271.574	0.12
271.789	0.12
272.004	0.12
272.218	0.09
272.433	0.18
272.648	0.15
272.862	0.19
273.077	0.12
273.292	0.16
273.506	0.05
273.721	0.12
273.936	0.16
274.15	0.2
274.365	0.12
274.579	0.19
274.794	0.21
275.008	0.23
275.223	0.04
275.437	0.14
275.652	0.21
275.866	0.19
276.081	0.18
276.295	0.24
276.509	0.15
276.724	0.14
276.938	0.15
277.153	0.18
277.367	0.18
277.581	0.09
277.796	0.07
278.01	0.07
278.224	0.18
278.438	0.22
278.653	0.12
278.867	0.08
279.081	-0.08
279.295	0.12
279.51	0.17
279.724	0.04
279.938	0.15
280.152	0.17
280.366	0.1
280.58	0.15
280.794	0.2
281.008	0.15
281.222	0.19
281.437	0.22
281.651	0.14
281.865	0.2
282.079	0.15
282.293	0.03
282.507	0.09
282.721	0.12
282.935	0.14
283.148	0.07
283.362	0.11
283.576	0.11
283.79	0.11
284.004	0.07
284.218	0.19
284.432	0.07
284.646	0.1
284.859	0.1
285.073	0.14
285.287	0.1
285.501	0.12
285.714	0.14
285.928	0.13
286.142	0.22
286.356	0.11
286.569	0.11
286.783	0.19
286.997	0.2
287.21	0.11
287.424	0.11
287.637	0.07
287.851	0.11
288.065	0.13
288.278	0.12
288.492	0.12
288.705	0.08
288.919	0.14
289.132	0.1
289.346	0.18
289.559	0.06
289.773	0.11
289.986	0.09
290.2	0.13
290.413	0.16
290.626	0.08
290.84	0.13
291.053	0.1
291.267	0.16
291.48	0.15
291.693	0.14
291.906	0.11
292.12	0.12
292.333	0.06
292.546	0.08
292.76	0.25
292.973	0.12
293.186	0.12
293.399	0.08
293.612	0.19
293.826	0.11
294.039	0.13
294.252	0.1
294.465	0.15
294.678	0.11
294.891	0.15
295.104	0.07
295.317	0.12
295.53	0.12
295.743	0.11
295.956	0.06
296.169	0.18
296.382	0.12
296.595	0.09
296.808	0.07
297.021	0.15
297.234	0.17
297.447	0.14
297.66	0.18
297.873	0.16
298.086	0.12
298.299	0.08
298.511	0.05
298.724	0.13
298.937	0.08
299.15	0.08
299.363	0.14
299.575	0.15
299.788	0.15
300.001	0.09
300.213	0.04
300.426	0.12
300.639	0.08
300.852	0.08
301.064	0.15
301.277	0.22
301.489	0.15
301.702	0.16
301.915	0.08
302.127	0.14
302.34	0.16
302.552	0.12
302.765	0.09
302.977	0.12
303.19	0.08
303.402	0.09
303.615	0.14
303.827	0.03
304.04	0.08
304.252	0.12
304.464	0.08
304.677	0.22
304.889	0.13
305.102	0.06
305.314	0.09
305.526	0.14
305.739	0.11
305.951	0.07
306.163	0.11
306.375	0.16
306.588	0.03
306.8	0.08
307.012	0.08
307.224	0.1
307.436	0.14
307.649	0.07
307.861	0.15
308.073	0.17
308.285	0.08
308.497	0.07
308.709	0.11
308.921	0.1
309.133	0.17
309.346	0.1
309.558	0.1
309.77	0.17
309.982	0.14
310.194	0.17
310.406	0.1
310.617	0.17
310.829	0.15
311.041	0.14
311.253	0.1
311.465	0.09
311.677	0.12
311.889	0.12
312.101	0.05
312.313	0.12
312.524	0.18
312.736	0.07
312.948	0.08
313.16	0.21
313.372	0.14
313.583	0.12
313.795	0.09
314.007	0.1
314.218	0.15
314.43	0.12
314.642	0.06
314.853	0.07
315.065	0.2
315.277	0.09
315.488	0.12
315.7	0.16
315.912	0.12
316.123	0.1
316.335	0.1
316.546	0.2
316.758	0.1
316.969	0.06
317.181	0.12
317.392	0.12
317.604	0.1
317.815	0.05
318.026	0.09
318.238	0.07
318.449	0.1
318.661	0.05
318.872	0.02
319.083	0.08
319.295	0.16
319.506	0.07
319.717	0.12
319.929	0.11
320.14	0.12
320.351	0.12
320.562	0.08
320.774	0.12
320.985	0.11
321.196	0.07
321.407	0.02
321.618	0.11
321.829	0.07
322.041	0.11
322.252	0.08
322.463	0.13
322.674	0.1
322.885	0.07
323.096	0.08
323.307	0.09
323.518	0.09
323.729	0.07
323.94	0.12
324.151	0.06
324.362	0.07
324.573	0.1
324.784	0.11
324.995	0.18
325.206	0.13
325.417	0.07
325.628	0.11
325.838	0.12
326.049	0.11
326.26	0.16
326.471	0.13
326.682	0.14
326.892	0.12
327.103	0.06
327.314	0.04
327.525	0.2
327.735	0.11
327.946	0.11
328.157	0.11
328.368	0.12
328.578	0.08
328.789	0.08
328.999	0.04
329.21	0.07
329.421	0.15
329.631	0.06
329.842	0.08
330.052	0.12
330.263	0.13
330.473	0.15
330.684	0.12
330.894	0.12
331.105	0.1
331.315	0.1
331.526	0.03
331.736	0.17
331.947	0.13
332.157	0.14
332.367	0.02
332.578	0.11
332.788	0.13
332.999	0.12
333.209	0.09
333.419	0.07
333.629	0.11
333.84	0.11
334.05	0.09
334.26	0.16
334.47	0.12
334.681	0.19
334.891	0.07
335.101	0.15
335.311	0.21
335.521	0.09
335.732	0.05
335.942	0.16
336.152	0.11
336.362	0.12
336.572	0.07
336.782	0.17
336.992	0.07
337.202	0.11
337.412	0.12
337.622	0.16
337.832	0.1
338.042	0.11
338.252	0.05
338.462	0.05
338.672	0.09
338.882	0.1
339.092	0.08
339.302	0.18
339.511	0.16
339.721	0.06
339.931	0.06
340.141	0.15
340.351	0.17
340.561	0.11
340.77	0.09
340.98	0.08
341.19	0.14
341.4	0.07
341.609	0
341.819	0.09
342.029	0.08
342.238	0.11
342.448	0.04
342.658	0.13
342.867	0.09
343.077	0.12
343.286	0.1
343.496	0.12
343.706	0.18
343.915	0.04
344.125	0.09
344.334	0.13
344.544	0.07
344.753	0.12
344.963	0.1
345.172	0.07
345.381	0.12
345.591	0.1
345.8	0.13
346.01	0.17
346.219	0.14
346.428	-0.05
346.638	0.11
346.847	0.15
347.056	0.17
347.266	0.11
347.475	0.11
347.684	0.13
347.893	0.14
348.103	0.12
348.312	0.09
348.521	0.12
348.73	0.1
348.94	0.13
349.149	0.06
349.358	0.08
349.567	0.05
349.776	0.08
349.985	0.16
350.194	0.14
350.403	0.18
350.612	0.07
350.821	0.08
351.03	0.08
351.239	0.02
351.448	0.09
351.657	0.05
351.866	0.2
352.075	0.08
352.284	0.12
352.493	0.04
352.702	0.13
352.911	0.12
353.12	0.11
353.329	0.1
353.538	0.13
353.746	0.1
353.955	0.09
354.164	0.1
354.373	0.09
354.582	0.15
354.79	0.11
354.999	0.12
355.208	0.12
355.416	0.19
355.625	0.11
355.834	0.12
356.042	0.14
356.251	0.09
356.46	0.11
356.668	0.12
356.877	0.19
357.085	0.14
357.294	0.03
357.503	0.1
357.711	0.1
357.92	0.19
358.128	0.12
358.337	0.1
358.545	0.12
358.754	0.1
358.962	0.15
359.17	0.14
359.379	0.11
359.587	0.15
359.796	0.08
360.004	0.16
360.212	0.11
360.421	0.15
360.629	0.1
360.837	0.08
361.046	0.16
361.254	0.23
361.462	0.11
361.67	0.09
361.879	0.14
362.087	0.14
362.295	0.12
362.503	0.11
362.711	0.08
362.92	0.04
363.128	0.1
363.336	0.08
363.544	0.03
363.752	0.07
363.96	0.1
364.168	0.1
364.376	0.15
364.584	0.12
364.792	0.15
365	0.11
365.208	0.1
365.416	0.14
365.624	0.12
365.832	0.08
366.04	0.18
366.248	0.14
366.456	0.11
366.664	0.14
366.872	0.06
367.079	0.08
367.287	0.11
367.495	0.12
367.703	0.12
367.911	0.06
368.118	0.12
368.326	0.08
368.534	0.07
368.742	0.16
368.949	0.06
369.157	0.09
369.365	0.15
369.572	0.11
369.78	0.09
369.988	0.13
370.195	0.15
370.403	0.15
370.61	0.06
370.818	0.12
371.026	0.15
371.233	0.13
371.441	0.12
371.648	0.11
371.856	0.12
372.063	0.13
372.271	0.1
372.478	0.1
372.685	0.05
372.893	0.11
373.1	0.09
373.308	0.1
373.515	0.2
373.722	0.11
373.93	0.13
374.137	0.13
374.344	0.14
374.552	0.16
374.759	0.11
374.966	0.12
375.173	0.08
375.381	0.16
375.588	0.12
375.795	0.06
376.002	0.11
376.209	0.07
376.417	0.09
376.624	0.12
376.831	0.12
377.038	0.12
377.245	0.06
377.452	0.09
377.659	0.09
377.866	0.09
378.073	0.1
378.28	0.06
378.487	0.16
378.694	0.13
378.901	0.14
379.108	0.14
379.315	0.2
379.522	0.2
379.729	0.14
379.936	0.09
380.143	0.1
380.35	0.09
380.557	0.1
380.763	0.12
380.97	0.11
381.177	0.16
381.384	0.12
381.591	0.1
381.797	0.1
382.004	0.12
382.211	0.07
382.418	0.12
382.624	0.16
382.831	0.1
383.038	0.07
383.244	0.12
383.451	0.1
383.658	0.13
383.864	0.1
384.071	0.1
384.277	0.14
384.484	0.09
384.69	0.15
384.897	0.06
385.103	0.13
385.31	0.09
385.516	0.1
385.723	0.06
385.929	0.08
386.136	0.08
386.342	0.13
386.549	0.1
386.755	0.19
386.961	0.12
387.168	0.12
387.374	0.15
387.58	0.18
387.787	0.14
387.993	0.14
388.199	0.13
388.406	0.07
388.612	0.14
388.818	0.08
389.024	0.07
389.231	0.14
389.437	0.14
389.643	0.17
389.849	0.17
390.055	0.12
390.261	0.1
390.467	0.17
390.674	0.08
390.88	0.1
391.086	0.17
391.292	0.08
391.498	0.15
391.704	0.12
391.91	0.13
392.116	0.08
392.322	-0
392.528	0.14
392.734	0.13
392.94	0.12
393.146	0.1
393.352	0.1
393.557	0.14
393.763	0.11
393.969	0.16
394.175	0.14
394.381	0.12
394.587	0.08
394.792	0.11
394.998	0.18
395.204	0.17
395.41	0.12
395.615	0.14
395.821	0.16
396.027	0.14
396.233	0.13
396.438	0.17
396.644	0.19
396.85	0.2
397.055	0.1
397.261	0.16
397.466	0.2
397.672	0.14
397.878	0.2
398.083	0.17
398.289	0.1
398.494	0.15
398.7	0.12
398.905	0.05
399.111	0.17
399.316	0.06
399.522	0.15
399.727	0.13
399.932	0.15
400.138	0.14
400.343	0.19
400.549	0.13
400.754	0.17
400.959	0.14
401.165	0.12
401.37	0.13
401.575	0.26
401.78	0.12
401.986	0.12
402.191	0.13
402.396	0.13
402.601	0.13
402.807	0.14
403.012	0.14
403.217	0.19
403.422	0.11
403.627	0.11
403.832	0.14
404.037	0.16
404.243	0.16
404.448	0.11
404.653	0.14
404.858	0.19
405.063	0.16
405.268	0.1
405.473	0.08
405.678	0.14
405.883	0.23
406.088	0.21
406.293	0.07
406.498	0.14
406.703	0.19
406.907	0.13
407.112	0.1
407.317	0.16
407.522	0.2
407.727	0.05
407.932	0.17
408.136	0.25
408.341	0.18
408.546	0.18
408.751	0.15
408.956	0.15
409.16	0.15
409.365	0.18
409.57	0.16
409.774	0.12
409.979	0.17
410.184	0.17
410.388	0.08
410.593	0.23
410.798	0.19
411.002	0.14
411.207	0.22
411.411	0.19
411.616	0.11
411.82	0.11
412.025	0.15
412.229	0.11
412.434	0.19
412.638	0.2
412.843	0.14
413.047	0.13
413.252	0.09
413.456	0.17
413.66	0.19
413.865	0.18
414.069	0.23
414.273	0.12
414.478	0.16
414.682	0.11
414.886	0.14
415.091	0.11
415.295	0.12
415.499	0.19
415.703	0.13
415.908	0.22
416.112	0.07
416.316	0.2
416.52	0.12
416.724	0.09
416.929	0.13
417.133	0.29
417.337	0.16
417.541	0.07
417.745	0.15
417.949	0.17
418.153	0.15
418.357	0.12
418.561	0.21
418.765	0.19
418.969	0.25
419.173	0.19
419.377	0.13
419.581	0.27
419.785	0.16
419.989	0.07
420.193	0.11
420.397	0.15
420.601	0.24
420.804	0.23
421.008	0.16
421.212	0.19
421.416	0.21
421.62	0.14
421.823	0.16
422.027	0.27
422.231	0.24
422.435	0.17
422.638	0.18
422.842	0.13
423.046	0.2
423.249	0.18
423.453	0.2
423.657	0.17
423.86	0.17
424.064	0.12
424.268	0.25
424.471	0.16
424.675	0.26
424.878	0.21
425.082	0.23
425.285	0.22
425.489	0.16
425.692	0.19
425.896	0.15
426.099	0.18
426.303	0.16
426.506	0.13
426.71	0.22
426.913	0.23
427.116	0.25
427.32	0.19
427.523	0.15
427.726	0.25
427.93	0.13
428.133	0.23
428.336	0.12
428.54	0.14
428.743	0.24
428.946	0.25
429.149	0.18
429.353	0.26
429.556	0.18
429.759	0.24
429.962	0.17
430.165	0.24
430.368	0.19
430.571	0.16
430.775	0.18
430.978	0.17
431.181	0.19
431.384	0.19
431.587	0.14
431.79	0.17
431.993	0.19
432.196	0.2
432.399	0.14
432.602	0.28
432.805	0.2
433.008	0.17
433.211	0.13
433.414	0.24
433.616	0.2
433.819	0.23
434.022	0.1
434.225	0.25
434.428	0.23
434.631	0.31
434.833	0.2
435.036	0.2
435.239	0.26
435.442	0.24
435.645	0.17
435.847	0.21
436.05	0.31
436.253	0.23
436.455	0.2
436.658	0.17
436.861	0.25
437.063	0.18
437.266	0.17
437.468	0.23
437.671	0.35
437.874	0.22
438.076	0.13
438.279	0.14
438.481	0.2
438.684	0.15
438.886	0.23
439.089	0.1
439.291	0.23
439.494	0.22
439.696	0.16
439.899	0.22
440.101	0.2
440.303	0.14
440.506	0.25
440.708	0.22
440.91	0.28
441.113	0.19
441.315	0.27
441.517	0.15
441.72	0.28
441.922	0.16
442.124	0.14
442.326	0.23
442.529	0.27
442.731	0.15
442.933	0.27
443.135	0.19
443.337	0.15
443.539	0.24
443.742	0.17
443.944	0.22
444.146	0.17
444.348	0.18
444.55	0.19
444.752	0.21
444.954	0.21
445.156	0.23
445.358	0.19
445.56	0.26
445.762	0.23
445.964	0.27
446.166	0.19
446.368	0.18
446.57	0.31
446.772	0.2
446.974	0.24
447.175	0.21
447.377	0.23
447.579	0.2
447.781	0.12
447.983	0.31
448.184	0.2
448.386	0.23
448.588	0.19
448.79	0.17
448.991	0.18
449.193	0.23
449.395	0.27
449.597	0.28
449.798	0.26
450	0.28
450.202	0.25
450.403	0.24
450.605	0.27
450.806	0.26
451.008	0.2
451.21	0.25
451.411	0.24
451.613	0.24
451.814	0.26
452.016	0.26
452.217	0.21
452.419	0.26
452.62	0.26
452.821	0.27
453.023	0.31
453.224	0.31
453.426	0.28
453.627	0.27
453.828	0.31
454.03	0.25
454.231	0.28
454.432	0.2
454.634	0.35
454.835	0.26
455.036	0.21
455.238	0.35
455.439	0.32
455.64	0.22
455.841	0.22
456.042	0.41
456.244	0.31
456.445	0.24
456.646	0.25
456.847	0.22
457.048	0.33
457.249	0.37
457.45	0.54
457.651	0.19
457.852	0.35
458.054	0.27
458.255	0.27
458.456	0.33
458.657	0.31
458.858	0.23
459.058	0.33
459.259	0.37
459.46	0.27
459.661	0.34
459.862	0.43
460.063	0.33
460.264	0.37
460.465	0.26
460.666	0.49
460.866	0.33
461.067	0.35
461.268	0.32
461.469	0.33
461.67	0.32
461.87	0.33
462.071	0.32
462.272	0.29
462.473	0.32
462.673	0.35
462.874	0.3
463.075	0.36
463.275	0.38
463.476	0.38
463.676	0.41
463.877	0.4
464.078	0.38
464.278	0.44
464.479	0.32
464.679	0.38
464.88	0.44
465.08	0.44
465.281	0.42
465.481	0.4
465.682	0.39
465.882	0.48
466.083	0.43
466.283	0.41
466.483	0.39
466.684	0.39
466.884	0.37
467.085	0.42
467.285	0.5
467.485	0.4
467.686	0.4
467.886	0.39
468.086	0.46
468.286	0.45
468.487	0.49
468.687	0.43
468.887	0.45
469.087	0.57
469.287	0.52
469.488	0.47
469.688	0.44
469.888	0.52
470.088	0.53
470.288	0.58
470.488	0.54
470.688	0.47
470.888	0.5
471.088	0.53
471.288	0.59
471.488	0.56
471.688	0.56
471.888	0.55
472.088	0.65
472.288	0.62
472.488	0.55
472.688	0.57
472.888	0.61
473.088	0.64
473.288	0.66
473.488	0.66
473.688	0.77
473.887	0.69
474.087	0.7
474.287	0.72
474.487	0.74
474.687	0.75
474.886	0.74
475.086	0.74
475.286	0.78
475.486	0.76
475.685	0.81
475.885	0.76
476.085	0.77
476.284	0.86
476.484	0.88
476.684	0.85
476.883	0.98
477.083	0.88
477.282	0.85
477.482	0.99
477.681	0.93
477.881	0.92
478.08	0.96
478.28	0.94
478.479	1.05
478.679	1.05
478.878	0.98
479.078	1
479.277	1.09
479.477	1.09
479.676	1.13
479.875	1.09
480.075	1.06
480.274	1.14
480.473	1.21
480.673	1.22
480.872	1.25
481.071	1.24
481.271	1.3
481.47	1.3
481.669	1.3
481.868	1.28
482.067	1.34
482.267	1.32
482.466	1.38
482.665	1.37
482.864	1.44
483.063	1.46
483.262	1.5
483.461	1.54
483.661	1.59
483.86	1.57
484.059	1.63
484.258	1.61
484.457	1.64
484.656	1.69
484.855	1.79
485.054	1.65
485.253	1.72
485.452	1.77
485.651	1.84
485.849	1.88
486.048	1.89
486.247	1.94
486.446	2.01
486.645	2.02
486.844	2.05
487.043	2.03
487.241	2.16
487.44	2.19
487.639	2.19
487.838	2.22
488.037	2.24
488.235	2.37
488.434	2.35
488.633	2.28
488.831	2.5
489.03	2.53
489.229	2.54
489.427	2.55
489.626	2.64
489.825	2.71
490.023	2.76
490.222	2.73
490.42	2.81
490.619	2.84
490.817	2.92
491.016	2.91
491.214	3.01
491.413	3.07
491.611	3.01
491.81	3.11
492.008	3.15
492.207	3.31
492.405	3.32
492.604	3.34
492.802	3.47
493	3.55
493.199	3.56
493.397	3.65
493.595	3.72
493.794	3.74
493.992	3.9
494.19	3.94
494.388	4.05
494.587	3.9
494.785	4.03
494.983	4.02
495.181	4.19
495.379	4.35
495.578	4.44
495.776	4.46
495.974	4.35
496.172	4.51
496.37	4.7
496.568	4.77
496.766	4.81
496.964	5
497.162	4.97
497.36	5.14
497.558	5.16
497.756	5.27
497.954	5.28
498.152	5.49
498.35	5.65
498.548	5.56
498.746	5.64
498.944	5.72
499.142	5.84
499.34	6
499.538	6.18
499.736	6.06
499.933	6.24
500.131	6.34
500.329	6.66
500.527	6.63
500.725	6.8
500.922	6.94
501.12	6.96
501.318	7.18
501.516	7.18
501.713	7.38
501.911	7.4
502.109	7.35
502.306	7.66
502.504	7.57
502.701	7.8
502.899	8.01
503.097	8.32
503.294	8.18
503.492	8.5
503.689	8.58
503.887	8.6
504.084	8.81
504.282	8.81
504.479	8.93
504.677	9.27
504.874	9.28
505.072	9.26
505.269	9.71
505.466	9.76
505.664	9.94
505.861	9.83
506.059	10.16
506.256	10.17
506.453	10.42
506.651	10.65
506.848	10.9
507.045	10.82
507.242	10.9
507.44	11.1
507.637	11.3
507.834	11.24
508.031	11.67
508.229	11.71
508.426	11.54
508.623	11.93
508.82	12.25
509.017	12.17
509.214	12.2
509.411	12.54
509.608	12.54
509.805	12.86
510.003	12.9
510.2	13.05
510.397	13.46
510.594	13.32
510.791	13.52
510.988	13.62
511.184	13.58
511.381	13.44
511.578	13.89
511.775	14.18
511.972	14.04
512.169	14.34
512.366	14.42
512.563	14.65
512.76	14.93
512.956	15.04
513.153	14.85
513.35	14.86
513.547	14.95
513.744	15.26
513.94	15.28
514.137	15.48
514.334	15.52
514.53	15.63
514.727	16.17
514.924	15.79
515.12	16
515.317	15.96
515.514	15.95
515.71	15.79
515.907	16.4
516.103	16.39
516.3	16.15
516.497	16.44
516.693	16.43
516.89	16.53
517.086	16.62
517.283	16.62
517.479	16.3
517.676	16.8
517.872	16.83
518.068	16.87
518.265	16.83
518.461	16.62
518.658	16.98
518.854	16.88
519.05	17.05
519.247	17.17
519.443	16.87
519.639	17.19
519.836	16.74
520.032	16.74
520.228	16.99
520.424	16.79
520.621	16.94
520.817	16.92
521.013	16.76
521.209	17.17
521.405	17.01
521.601	16.93
521.798	16.66
521.994	16.57
522.19	16.46
522.386	16.59
522.582	16.69
522.778	16.83
522.974	16.51
523.17	16.33
523.366	16.23
523.562	16.22
523.758	16.24
523.954	15.86
524.15	16.1
524.346	16
524.542	16.07
524.738	15.86
524.934	15.98
525.129	15.74
525.325	15.38
525.521	15.3
525.717	15.62
525.913	15.15
526.109	15.13
526.304	15.27
526.5	15.08
526.696	14.9
526.892	14.68
527.087	15.05
527.283	14.7
527.479	14.57
527.674	14.03
527.87	14.35
528.066	14.17
528.261	14.1
528.457	13.75
528.653	13.99
528.848	13.79
529.044	13.84
529.239	13.41
529.435	13.29
529.63	13.07
529.826	12.94
530.021	13
530.217	12.86
530.412	12.68
530.608	12.63
530.803	12.49
530.999	12.26
531.194	12.25
531.389	12.15
531.585	12.09
531.78	12.17
531.975	11.86
532.171	11.75
532.366	11.64
532.561	11.54
532.757	11.32
532.952	11.48
533.147	11.02
533.342	11.09
533.538	10.85
533.733	11.06
533.928	10.44
534.123	10.63
534.318	10.64
534.513	10.33
534.709	10.49
534.904	10.27
535.099	10.2
535.294	10.03
535.489	9.94
535.684	9.76
535.879	9.72
536.074	9.6
536.269	9.61
536.464	9.49
536.659	9.26
536.854	9.21
537.049	9.19
537.244	9.03
537.439	8.92
537.634	8.86
537.828	8.81
538.023	8.66
538.218	8.58
538.413	8.39
538.608	8.39
538.803	8.25
538.997	8.2
539.192	8.15
539.387	7.95
539.582	7.9
539.776	7.73
539.971	7.87
540.166	7.78
540.36	7.59
540.555	7.68
540.75	7.43
540.944	7.37
541.139	7.32
541.334	7.21
541.528	7.14
541.723	7.15
541.917	7.07
542.112	6.88
542.306	6.71
542.501	6.64
542.695	6.69
542.89	6.53
543.084	6.51
543.279	6.42
543.473	6.4
543.668	6.34
543.862	6.16
544.056	6.11
544.251	6.13
544.445	6.13
544.64	6.05
544.834	5.71
545.028	5.53
545.222	5.72
545.417	5.87
545.611	5.69
545.805	5.59
546	5.38
546.194	5.44
546.388	5.38
546.582	5.3
546.776	5.19
546.97	5.21
547.165	5.1
547.359	5.03
547.553	4.94
547.747	4.94
547.941	4.97
548.135	4.77
548.329	4.77
548.523	4.73
548.717	4.66
548.911	4.59
549.105	4.5
549.299	4.52
549.493	4.47
549.687	4.38
549.881	4.37
550.075	4.28
550.269	4.16
550.463	4.24
550.657	4.12
550.85	4.07
551.044	3.99
551.238	3.98
551.432	3.87
551.626	3.9
551.82	3.84
552.013	3.73
552.207	3.75
552.401	3.67
552.594	3.6
552.788	3.57
552.982	3.46
553.176	3.43
553.369	3.51
553.563	3.45
553.756	3.33
553.95	3.31
554.144	3.26
554.337	3.24
554.531	3.1
554.724	3.17
554.918	3.14
555.111	3.06
555.305	3.01
555.498	2.97
555.692	3
555.885	2.92
556.079	2.87
556.272	2.85
556.466	2.8
556.659	2.77
556.852	2.74
557.046	2.67
557.239	2.63
557.432	2.61
557.626	2.61
557.819	2.54
558.012	2.56
558.206	2.5
558.399	2.51
558.592	2.42
558.785	2.38
558.979	2.38
559.172	2.31
559.365	2.33
559.558	2.27
559.751	2.24
559.944	2.24
560.138	2.19
560.331	2.18
560.524	2.16
560.717	2.09
560.91	2.07
561.103	2.07
561.296	2
561.489	2.03
561.682	1.99
561.875	1.99
562.068	1.96
562.261	1.91
562.454	1.94
562.647	1.87
562.84	1.9
563.032	1.83
563.225	1.77
563.418	1.76
563.611	1.78
563.804	1.73
563.997	1.67
564.19	1.59
564.382	1.7
564.575	1.65
564.768	1.62
564.961	1.61
565.153	1.56
565.346	1.56
565.539	1.6
565.731	1.54
565.924	1.53
566.117	1.53
566.309	1.49
566.502	1.42
566.695	1.42
566.887	1.45
567.08	1.39
567.272	1.39
567.465	1.35
567.657	1.37
567.85	1.34
568.042	1.33
568.235	1.34
568.427	1.29
568.62	1.27
568.812	1.29
569.005	1.24
569.197	1.17
569.389	1.21
569.582	1.17
569.774	1.17
569.966	1.13
570.159	1.09
570.351	1.13
570.543	1.1
570.736	1.09
570.928	1.03
571.12	1.06
571.312	1.05
571.505	0.98
571.697	1.07
571.889	1.02
572.081	1.01
572.273	0.96
572.465	1.04
572.658	0.97
572.85	0.96
573.042	0.95
573.234	0.93
573.426	0.92
573.618	0.9
573.81	0.9
574.002	0.9
574.194	0.89
574.386	0.86
574.578	0.8
574.77	0.83
574.962	0.85
575.154	0.82
575.346	0.82
575.538	0.84
575.729	0.78
575.921	0.78
576.113	0.77
576.305	0.8
576.497	0.76
576.689	0.75
576.88	0.71
577.072	0.74
577.264	0.7
577.456	0.75
577.647	0.67
577.839	0.71
578.031	0.72
578.223	0.64
578.414	0.62
578.606	0.7
578.798	0.67
578.989	0.63
579.181	0.66
579.372	0.66
579.564	0.62
579.755	0.64
579.947	0.62
580.139	0.65
580.33	0.53
580.522	0.55
580.713	0.52
580.905	0.58
581.096	0.6
581.287	0.57
581.479	0.56
581.67	0.58
581.862	0.55
582.053	0.52
582.244	0.48
582.436	0.53
582.627	0.51
582.818	0.48
583.01	0.47
583.201	0.51
583.392	0.53
583.583	0.5
583.775	0.48
583.966	0.47
584.157	0.48
584.348	0.51
584.54	0.41
584.731	0.5
584.922	0.46
585.113	0.46
585.304	0.47
585.495	0.48
585.686	0.45
585.877	0.44
586.068	0.44
586.259	0.41
586.45	0.43
586.641	0.38
586.832	0.38
587.023	0.41
587.214	0.4
587.405	0.41
587.596	0.37
587.787	0.48
587.978	0.39
588.169	0.35
588.36	0.37
588.551	0.4
588.742	0.35
588.932	0.39
589.123	0.34
589.314	0.4
589.505	0.38
589.696	0.35
589.886	0.34
590.077	0.35
590.268	0.36
590.458	0.31
590.649	0.28
590.84	0.36
591.03	0.3
591.221	0.31
591.412	0.29
591.602	0.34
591.793	0.34
591.984	0.28
592.174	0.29
592.365	0.38
592.555	0.27
592.746	0.29
592.936	0.33
593.127	0.29
593.317	0.35
593.508	0.29
593.698	0.27
593.889	0.27
594.079	0.28
594.269	0.27
594.46	0.29
594.65	0.29
594.84	0.28
595.031	0.23
595.221	0.26
595.411	0.21
595.602	0.28
595.792	0.27
595.982	0.26
596.172	0.31
596.363	0.27
596.553	0.26
596.743	0.27
596.933	0.22
597.123	0.29
597.314	0.26
597.504	0.23
597.694	0.28
597.884	0.26
598.074	0.24
598.264	0.22
598.454	0.27
598.644	0.24
598.834	0.25
599.024	0.17
599.214	0.19
599.404	0.24
599.594	0.21
599.784	0.17
599.974	0.26
600.164	0.25
600.354	0.2
600.544	0.15
600.734	0.25
600.924	0.25
601.114	0.21
601.303	0.21
601.493	0.22
601.683	0.19
601.873	0.21
602.063	0.18
602.252	0.21
602.442	0.14
602.632	0.15
602.821	0.17
603.011	0.23
603.201	0.16
603.39	0.18
603.58	0.18
603.77	0.17
603.959	0.22
604.149	0.19
604.339	0.22
604.528	0.23
604.718	0.21
604.907	0.17
605.097	0.17
605.286	0.14
605.476	0.19
605.665	0.2
605.855	0.16
606.044	0.22
606.234	0.17
606.423	0.18
606.612	0.16
606.802	0.15
606.991	0.18
607.181	0.18
607.37	0.11
607.559	0.14
607.749	0.14
607.938	0.18
608.127	0.17
608.316	0.14
608.506	0.19
608.695	0.14
608.884	0.17
609.073	0.16
609.263	0.19
609.452	0.22
609.641	0.18
609.83	0.13
610.019	0.16
610.208	0.14
610.397	0.17
610.586	0.18
610.775	0.11
610.965	0.14
611.154	0.13
611.343	0.16
611.532	0.15
611.721	0.1
611.91	0.13
612.099	0.19
612.287	0.17
612.476	0.09
612.665	0.15
612.854	0.15
613.043	0.18
613.232	0.16
613.421	0.1
613.61	0.15
613.798	0.13
613.987	0.16
614.176	0.16
614.365	0.17
614.554	0.14
614.742	0.17
614.931	0.11
615.12	0.16
615.309	0.12
615.497	0.17
615.686	0.1
615.875	0.14
616.063	0.14
616.252	0.1
616.44	0.13
616.629	0.16
616.818	0.15
617.006	0.13
617.195	0.13
617.383	0.16
617.572	0.13
617.76	0.1
617.949	0.11
618.137	0.14
618.326	0.18
618.514	0.11
618.703	0.09
618.891	0.17
619.079	0.08
619.268	0.16
619.456	0.12
619.644	0.18
619.833	0.12
620.021	0.12
620.209	0.07
620.398	0.15
620.586	0.12
620.774	0.15
620.962	0.12
621.151	0.19
621.339	0.1
621.527	0.1
621.715	0.13
621.903	0.11
622.092	0.09
622.28	0.13
622.468	0.15
622.656	0.12
622.844	0.16
623.032	0.11
623.22	0.08
623.408	0.17
623.596	0.12
623.784	0.15
623.972	0.08
624.16	0.11
624.348	0.16
624.536	0.15
624.724	0.11
624.912	0.18
625.1	0.18
625.288	0.08
625.476	0.11
625.664	0.11
625.851	0.11
626.039	0.12
626.227	0.11
626.415	0.09
626.603	0.07
626.79	0.12
626.978	0.07
627.166	0.1
627.354	0.11
627.541	0.1
627.729	0.06
627.917	0.14
628.104	0.17
628.292	0.14
628.48	0.13
628.667	0.13
628.855	0.15
629.042	0.13
629.23	0.08
629.418	0.11
629.605	0.11
629.793	0.08
629.98	0.11
630.168	0.09
630.355	0.1
630.543	0.12
630.73	0.09
630.917	0.11
631.105	0.18
631.292	0.11
631.48	0.13
631.667	0.18
631.854	0.11
632.042	0.12
632.229	0.05
632.416	0.12
632.604	0.11
632.791	0.05
632.978	0.13
633.165	0.12
633.353	0.17
633.54	0.13
633.727	0.05
633.914	0.08
634.101	0.02
634.289	0.15
634.476	0.08
634.663	0.07
634.85	0.11
635.037	0.05
635.224	0.04
635.411	0.12
635.598	0.12
635.785	0.09
635.972	0.08
636.159	0.13
636.346	0.08
636.533	0.13
636.72	0.1
636.907	0.09
637.094	0.13
637.281	0.09
637.468	0.11
637.655	0.08
637.842	0.06
638.029	0.09
638.215	0.14
638.402	0.12
638.589	0.1
638.776	0.09
638.963	0.08
639.149	0.14
639.336	0.17
639.523	0.09
639.709	0.13
639.896	0.11
640.083	0.16
640.27	0.1
640.456	0.08
640.643	0.12
640.829	0.03
641.016	0.08
641.203	0.07
641.389	0.11
641.576	0.13
641.762	0.07
641.949	0.02
642.135	0.12
642.322	0.06
642.508	0.03
642.695	0.11
642.881	0.07
643.068	0.08
643.254	0.07
643.441	0.12
643.627	0.12
643.813	0.09
644	0.12
644.186	0.08
644.372	0.06
644.559	0.15
644.745	0.09
644.931	0.09
645.118	0.07
645.304	0.09
645.49	0.08
645.676	0.07
645.862	0.12
646.049	0.16
646.235	0.1
646.421	0.14
646.607	0.16
646.793	0.1
646.979	0.06
647.165	0.12
647.352	0.08
647.538	0.11
647.724	0.09
647.91	0.1
648.096	0.16
648.282	0.15
648.468	0.07
648.654	0.11
648.84	0.11
649.026	0.11
649.212	0.09
649.397	0.07
649.583	0.06
649.769	0.11
649.955	0.12
650.141	0.12
650.327	0.12
650.513	0.06
650.698	0.14
650.884	0.03
651.07	0.09
651.256	0.07
651.442	0.08
651.627	0.08
651.813	0.13
651.999	0.1
652.184	0.16
652.37	0.09
652.556	0.06
652.741	0.14
652.927	0.05
653.113	0.08
653.298	0.13
653.484	0.08
653.669	0.06
653.855	0.09
654.04	0.12
654.226	0.1
654.412	0.06
654.597	0.05
654.782	0.08
654.968	0.15
655.153	0.09
655.339	0.09
655.524	0.06
655.71	0.12
655.895	0.08
656.08	0.09
656.266	0.11
656.451	0.11
656.636	0.05
656.822	0.09
657.007	0.08
657.192	0.04
657.378	0.07
657.563	0.11
657.748	0.14
657.933	0.12
658.118	0.07
658.304	0.06
658.489	0.13
658.674	0.1
658.859	0.08
659.044	0.12
659.229	0.11
659.414	0.07
659.599	0.1
659.785	0.07
659.97	0.09
660.155	0.13
660.34	0.1
660.525	0.12
660.71	0.1
660.895	0.12
661.08	0.06
661.264	0.07
661.449	0.11
661.634	0.14
661.819	0.12
662.004	0.12
662.189	0.05
662.374	0.08
662.559	0.09
662.743	0.06
662.928	0.13
663.113	0.08
663.298	0.04
663.483	0.11
663.667	0.17
663.852	0.06
664.037	0.14
664.221	0.11
664.406	0.15
664.591	0.12
664.775	0.14
664.96	0.05
665.145	0.11
665.329	0.12
665.514	0.11
665.698	0.08
665.883	0.06
666.068	0.16
666.252	0.08
666.437	0.06
666.621	0.09
666.806	0.14
666.99	0.12
667.174	0.1
667.359	0.14
667.543	0.12
667.728	0.06
667.912	0.03
668.096	0.1
668.281	0.06
668.465	0.1
668.649	0.11
668.834	0.07
669.018	0.07
669.202	0.1
669.387	0.06
669.571	0.16
669.755	0.07
669.939	0.09
670.124	0.11
670.308	0.15
670.492	0.14
670.676	0.13
670.86	0.13
671.044	0.09
671.228	0.18
671.413	0.06
671.597	0.08
671.781	0.06
671.965	0.16
672.149	0.09
672.333	0.12
672.517	0.08
672.701	0.12
672.885	0.07
673.069	0.09
673.253	0.14
673.437	0.05
673.621	0.11
673.804	0.12
673.988	0.13
674.172	0.15
674.356	0.13
674.54	0.13
674.724	0.17
674.908	0.09
675.091	0.15
675.275	0.09
675.459	0.18
675.643	0.18
675.826	0.13
676.01	0.13
676.194	0.09
676.377	0.16
676.561	0.16
676.745	0.1
676.928	0.11
677.112	0.16
677.296	0.09
677.479	0.1
677.663	0.12
677.846	0.16
678.03	0.16
678.213	0.09
678.397	0.13
678.58	0.09
678.764	0.13
678.947	0.09
679.131	0.06
679.314	0.18
679.498	0.09
679.681	0.15
679.865	0.2
680.048	0.1
680.231	0.14
680.415	0.12
680.598	0.12
680.781	0.12
680.965	0.12
681.148	0.15
681.331	0.1
681.514	0.16
681.698	0.09
681.881	0.14
682.064	0.13
682.247	0.13
682.43	0.12
682.614	0.15
682.797	0.21
682.98	0.16
683.163	0.08
683.346	0.15
683.529	0.07
683.712	0.1
683.895	0.18
684.078	0.1
684.261	0.07
684.444	0.12
684.627	0.16
684.81	0.08
684.993	0.12
685.176	0.13
685.359	0.08
685.542	0.08
685.725	0.18
685.908	0.14
686.091	0.11
686.274	0.17
686.457	0.16
686.639	0.14
686.822	0.16
687.005	0.12
687.188	0.15
687.371	0.23
687.553	0.1
687.736	0.12
687.919	0.15
688.102	0.17
688.284	0.12
688.467	0.14
688.65	0.07
688.832	0.11
689.015	0.15
689.197	0.06
689.38	0.23
689.563	0.2
689.745	0.08
689.928	0.06
690.11	0.1
690.293	0.15
690.475	0.05
690.658	0.11
690.84	0.11
691.023	0.09
691.205	0.1
691.388	0.11
691.57	0.15
691.752	0.16
691.935	0.05
692.117	0.03
692.3	0.12
692.482	0.09
692.664	0.06
692.847	0.13
693.029	0.18
693.211	0.15
693.393	0.06
693.576	0.05
693.758	0.12
693.94	0.06
694.122	0.08
694.304	0.11
694.487	0.1
694.669	0.17
694.851	0.08
695.033	0.17
695.215	0.07
695.397	0.07
695.579	0.15
695.761	0.07
695.943	0.03
696.125	0.19
696.308	0.23
696.49	0.08
696.671	0.22
696.853	0.09
697.035	0.26
697.217	0.12
697.399	0.16
697.581	0.05
697.763	0.12
697.945	0.08
698.127	0.13
698.309	0.19
698.491	0.12
698.672	0.11
698.854	0.16
699.036	0.16
699.218	0.09
699.399	0.16
699.581	0.17
699.763	0.11
699.945	0.1
700.126	0.06
700.308	0.13
700.49	0.18
700.671	0.01
700.853	0.04
701.035	0.07
701.216	0.12
701.398	0.12
701.579	0.09
701.761	0.19
701.943	0.09
702.124	0.14
702.306	0.1
702.487	0.25
702.669	0.11
702.85	0.09
703.031	0.04
703.213	0.22
703.394	0.16
703.576	0.11
703.757	0.17
703.938	0.19
704.12	0.25
704.301	0.11
704.483	0.12
704.664	0.09
704.845	0.21
705.026	0.16
705.208	0.13
705.389	0.11
705.57	0.15
705.751	0.15
705.933	0.14
706.114	0.22
706.295	0.1
706.476	0.03
706.657	0.23
706.838	0.16
707.02	0.23
707.201	0.04
707.382	0.08
707.563	0.14
707.744	0.13
707.925	0.05
708.106	0.05
708.287	0.13
708.468	0.19
708.649	0.14
708.83	0.15
709.011	0.06
709.192	0.19
709.373	0.03
709.554	0.17
709.734	0.14
709.915	0.18
710.096	0.15
710.277	0.02
710.458	0.15
710.639	0.13
710.819	0
711	0.09
711.181	0.14
711.362	0.14
711.542	0.11
711.723	0.09
711.904	0.15
712.085	0.15
712.265	0.1
712.446	0.1
712.627	0.14
712.807	0.12
712.988	0.13
713.168	0.02
713.349	0.18
713.53	0.01
713.71	0.04
713.891	0.05
714.071	0.13
714.252	0.13
714.432	0.08
714.613	0.02
714.793	0.11
714.974	0.21
715.154	0.2
715.334	0.14
715.515	0.24
715.695	0
715.876	0.14
716.056	0.09
716.236	0.07
716.417	0.14
716.597	0.13
716.777	0.29
716.957	0.12
717.138	0.08
717.318	0.12
717.498	0.03
717.678	0.14
717.859	0.16
718.039	0.07
718.219	0.16
718.399	0.21
718.579	0.05
718.759	0.09
718.939	0.17
719.12	0.09
719.3	0.13
719.48	-0.02
719.66	0.03
719.84	0.2
720.02	0.15
720.2	0.09
720.38	0.08
720.56	0.24
720.74	0.06
720.92	0.15
721.1	0.18
721.279	0.19
721.459	0.14
721.639	0.1
721.819	0.16
721.999	0.16
722.179	0.13
722.359	0.01
722.538	0.14
722.718	0.15
722.898	0.13
723.078	0.06
723.257	0.17
723.437	0.19
723.617	0.13
723.797	0.07
723.976	0.12
724.156	0.13
724.336	0.14
724.515	0.3
724.695	-0.03
724.874	0.07
725.054	0.18
725.234	0.02
725.413	0.13
725.593	0.08
725.772	0.07
725.952	0.09
726.131	0.12
726.311	0.08
726.49	0.12
726.67	-0.02
726.849	0.07
727.028	0.25
727.208	0.1
727.387	0.15
727.567	0.09
727.746	0.16
727.925	0.07
728.105	0.04
728.284	0.21
728.463	0.03
728.643	0.2
728.822	0.02
729.001	0.14
729.18	0.2
729.359	0.19
729.539	0.14
729.718	0.15
729.897	0.08
730.076	0.13
730.255	0.08
730.434	0.06
730.614	0.15
730.793	0.19
730.972	0.17
731.151	0.21
731.33	0.24
731.509	0.15
731.688	0.18
731.867	0.08
732.046	-0.06
732.225	0.27
732.404	0.05
732.583	0.08
732.762	0.11
732.941	0.11
733.12	0.16
733.298	0.09
733.477	0.21
733.656	0.11
733.835	-0.03
734.014	0.29
734.193	0.08
734.371	0.2
734.55	0.13
734.729	-0.02
734.908	0.12
735.086	0.21
735.265	0.19
735.444	0
735.623	-0.04
735.801	0.07
735.98	0.17
736.159	0.04
736.337	0.2
736.516	0.13
736.694	0.17
736.873	0.04
737.052	0.23
737.23	0.28
737.409	-0.01
737.587	0.34
737.766	-0
737.944	0.11
738.123	0.27
738.301	0.21
738.479	0.15
738.658	0.13
738.836	-0.03
739.015	0.19
739.193	0.33
739.371	0.13
739.55	0.11
739.728	0.09
739.906	0.24
740.085	0.29
740.263	0.17
740.441	0.01
740.62	0.45
740.798	0.2
740.976	0.04
741.154	0.12
741.332	0.28
741.511	0.07
741.689	0.09
741.867	0.22
742.045	0.2
742.223	0.21
742.401	0.08
742.579	0.1
742.757	0.16
742.935	0.11
743.114	0.16
743.292	0.07
743.47	0.09
743.648	0.15
743.826	0.21
744.004	0.22
744.181	0.23
744.359	-0.02
744.537	0.16
744.715	0.02
744.893	0.16
745.071	0.14
745.249	0.11
745.427	0.22
745.605	0.19
745.782	0.15
745.96	0.2
746.138	0.16
746.316	0.15
746.493	0.08
746.671	0.14
746.849	0.16
747.027	0.19
747.204	0.17
747.382	0.11
747.56	0.04
747.737	0.13
747.915	0.11
748.093	0.16
748.27	0.04
748.448	0.14
748.625	0.07
748.803	0.13
748.98	0.07
749.158	0.12
749.335	0.3
749.513	0.13
749.69	0.06
749.868	0.18
750.045	0.14
750.223	0.14
750.4	-0.02
750.578	0.26
750.755	0.09
750.932	0.07
751.11	0.25
751.287	0.02
751.464	0.29
751.642	0.13
751.819	0.14
751.996	0.15
752.173	-0.04
752.351	0.06
752.528	0.11
752.705	0.13
752.882	0.01
753.06	0.23
753.237	0.14
753.414	0.27
753.591	0.22
753.768	0.14
753.945	0.12
754.122	0.09
754.299	0.21
754.476	-0
754.654	0.13
754.831	0.19
755.008	0.13
755.185	-0.09
755.362	0.01
755.539	0.17
755.716	0.02
755.892	0.09
756.069	0.09
756.246	0.14
756.423	0.21
756.6	0.28
756.777	0.08
756.954	0.2
757.131	0.01
757.307	-0.02
757.484	0.02
757.661	0.13
757.838	0.17
758.015	-0.03
758.191	0.15
758.368	0.18
758.545	0.3
758.721	0.2
758.898	0.03
759.075	0.18
759.251	0.12
759.428	0.15
759.605	-0.01
759.781	0.06
759.958	0.25
760.134	0.12
760.311	0.09
760.488	0.37
760.664	0.31
760.841	0.21
761.017	0.06
761.194	0.29
761.37	0.17
761.547	0.14
761.723	0.07
761.899	0.29
762.076	-0.01
762.252	-0.05
762.429	0.08
762.605	0.23
762.781	0.14
762.958	0.13
763.134	0.19
763.31	0.02
763.486	0.25
763.663	-0.12
763.839	0.11
764.015	-0.12
764.191	0.03
764.368	0.1
764.544	0.04
764.72	0.23
764.896	0.15
765.072	0.12
765.248	0.1
765.425	0.07
765.601	0.18
765.777	0.08
765.953	-0.15
766.129	0.04
766.305	-0.01
766.481	0.19
766.657	0.19
766.833	0.24
767.009	-0.03
767.185	0.07
767.361	0.16
767.537	-0.03
767.713	0.22
767.889	-0.1
768.065	0.13
768.24	0.21
768.416	0.34
768.592	0.05
768.768	0.21
768.944	0.2
769.12	-0.04
769.295	0.02
769.471	0.18
769.647	0.11
769.823	0.3
769.998	0.05
770.174	-0.07
770.35	0.28
770.525	0.32
770.701	0.2
770.877	0.14
771.052	0.02
771.228	0.27
771.403	0.26
771.579	0.13
771.755	0.39
771.93	0.15
772.106	-0.01
772.281	-0.05
772.457	0.13
772.632	0.29
772.808	-0.09
772.983	0.03
773.159	-0.11
773.334	0.25
773.509	0.1
773.685	0.07
773.86	0.38
774.036	0.27
774.211	0.11
774.386	0.03
774.562	0.15
774.737	0.09
774.912	0.02
775.087	0.2
775.263	0.11
775.438	0.12
775.613	0.05
775.788	-0
775.964	0.2
776.139	0.37
776.314	0.03
776.489	0.29
776.664	0.16
776.839	0.02
777.014	0.4
777.19	0.31
777.365	0.42
777.54	0.4
777.715	0.12
777.89	0.12
778.065	0.1
778.24	0.16
778.415	0.23
778.59	-0.13
778.765	0.2
778.94	0.12
779.115	0.24
779.289	-0.06
779.464	0.13
779.639	0.11
779.814	-0.07
779.989	-0.06
780.164	0.37
780.339	0.28
780.513	0.05
780.688	0.02
780.863	0.12
781.038	0.31
781.212	0.02
781.387	0.29
781.562	0.53
781.737	0.13
781.911	0.3
782.086	0.06
782.261	0.12
782.435	0.39
782.61	-0.07
782.784	0.13
782.959	0.35
783.134	0.14
783.308	-0.1
783.483	-0.11
783.657	0.53
783.832	0.14
784.006	-0.06
784.181	0.17
784.355	0.23
784.53	0.17
784.704	0.13
784.878	0.32
785.053	0.23
785.227	0.27
785.402	0.41
785.576	-0.02
785.75	0.11
785.925	0.12
786.099	0.29
786.273	0.25
786.448	0.23
786.622	0.41
786.796	0.3
786.97	0.18
787.145	0.77
787.319	-0.24
787.493	0.06
787.667	-0.09
787.841	0.09
788.015	0.13
788.19	-0.01
788.364	0.13
788.538	0.24
788.712	0.25
788.886	0.04
789.06	0.26
789.234	0.21
789.408	0.04
789.582	0.11
789.756	0.07
789.93	0.14
790.104	0.19
790.278	-0.02
790.452	0.11
790.626	0.32
790.8	0.1
790.973	0.21
791.147	0.31
791.321	0.44
791.495	0.21
791.669	0.03
791.843	0.35
792.016	0.07
792.19	0.53
792.364	-0.05
792.538	0.46
792.711	0.46
792.885	0.12
793.059	-0.13
793.233	-0.24
793.406	0.44
793.58	0.38
793.754	0.26
793.927	0.14
794.101	0.36
794.274	0.1
794.448	0.28
794.622	-0.25
794.795	0.66
794.969	0.11
795.142	0.61
795.316	0.04
795.489	0.02
795.663	0.5
795.836	0.26
796.009	-0.11
796.183	0.51
796.356	0.32
796.53	0.14
796.703	0.25
796.876	0.73
797.05	0.28
797.223	0.16
797.396	0.12
797.57	0.3
797.743	0.58
797.916	0.15
798.09	0.01
798.263	0.33
798.436	0.12
798.609	-0.11
798.782	0.03
798.956	0.16
799.129	0.07
799.302	0.04
799.475	0.01
799.648	0.06
799.821	-0.05
799.994	0.23
800.167	-0.1
800.34	0.2
800.514	0.17
800.687	0.15
800.86	-0.05
801.033	0.19
801.206	0.36
801.379	-0.1
801.551	0.25
801.724	0.26
801.897	0.54
802.07	-0.14
802.243	-0.35
802.416	0.25
802.589	0.15
802.762	0.19
802.935	0.4
803.107	0.34
803.28	0.42
803.453	0.26
803.626	0.09
803.798	0.15
803.971	0.04
804.144	0.25
804.317	0.39
804.489	0.43
804.662	0.4
804.835	0.2
805.007	0.08
805.18	0.62
805.353	0.21
805.525	0.27
805.698	0.03
805.87	0.45
806.043	0.7
806.215	0.04
806.388	-0.05
806.56	0.41
806.733	0.43
806.905	0.55
807.078	-0.1
807.25	-0.14
807.423	0.49
807.595	0.37
807.768	0.19
807.94	0.55
808.112	0.5
808.285	0.18
808.457	-0.12
808.629	0.11
808.802	0.45
808.974	0.03
809.146	-0.06
809.318	0.11
809.491	0.09
809.663	0.44
809.835	-0
810.007	0.23
810.18	0.05
810.352	-0.19
810.524	0.18
810.696	0.15
810.868	0.45
811.04	0.28
811.212	0.11
811.384	0.16
811.556	0.61
811.728	0.22
811.901	0.96
812.073	0.12
812.245	0.33
812.417	0.08
812.589	-0.87
812.76	0.38
812.932	0.47
813.104	0.42
813.276	0.43
813.448	0.51
813.62	0.27
813.792	0.32
813.964	0.17
814.136	0.45
814.307	-0.3
814.479	0.11
814.651	0.01
814.823	0.93
814.995	0.27
815.166	0.53
815.338	0
815.51	-0.05
815.681	1.24
815.853	0.1
816.025	0.39
816.196	0.72
816.368	0.38
816.54	-0.24
816.711	0.13
816.883	0.53
817.054	1.24
817.226	-0.6
817.398	0.37
817.569	0.11
817.741	0.35
817.912	0.09
818.084	0.28
818.255	0.46
818.426	0.13
818.598	0.4
818.769	0.06
818.941	0.58
819.112	0.74
819.283	0.4
819.455	-0.24
819.626	0.36
819.798	0.26
819.969	0.51
820.14	0.23
820.311	0.08
820.483	0.51
820.654	0.19
820.825	0.27
820.996	0.12
821.168	-0.28
821.339	0.27
821.51	-0.1
821.681	-0.16
821.852	0.3
822.023	0.13
822.195	-0.39
822.366	0.7
822.537	0.24
822.708	0.31
822.879	0.33
823.05	0.99
823.221	0.21
823.392	0.35
823.563	0.02
823.734	0.69
823.905	0.07
824.076	-0.18
824.247	-0.48
824.418	-0.06
824.589	0.69
824.759	0.13
824.93	0.7
825.101	-0.07
825.272	0.99
825.443	0.89
825.614	0.32
825.784	-0.74
825.955	0.97
826.126	1.37
826.297	0.45
826.467	0.66
826.638	0.73
826.809	-0.11
826.98	0.58
827.15	0.62
827.321	0.84
827.492	0.65
827.662	0.01
827.833	1.33
828.003	0.58
828.174	0.15
828.345	-0.09
828.515	1.02
828.686	0.31
828.856	0.03
829.027	0.25
829.197	-0.09
829.368	0.33
829.538	-0.06
829.709	-0.13
829.879	0.5
830.049	0.52
830.22	0.1
830.39	0.16
830.56	0.88
830.731	-0.13
830.901	-0.16
831.072	1.03
831.242	0.27
831.412	0.6
831.582	1.11
831.753	0.2
831.923	1.25
832.093	0.98
832.263	0.42
832.434	-0.15
832.604	0.08
832.774	0.95
832.944	0.21
833.114	-0.06
833.284	0.9
833.454	0.11
833.624	-0.23
833.795	-0.25
833.965	1.3
834.135	1.69
834.305	-0.6
834.475	-0.43
834.645	0.48
834.815	-0.5
834.985	-0.67
835.155	-0.05
835.325	0.71
835.494	0.47
835.664	0.15
835.834	-0.26
836.004	0.54
836.174	0.87
836.344	0.32
836.514	-0.09
836.684	0.02
836.853	0.65
837.023	0.52
837.193	0.53
837.363	0.51
837.532	1.11
837.702	0.38
837.872	-0.42
838.041	0.42
838.211	1.57
838.381	-0.37
838.55	0.35
838.72	1.89
838.89	2.05
839.059	0.13
839.229	0.11
839.398	2.35
839.568	0.61
839.738	0.03
839.907	1.14
840.077	0.96
840.246	0.15
840.416	-0.1
840.585	-0.45
840.755	1.53
840.924	1.51
841.093	-0.41
841.263	0.48
841.432	0.67
841.602	-0.58
841.771	0.18
841.94	0.27
842.11	2.26
842.279	1.73
842.448	-0.43
842.617	0.27
842.787	1.21
842.956	0.26
843.125	-0.1
843.294	1.05
843.464	1.29
843.633	0.78
843.802	-0.15
843.971	0.47
844.14	0.94
844.309	0.63
844.479	0.19
844.648	-0.19
844.817	0.19
844.986	0.69
845.155	0.51
845.324	0.16
845.493	-0.06
845.662	-0.84
845.831	0.63
846	0.76
846.169	0.42
846.338	2.26
846.507	0.7
846.676	0.88
846.844	0.14
847.013	1.16
847.182	0.65
847.351	-0.13
847.52	0.27
847.689	0.52
847.858	0.39
848.026	-0.18
848.195	0.28
848.364	0.05
848.533	0.02
848.701	-0
848.87	0.06
849.039	1.75
849.207	0.96
849.376	1.23
849.545	2.26
849.713	-0.32
849.882	-0.27
850.051	0.5
850.219	0.38
850.388	1.05
850.556	0.14
850.725	0.25
850.893	1.34
851.062	0.14
851.23	0.61
851.399	-1.42
851.567	-0.39
851.736	0.8
851.904	0.49
852.073	0.57
852.241	0.94
852.41	1.02
852.578	0.93
852.746	0.07
852.915	0.53
853.083	0.48
853.251	-1.01
853.42	-0.59
853.588	0.12
853.756	0.88
853.924	0.23
854.093	0.4
854.261	0.3
854.429	-0.48
854.597	1.12
854.765	-0.15
854.934	1.68
855.102	0.64
855.27	-0.33
855.438	1.03
855.606	2.04
855.774	1.9
855.942	-0.57
856.11	-0.35
856.278	-0.13
856.446	0.99
856.614	0.38
856.782	-0.15
856.95	1.88
857.118	1.57
857.286	0.12
857.454	-0.87
857.622	3.01
857.79	1.51
857.958	0.06
858.126	-0.24
858.294	-1.57
858.462	-0.5
858.629	0.29
858.797	0.41
858.965	0.4
859.133	0.69
859.301	0.09
859.468	0.59
859.636	0.99
859.804	1.74
859.971	2
860.139	0.15
860.307	1.4
860.474	0.28
860.642	-0.75
860.81	-0.19
860.977	0.25
861.145	1.91
861.313	0.39
861.48	1.54
861.648	1.77
861.815	-0.32
861.983	0.02
862.15	0.86
862.318	0.3
862.485	2.1
862.653	0.03
862.82	0.13
862.988	2.37
863.155	0.69
863.322	-0.13
863.49	-0.16
863.657	-0.57
863.824	2.89
863.992	1.57
864.159	0.66
864.326	2.41
864.494	-0.05
864.661	3.49
864.828	0.24
864.996	2.62
865.163	1.46
865.33	-0.53
865.497	-1.64
865.664	0.24
865.832	-1.01
865.999	1.02
866.166	-0.23
866.333	1.48
866.5	-0.2
866.667	1.76
866.834	-0.46
867.001	1.84
867.168	-0.62
867.335	0.76
867.502	-0.53
867.669	0.91
867.836	1.74
868.003	0.39
868.17	1.9
868.337	2.33
868.504	3.36
868.671	-2.34
868.838	0.73
869.005	1.14
869.172	1.81
869.339	1.81
869.505	1.05
869.672	0.32
869.839	1.99
870.006	1.69
870.173	-0.2
870.339	-0.13
870.506	2.72
870.673	0.15
870.84	1.16
871.006	0.9
871.173	1.43
871.34	0.28
871.506	-0.06
871.673	0.92
871.839	-1.56
872.006	1.68
872.173	-0.01
872.339	0.07
872.506	3.29
872.672	-0.32
872.839	-1.11
873.005	0.71
873.172	4.93
873.338	1.38
873.505	1.23
873.671	1.78
873.838	2.77
874.004	-0.21
874.171	0.61
874.337	2.65
874.503	-0.34
874.67	-0.51
874.836	1.42
875.002	3.67
875.169	1.5
875.335	-0.46
875.501	1.53
875.668	1.77
875.834	-0.12
876	0.93
876.166	1.58
876.332	2.54
876.499	3.42
876.665	-0.21
876.831	-0.05
876.997	4.09
877.163	2.16
877.329	0.38
877.495	0.1
877.662	2.46
877.828	0.92
877.994	0.51
878.16	-0.82
878.326	-0.42
878.492	-0.14
878.658	0.12
878.824	1.38
878.99	2.74
879.156	-2.65
879.322	3.44
879.487	-0.07
879.653	-0.2
879.819	2.13
879.985	-1.92
880.151	0.55
880.317	0.38
880.483	2.03
880.648	3
880.814	-1.43
880.98	3.07
881.146	-0.48
881.312	0.1
881.477	-0.48
881.643	0.95
881.809	2.25
881.974	1.34
882.14	-4.14
882.306	1.68
882.471	1.16
882.637	0.44
882.803	3.06
882.968	3.19
883.134	3.02
883.299	0.2
883.465	0.53
883.63	1.54
883.796	3.55
883.961	1.14
884.127	1.79
884.292	-4.09
884.458	-0.97
884.623	-0.97
