Data from Apollo_Calib_20240827__AbsoluteIrradiance__285__03-54-00-915.txt Node

Date: Wed Aug 28 03:54:00 BST 2024
User: biology
Spectrometer: FLMT08252
Trigger mode: 0
Integration Time (sec): 5.000000E-1
Scans to average: 5
Electric dark correction enabled: true
Nonlinearity correction enabled: false
Boxcar width: 0
XAxis mode: Wavelengths
Number of Pixels in Spectrum: 3648
>>>>>Begin Spectral Data<<<<<
179.588	-0
179.809	-0
180.03	-0
180.251	-0
180.473	-0
180.694	0
180.915	0
181.136	-0
181.357	0
181.578	0
181.799	-0
182.02	-0
182.241	-0
182.462	-0
182.683	0
182.904	-0
183.125	-0
183.346	0
183.567	0
183.788	-0
184.009	-0
184.23	0
184.451	0
184.672	-0
184.892	-0
185.113	0
185.334	0
185.555	-0
185.776	0
185.996	0
186.217	0
186.438	0
186.659	-0
186.879	0
187.1	-0
187.321	0
187.541	0
187.762	0
187.983	0
188.203	0
188.424	0
188.644	-0
188.865	0
189.086	-0
189.306	0
189.527	0
189.747	0
189.968	-0
190.188	0
190.409	0
190.629	0
190.849	-0
191.07	0
191.29	0
191.511	0
191.731	-0
191.951	0
192.172	0
192.392	0
192.612	-0
192.833	0
193.053	0
193.273	0
193.493	0
193.714	0
193.934	0
194.154	0
194.374	0
194.594	0
194.815	0
195.035	0
195.255	-0
195.475	-0
195.695	0
195.915	0
196.135	0
196.355	0
196.575	0
196.795	0
197.015	-0
197.235	0
197.455	0
197.675	0
197.895	-0
198.115	0
198.335	0
198.555	0
198.775	0
198.995	0
199.214	0
199.434	0
199.654	-0
199.874	0
200.094	1.13
200.313	0.28
200.533	0.1
200.753	-0.1
200.973	1.64
201.192	0.96
201.412	-0.43
201.632	0.18
201.851	1.4
202.071	0.07
202.291	0.13
202.51	-0.08
202.73	0.96
202.95	0.35
203.169	-0.17
203.389	0.51
203.608	0.16
203.828	0.08
204.047	-0.24
204.267	0.84
204.486	0.85
204.706	0.66
204.925	0.64
205.145	0.13
205.364	0.99
205.583	1.16
205.803	0.04
206.022	-0.32
206.242	0.44
206.461	0.06
206.68	0.11
206.9	0.37
207.119	0.56
207.338	0.82
207.557	-0.2
207.777	0.13
207.996	0.22
208.215	0.76
208.434	-0.03
208.654	-0.21
208.873	0.33
209.092	0.85
209.311	0.14
209.53	0.22
209.749	0.19
209.968	0.06
210.187	0.22
210.407	-0.32
210.626	0.14
210.845	0.54
211.064	0.17
211.283	0.07
211.502	0.7
211.721	0.27
211.94	0.07
212.159	0.41
212.377	0.35
212.596	0.77
212.815	0.16
213.034	0.37
213.253	0.5
213.472	0.59
213.691	-0.01
213.91	-0.05
214.128	0.06
214.347	0.66
214.566	-0.26
214.785	-0.29
215.003	0.46
215.222	0.37
215.441	0.15
215.66	-0.01
215.878	0.08
216.097	0.5
216.316	-0.06
216.534	0.04
216.753	0.27
216.972	-0.04
217.19	0.13
217.409	-0.12
217.627	0.08
217.846	0.16
218.064	0.02
218.283	0.03
218.501	0.58
218.72	0.47
218.938	-0.16
219.157	0.05
219.375	0.34
219.594	0.39
219.812	-0.2
220.031	-0.08
220.249	0.54
220.467	0.42
220.686	0.17
220.904	-0.07
221.122	0.06
221.341	0.56
221.559	0.08
221.777	-0.17
221.995	0
222.214	0.28
222.432	-0.07
222.65	0.09
222.868	0.34
223.086	0.26
223.305	0.15
223.523	0.1
223.741	0.38
223.959	0.18
224.177	-0.09
224.395	0.09
224.613	0.21
224.831	0.23
225.049	-0.03
225.267	0.08
225.485	0.25
225.703	0.02
225.921	0.08
226.139	0.11
226.357	0.32
226.575	0.23
226.793	0.07
227.011	0.88
227.229	0.13
227.447	0.21
227.665	0.1
227.883	-0.17
228.1	0.13
228.318	0.1
228.536	-0.08
228.754	-0.02
228.972	0.32
229.189	0.28
229.407	0.11
229.625	0.04
229.843	0.35
230.06	0.09
230.278	-0.01
230.496	0.15
230.713	0.19
230.931	0.26
231.149	-0.02
231.366	-0.1
231.584	0.15
231.801	0.47
232.019	0.02
232.236	-0.08
232.454	-0.1
232.671	0.2
232.889	0.12
233.106	0.02
233.324	0.12
233.541	0.19
233.759	0.17
233.976	0.09
234.194	0.04
234.411	0.23
234.628	0.07
234.846	0.09
235.063	0.15
235.28	0.11
235.498	0.06
235.715	-0.02
235.932	0.23
236.149	0.07
236.367	-0.03
236.584	0.16
236.801	-0
237.018	0.26
237.236	0.11
237.453	-0.01
237.67	0.21
237.887	0.06
238.104	0.08
238.321	0.01
238.538	0.02
238.755	0.24
238.973	-0.04
239.19	0.06
239.407	0.15
239.624	0.18
239.841	-0.06
240.058	-0.04
240.275	0.18
240.492	0.18
240.709	0.11
240.925	-0.01
241.142	0.1
241.359	-0.05
241.576	-0.01
241.793	-0.01
242.01	0.15
242.227	0.13
242.444	0.17
242.66	0.17
242.877	0.18
243.094	0.01
243.311	0.1
243.527	0.03
243.744	0.17
243.961	0.12
244.178	0.03
244.394	0.12
244.611	0.21
244.828	0.28
245.044	-0.02
245.261	0.05
245.477	0.13
245.694	0.08
245.911	-0
246.127	0.1
246.344	0.28
246.56	0.1
246.777	0.01
246.993	0.05
247.21	0.17
247.426	0.23
247.643	0.08
247.859	-0.03
248.076	0.07
248.292	0.29
248.508	0.02
248.725	0.15
248.941	0.1
249.157	0.22
249.374	-0
249.59	0.1
249.806	0.1
250.023	0.2
250.239	0.03
250.455	0.02
250.671	0.13
250.888	0.13
251.104	0.14
251.32	0.05
251.536	0.12
251.752	0.02
251.969	0.07
252.185	0.11
252.401	0.35
252.617	0.13
252.833	0.04
253.049	0.03
253.265	0.04
253.481	0.1
253.697	0.01
253.913	0.03
254.129	0.12
254.345	0.05
254.561	0.05
254.777	0.08
254.993	0.15
255.209	0.13
255.425	0.08
255.641	-0.01
255.857	0.15
256.073	0.09
256.288	-0.02
256.504	0.05
256.72	0.04
256.936	0.16
257.152	0.1
257.367	0
257.583	0.05
257.799	0.12
258.015	0.02
258.23	-0.03
258.446	0.18
258.662	0.05
258.877	0.06
259.093	0
259.309	0.1
259.524	0.08
259.74	0.07
259.955	-0.06
260.171	0.07
260.387	0.03
260.602	0.13
260.818	0.11
261.033	0.02
261.249	0.07
261.464	0.03
261.68	-0.03
261.895	0.13
262.11	0.1
262.326	0.05
262.541	-0
262.757	0.12
262.972	0.15
263.187	0.17
263.403	0.05
263.618	0.16
263.833	0.08
264.049	0.05
264.264	0.06
264.479	0.2
264.694	0.25
264.91	-0.07
265.125	0.01
265.34	0.16
265.555	0.28
265.77	0.08
265.986	0.1
266.201	0.21
266.416	0.15
266.631	0
266.846	0.05
267.061	0.11
267.276	0.08
267.491	-0.05
267.706	0.07
267.921	0.11
268.136	0.08
268.351	0.01
268.566	-0
268.781	0.16
268.996	0.12
269.211	0.06
269.426	-0.05
269.641	0.02
269.856	0.14
270.071	-0.03
270.285	-0.01
270.5	0.15
270.715	0.11
270.93	0.06
271.145	0.06
271.359	0.17
271.574	0.03
271.789	0.08
272.004	-0.01
272.218	0.05
272.433	0.08
272.648	0.01
272.862	0.15
273.077	0.1
273.292	0.08
273.506	0.05
273.721	0.03
273.936	0.1
274.15	0.13
274.365	0.04
274.579	0.08
274.794	0.14
275.008	0.13
275.223	-0.05
275.437	0.06
275.652	0.08
275.866	0.05
276.081	0.07
276.295	0.09
276.509	0.01
276.724	0.07
276.938	0.07
277.153	0.07
277.367	0.11
277.581	0.02
277.796	0.08
278.01	0
278.224	0.13
278.438	0.23
278.653	-0.01
278.867	0.01
279.081	-0.09
279.295	0.03
279.51	0.13
279.724	-0.04
279.938	0.09
280.152	0.11
280.366	-0.03
280.58	0.07
280.794	0.1
281.008	0.12
281.222	0.09
281.437	0.2
281.651	0.1
281.865	0.19
282.079	0.04
282.293	0.01
282.507	-0
282.721	0.1
282.935	0.08
283.148	-0
283.362	0.06
283.576	-0.01
283.79	-0
284.004	0.05
284.218	0.17
284.432	-0.01
284.646	0.05
284.859	0.01
285.073	0.05
285.287	0.13
285.501	0.06
285.714	0.03
285.928	0.09
286.142	0.05
286.356	-0.01
286.569	0.03
286.783	0.15
286.997	0.12
287.21	0.04
287.424	0.1
287.637	0.09
287.851	0.03
288.065	0.08
288.278	0.05
288.492	0.05
288.705	0.08
288.919	0.09
289.132	0.03
289.346	0.13
289.559	0.03
289.773	-0.03
289.986	0.05
290.2	0.08
290.413	0.13
290.626	-0.01
290.84	0.03
291.053	0.12
291.267	0.14
291.48	0.05
291.693	0.06
291.906	0.05
292.12	0.06
292.333	0
292.546	0.04
292.76	0.14
292.973	0.1
293.186	0.15
293.399	0.04
293.612	0.12
293.826	0.01
294.039	0.03
294.252	0.04
294.465	0.07
294.678	0.07
294.891	0.1
295.104	0.05
295.317	0.05
295.53	0.11
295.743	0.06
295.956	0.04
296.169	0.18
296.382	0.1
296.595	0.08
296.808	-0.04
297.021	0.13
297.234	0.09
297.447	0.02
297.66	0.12
297.873	0.09
298.086	0.12
298.299	0.06
298.511	-0.01
298.724	0.04
298.937	0.04
299.15	0.02
299.363	0.09
299.575	0.09
299.788	0.06
300.001	0.01
300.213	0.04
300.426	0.03
300.639	0.05
300.852	0.04
301.064	0.11
301.277	0.14
301.489	0.09
301.702	0.12
301.915	0.05
302.127	0.09
302.34	0.08
302.552	0.09
302.765	0.02
302.977	0.11
303.19	0.04
303.402	0.03
303.615	0.03
303.827	0.05
304.04	0.1
304.252	0.1
304.464	0.05
304.677	0.16
304.889	0.09
305.102	0.08
305.314	0.04
305.526	0.09
305.739	0.1
305.951	0.02
306.163	0.05
306.375	0.13
306.588	0.05
306.8	0.01
307.012	0.01
307.224	0.06
307.436	0.09
307.649	-0.05
307.861	0.05
308.073	0.08
308.285	0.03
308.497	-0.03
308.709	0.04
308.921	0.11
309.133	0.09
309.346	0.08
309.558	0.05
309.77	0.1
309.982	0.12
310.194	0.11
310.406	0.02
310.617	0.13
310.829	0.08
311.041	0.06
311.253	0.02
311.465	0.1
311.677	0.05
311.889	0.03
312.101	0.05
312.313	0.1
312.524	0.09
312.736	0.03
312.948	0.03
313.16	0.16
313.372	0.12
313.583	0.04
313.795	0.09
314.007	0.04
314.218	0.11
314.43	0.07
314.642	0.02
314.853	0.06
315.065	0.09
315.277	0.06
315.488	0.07
315.7	0.12
315.912	0.1
316.123	0.03
316.335	0.05
316.546	0.2
316.758	0.06
316.969	0.03
317.181	0.06
317.392	0.05
317.604	0.08
317.815	0.02
318.026	0.04
318.238	0.05
318.449	0.11
318.661	0.02
318.872	0
319.083	0.02
319.295	0.1
319.506	0.02
319.717	0.08
319.929	0.08
320.14	0.05
320.351	0.04
320.562	0.06
320.774	0.09
320.985	0.08
321.196	-0
321.407	-0.04
321.618	0.14
321.829	0.11
322.041	0.08
322.252	0.06
322.463	0.08
322.674	0.09
322.885	0.04
323.096	0.04
323.307	0.05
323.518	0.06
323.729	0.01
323.94	0.05
324.151	0.03
324.362	0.08
324.573	0.08
324.784	0.05
324.995	0.12
325.206	0.04
325.417	0.05
325.628	0
325.838	0.06
326.049	0.1
326.26	0.1
326.471	0.06
326.682	0.1
326.892	0.07
327.103	-0.04
327.314	-0.01
327.525	0.13
327.735	0.05
327.946	0.07
328.157	0.02
328.368	0.08
328.578	0.05
328.789	0.09
328.999	0.06
329.21	0.06
329.421	0.16
329.631	0.04
329.842	0.04
330.052	0.12
330.263	0.11
330.473	0.07
330.684	0.09
330.894	0.05
331.105	0.11
331.315	0.05
331.526	-0.02
331.736	0.15
331.947	0.09
332.157	0.06
332.367	-0.01
332.578	0.09
332.788	0.12
332.999	0.07
333.209	0.06
333.419	0.01
333.629	0.1
333.84	0.11
334.05	0.08
334.26	0.1
334.47	0.1
334.681	0.11
334.891	0.03
335.101	0.09
335.311	0.12
335.521	0.08
335.732	0.03
335.942	0.12
336.152	0.09
336.362	0.1
336.572	0.08
336.782	0.09
336.992	0.03
337.202	0.04
337.412	0.03
337.622	0.13
337.832	0.09
338.042	0.09
338.252	0.03
338.462	0.04
338.672	0.1
338.882	0.06
339.092	0.06
339.302	0.17
339.511	0.09
339.721	0.03
339.931	0.01
340.141	0.12
340.351	0.13
340.561	0.07
340.77	0.13
340.98	0.11
341.19	0.1
341.4	0.06
341.609	0.04
341.819	0.09
342.029	0.02
342.238	0.07
342.448	0.01
342.658	0.08
342.867	0.07
343.077	0.09
343.286	0.08
343.496	0.08
343.706	0.19
343.915	0.01
344.125	0.07
344.334	0.07
344.544	0.02
344.753	0.03
344.963	0.08
345.172	0.04
345.381	0.04
345.591	0.02
345.8	0.06
346.01	0.15
346.219	0.11
346.428	-0.07
346.638	0.1
346.847	0.03
347.056	0.16
347.266	0.04
347.475	0.07
347.684	0.07
347.893	0.06
348.103	0.09
348.312	0.09
348.521	0.06
348.73	0.07
348.94	0.09
349.149	0.01
349.358	0.08
349.567	0.05
349.776	-0
349.985	0.03
350.194	0.08
350.403	0.11
350.612	0.01
350.821	0.06
351.03	0.12
351.239	0.01
351.448	0.06
351.657	0.02
351.866	0.15
352.075	0.11
352.284	0.12
352.493	-0
352.702	0.16
352.911	0.09
353.12	0.06
353.329	0.07
353.538	0.1
353.746	0.05
353.955	0.04
354.164	0.09
354.373	0.09
354.582	0.1
354.79	0.07
354.999	0.11
355.208	0.07
355.416	0.14
355.625	0.02
355.834	0.07
356.042	0.09
356.251	0.04
356.46	0.03
356.668	0.09
356.877	0.18
357.085	0.12
357.294	0.01
357.503	0.09
357.711	0.1
357.92	0.16
358.128	0.07
358.337	0.07
358.545	0.1
358.754	0.06
358.962	0.13
359.17	0.06
359.379	0.09
359.587	0.12
359.796	0.05
360.004	0.13
360.212	0.08
360.421	0.13
360.629	0.08
360.837	0.05
361.046	0.1
361.254	0.17
361.462	0.1
361.67	0.05
361.879	0.1
362.087	0.15
362.295	0.09
362.503	0.08
362.711	0.02
362.92	0.07
363.128	0.05
363.336	0.03
363.544	0.01
363.752	0.08
363.96	0.02
364.168	0.08
364.376	0.09
364.584	0.12
364.792	0.1
365	0.1
365.208	0.11
365.416	0.08
365.624	0.12
365.832	0.04
366.04	0.13
366.248	0.1
366.456	0.14
366.664	0.05
366.872	0.1
367.079	0.06
367.287	0.04
367.495	0.07
367.703	0.09
367.911	0.04
368.118	0.11
368.326	0.05
368.534	0.05
368.742	0.15
368.949	0.04
369.157	0.04
369.365	0.1
369.572	0.06
369.78	0.02
369.988	0.12
370.195	0.12
370.403	0.1
370.61	0.05
370.818	0.08
371.026	0.16
371.233	0.04
371.441	0.11
371.648	0.05
371.856	0.07
372.063	0.09
372.271	0.05
372.478	0.07
372.685	0.06
372.893	0.11
373.1	0.08
373.308	0.07
373.515	0.17
373.722	0.11
373.93	0.07
374.137	0.12
374.344	0.21
374.552	0.1
374.759	0.14
374.966	0.06
375.173	0.08
375.381	0.14
375.588	0.08
375.795	0.02
376.002	0.05
376.209	0.06
376.417	0.07
376.624	0.11
376.831	0.14
377.038	0.04
377.245	0.04
377.452	0.09
377.659	0.1
377.866	0.07
378.073	0.08
378.28	0.09
378.487	0.14
378.694	0.14
378.901	0.07
379.108	0.11
379.315	0.12
379.522	0.23
379.729	0.09
379.936	0.05
380.143	0.16
380.35	0.16
380.557	0.07
380.763	0.12
380.97	0.11
381.177	0.17
381.384	0.14
381.591	0.09
381.797	0.05
382.004	0.13
382.211	0.16
382.418	0.12
382.624	0.15
382.831	0.17
383.038	0.1
383.244	0.13
383.451	0.12
383.658	0.14
383.864	0.11
384.071	0.09
384.277	0.17
384.484	0.09
384.69	0.16
384.897	0.13
385.103	0.08
385.31	0.07
385.516	0.11
385.723	0.07
385.929	0.12
386.136	0.1
386.342	0.14
386.549	0.14
386.755	0.17
386.961	0.19
387.168	0.11
387.374	0.13
387.58	0.14
387.787	0.14
387.993	0.16
388.199	0.11
388.406	0.11
388.612	0.17
388.818	0.13
389.024	0.1
389.231	0.2
389.437	0.25
389.643	0.17
389.849	0.16
390.055	0.16
390.261	0.15
390.467	0.15
390.674	0.14
390.88	0.16
391.086	0.19
391.292	0.14
391.498	0.23
391.704	0.18
391.91	0.2
392.116	0.15
392.322	0.11
392.528	0.22
392.734	0.17
392.94	0.22
393.146	0.21
393.352	0.23
393.557	0.18
393.763	0.2
393.969	0.25
394.175	0.28
394.381	0.28
394.587	0.2
394.792	0.23
394.998	0.33
395.204	0.31
395.41	0.24
395.615	0.3
395.821	0.34
396.027	0.33
396.233	0.26
396.438	0.33
396.644	0.39
396.85	0.34
397.055	0.34
397.261	0.41
397.466	0.4
397.672	0.42
397.878	0.48
398.083	0.41
398.289	0.45
398.494	0.56
398.7	0.48
398.905	0.41
399.111	0.61
399.316	0.45
399.522	0.54
399.727	0.48
399.932	0.58
400.138	0.55
400.343	0.65
400.549	0.65
400.754	0.68
400.959	0.68
401.165	0.74
401.37	0.79
401.575	0.9
401.78	0.88
401.986	0.86
402.191	0.84
402.396	0.98
402.601	0.99
402.807	1.07
403.012	1.06
403.217	1.23
403.422	1.21
403.627	1.23
403.832	1.3
404.037	1.38
404.243	1.39
404.448	1.43
404.653	1.56
404.858	1.65
405.063	1.67
405.268	1.72
405.473	1.79
405.678	1.82
405.883	2.13
406.088	2.1
406.293	2.03
406.498	2.19
406.703	2.2
406.907	2.33
407.112	2.49
407.317	2.63
407.522	2.89
407.727	2.93
407.932	3.03
408.136	3.29
408.341	3.22
408.546	3.35
408.751	3.58
408.956	3.7
409.16	4
409.365	4.04
409.57	4.12
409.774	4.28
409.979	4.46
410.184	4.62
410.388	4.74
410.593	4.97
410.798	5.21
411.002	5.44
411.207	5.6
411.411	5.85
411.616	5.88
411.82	6.3
412.025	6.5
412.229	6.8
412.434	6.96
412.638	7.13
412.843	7.45
413.047	7.67
413.252	7.82
413.456	8.4
413.66	8.56
413.865	8.66
414.069	8.88
414.273	9.27
414.478	9.44
414.682	9.79
414.886	10.1
415.091	10.25
415.295	10.67
415.499	11.17
415.703	11.1
415.908	11.66
416.112	11.83
416.316	12.34
416.52	12.61
416.724	12.9
416.929	13.28
417.133	14.02
417.337	13.82
417.541	14.46
417.745	14.66
417.949	15.05
418.153	15.55
418.357	15.82
418.561	16.53
418.765	16.5
418.969	16.81
419.173	17.74
419.377	17.68
419.581	18.37
419.785	18.79
419.989	19.02
420.193	19.6
420.397	19.65
420.601	20.17
420.804	20.47
421.008	20.39
421.212	20.85
421.416	20.44
421.62	20.58
421.823	20.73
422.027	20.57
422.231	20.48
422.435	20.23
422.638	20.05
422.842	20.27
423.046	20.64
423.249	20.65
423.453	20.44
423.657	20.61
423.86	20.65
424.064	20.95
424.268	20.64
424.471	20.37
424.675	20.57
424.878	20.18
425.082	20.49
425.285	20.8
425.489	19.88
425.692	19.91
425.896	19.33
426.099	19.2
426.303	19.3
426.506	19.28
426.71	19.21
426.913	18.97
427.116	19
427.32	18.29
427.523	17.79
427.726	17.87
427.93	17.73
428.133	17.63
428.336	17.5
428.54	17.11
428.743	17.04
428.946	16.87
429.149	16.22
429.353	15.69
429.556	15.13
429.759	14.61
429.962	14.54
430.165	14.17
430.368	12.99
430.571	12.66
430.775	12.21
430.978	11.7
431.181	11.33
431.384	11.03
431.587	10.78
431.79	10.82
431.993	10.23
432.196	10.33
432.399	10.3
432.602	10.08
432.805	9.75
433.008	9.98
433.211	9.57
433.414	9.48
433.616	9.13
433.819	8.86
434.022	8.64
434.225	8.5
434.428	8.15
434.631	8.39
434.833	7.81
435.036	7.71
435.239	7.64
435.442	7.38
435.645	7.32
435.847	7.03
436.05	7.03
436.253	6.9
436.455	6.59
436.658	6.45
436.861	6.44
437.063	6.2
437.266	5.97
437.468	5.9
437.671	5.99
437.874	5.81
438.076	5.43
438.279	5.4
438.481	5.29
438.684	5.43
438.886	5.15
439.089	4.96
439.291	4.87
439.494	4.87
439.696	4.66
439.899	4.73
440.101	4.73
440.303	4.51
440.506	4.61
440.708	4.39
440.91	4.31
441.113	4.15
441.315	4.09
441.517	3.9
441.72	3.92
441.922	3.63
442.124	3.49
442.326	3.55
442.529	3.47
442.731	3.28
442.933	3.42
443.135	3.11
443.337	2.99
443.539	3.05
443.742	2.87
443.944	2.89
444.146	2.68
444.348	2.68
444.55	2.5
444.752	2.55
444.954	2.37
445.156	2.37
445.358	2.34
445.56	2.4
445.762	2.21
445.964	2.21
446.166	2.08
446.368	2.04
446.57	2.06
446.772	1.92
446.974	1.86
447.175	1.89
447.377	1.84
447.579	1.78
447.781	1.67
447.983	1.79
448.184	1.62
448.386	1.63
448.588	1.51
448.79	1.55
448.991	1.38
449.193	1.48
449.395	1.38
449.597	1.44
449.798	1.4
450	1.3
450.202	1.32
450.403	1.27
450.605	1.3
450.806	1.2
451.008	1.11
451.21	1.19
451.411	1.16
451.613	1.1
451.814	1.14
452.016	1.09
452.217	1
452.419	1.09
452.62	0.97
452.821	1.04
453.023	1.09
453.224	0.99
453.426	0.9
453.627	0.91
453.828	0.87
454.03	0.82
454.231	0.91
454.432	0.83
454.634	0.98
454.835	0.76
455.036	0.75
455.238	0.83
455.439	0.9
455.64	0.71
455.841	0.73
456.042	0.87
456.244	0.78
456.445	0.74
456.646	0.62
456.847	0.72
457.048	0.76
457.249	0.77
457.45	0.98
457.651	0.59
457.852	0.64
458.054	0.61
458.255	0.54
458.456	0.61
458.657	0.6
458.858	0.48
459.058	0.53
459.259	0.56
459.46	0.55
459.661	0.53
459.862	0.72
460.063	0.5
460.264	0.54
460.465	0.42
460.666	0.58
460.866	0.49
461.067	0.44
461.268	0.39
461.469	0.42
461.67	0.42
461.87	0.42
462.071	0.38
462.272	0.4
462.473	0.44
462.673	0.45
462.874	0.35
463.075	0.45
463.275	0.33
463.476	0.44
463.676	0.41
463.877	0.41
464.078	0.39
464.278	0.42
464.479	0.35
464.679	0.42
464.88	0.37
465.08	0.42
465.281	0.32
465.481	0.31
465.682	0.35
465.882	0.36
466.083	0.3
466.283	0.32
466.483	0.33
466.684	0.25
466.884	0.23
467.085	0.26
467.285	0.33
467.485	0.24
467.686	0.28
467.886	0.24
468.086	0.24
468.286	0.27
468.487	0.31
468.687	0.2
468.887	0.22
469.087	0.29
469.287	0.24
469.488	0.19
469.688	0.23
469.888	0.35
470.088	0.28
470.288	0.28
470.488	0.25
470.688	0.22
470.888	0.22
471.088	0.21
471.288	0.24
471.488	0.23
471.688	0.28
471.888	0.16
472.088	0.33
472.288	0.22
472.488	0.15
472.688	0.2
472.888	0.24
473.088	0.19
473.288	0.22
473.488	0.19
473.688	0.26
473.887	0.19
474.087	0.15
474.287	0.19
474.487	0.19
474.687	0.19
474.886	0.16
475.086	0.19
475.286	0.18
475.486	0.16
475.685	0.19
475.885	0.15
476.085	0.19
476.284	0.19
476.484	0.18
476.684	0.19
476.883	0.24
477.083	0.16
477.282	0.14
477.482	0.23
477.681	0.22
477.881	0.18
478.08	0.13
478.28	0.14
478.479	0.17
478.679	0.19
478.878	0.15
479.078	0.13
479.277	0.13
479.477	0.14
479.676	0.17
479.875	0.12
480.075	0.06
480.274	0.17
480.473	0.13
480.673	0.1
480.872	0.15
481.071	0.14
481.271	0.13
481.47	0.1
481.669	0.1
481.868	0.12
482.067	0.08
482.267	0.08
482.466	0.11
482.665	0.09
482.864	0.08
483.063	0.07
483.262	0.13
483.461	0.17
483.661	0.14
483.86	0.11
484.059	0.15
484.258	0.11
484.457	0.1
484.656	0.08
484.855	0.16
485.054	0.03
485.253	0.04
485.452	0.05
485.651	0.07
485.849	0.11
486.048	0.09
486.247	0.03
486.446	0.1
486.645	0.04
486.844	0.06
487.043	0.05
487.241	0.13
487.44	0.04
487.639	0.08
487.838	0.1
488.037	0.08
488.235	0.14
488.434	0.09
488.633	0.05
488.831	0.08
489.03	0.11
489.229	0.11
489.427	0.08
489.626	0.12
489.825	0.12
490.023	0.08
490.222	0.07
490.42	0.09
490.619	0.11
490.817	0.1
491.016	0.05
491.214	0.11
491.413	0.07
491.611	0.08
491.81	0.07
492.008	0.1
492.207	0.1
492.405	0.09
492.604	0.02
492.802	0.05
493	0.08
493.199	0.07
493.397	0.07
493.595	0.05
493.794	0.07
493.992	0.12
494.19	0.04
494.388	0.07
494.587	0.04
494.785	0.07
494.983	0.05
495.181	0.07
495.379	0.06
495.578	0.04
495.776	0.06
495.974	0.07
496.172	0.04
496.37	0.05
496.568	0.05
496.766	0.03
496.964	0.09
497.162	0.06
497.36	0.03
497.558	0.08
497.756	0.09
497.954	0.07
498.152	0.05
498.35	0.07
498.548	0.06
498.746	0.06
498.944	0.04
499.142	0.06
499.34	0.02
499.538	0.06
499.736	0.03
499.933	0.11
500.131	0.07
500.329	0.05
500.527	0.08
500.725	0.09
500.922	0.09
501.12	0.06
501.318	0.06
501.516	0.03
501.713	0.09
501.911	0.05
502.109	0.02
502.306	0.06
502.504	0.05
502.701	0.02
502.899	0.04
503.097	0.13
503.294	0.04
503.492	0.03
503.689	0.05
503.887	0.08
504.084	0.11
504.282	0.06
504.479	0.01
504.677	0.06
504.874	0.02
505.072	0.05
505.269	0.06
505.466	0.09
505.664	0.06
505.861	0.01
506.059	0.05
506.256	0.08
506.453	0.03
506.651	0.09
506.848	0.08
507.045	0.06
507.242	0.08
507.44	0.06
507.637	0.04
507.834	0.03
508.031	0.07
508.229	0.04
508.426	0.05
508.623	0.05
508.82	0.03
509.017	0.03
509.214	0.03
509.411	0.08
509.608	0.03
509.805	0.05
510.003	0.01
510.2	0.04
510.397	0.06
510.594	0.03
510.791	0.01
510.988	0.03
511.184	0.08
511.381	0.03
511.578	0.03
511.775	0.08
511.972	0.02
512.169	0.02
512.366	0.05
512.563	0.08
512.76	0.04
512.956	0.04
513.153	0.01
513.35	0.06
513.547	0.03
513.744	0.01
513.94	0
514.137	0.06
514.334	0.04
514.53	0.03
514.727	0.03
514.924	0.07
515.12	0.04
515.317	-0.01
515.514	0.03
515.71	0.01
515.907	0.03
516.103	0.03
516.3	0.07
516.497	0.07
516.693	0.07
516.89	0.03
517.086	0.01
517.283	0.05
517.479	0.06
517.676	0.04
517.872	0.03
518.068	0.03
518.265	0.04
518.461	0.03
518.658	0.01
518.854	0.03
519.05	0.04
519.247	0.02
519.443	0.07
519.639	0.06
519.836	0.05
520.032	0.02
520.228	0.03
520.424	0.11
520.621	0.04
520.817	0.03
521.013	0.06
521.209	0.07
521.405	0.07
521.601	0.04
521.798	0.03
521.994	0.09
522.19	0.02
522.386	0.01
522.582	0.04
522.778	0.04
522.974	0.03
523.17	0.03
523.366	0.05
523.562	0.07
523.758	0.04
523.954	0.02
524.15	0.04
524.346	0.05
524.542	0.02
524.738	0
524.934	0.02
525.129	0.02
525.325	0.04
525.521	0.04
525.717	0.06
525.913	0.06
526.109	0.04
526.304	0.03
526.5	0.07
526.696	0.07
526.892	0.04
527.087	0.04
527.283	0.03
527.479	0.04
527.674	0.02
527.87	0.03
528.066	0.04
528.261	0.05
528.457	0.04
528.653	0.03
528.848	0.04
529.044	0.06
529.239	0.05
529.435	0.04
529.63	0.02
529.826	0.07
530.021	0.04
530.217	0.05
530.412	0.03
530.608	-0
530.803	0.05
530.999	0.04
531.194	-0.01
531.389	0.05
531.585	0
531.78	0.03
531.975	0.04
532.171	0.04
532.366	0.02
532.561	0.07
532.757	0
532.952	0.04
533.147	0.05
533.342	0.03
533.538	0
533.733	0.06
533.928	0.04
534.123	0.03
534.318	0
534.513	0.03
534.709	0.03
534.904	0.01
535.099	0.01
535.294	0.05
535.489	0.04
535.684	0.02
535.879	-0
536.074	0.03
536.269	0.01
536.464	0.02
536.659	0.03
536.854	0.02
537.049	0.03
537.244	0.05
537.439	-0
537.634	0.08
537.828	0.04
538.023	0.03
538.218	-0
538.413	0.02
538.608	0.04
538.803	0.04
538.997	-0.01
539.192	0.07
539.387	0.05
539.582	0.05
539.776	0.03
539.971	0.01
540.166	0.02
540.36	0.03
540.555	0.03
540.75	0.02
540.944	0.02
541.139	0
541.334	0.03
541.528	0.04
541.723	0.07
541.917	0.02
542.112	-0.01
542.306	0.03
542.501	0.02
542.695	0.01
542.89	0.03
543.084	0.03
543.279	0.01
543.473	0.01
543.668	0.01
543.862	0.04
544.056	0.05
544.251	0.03
544.445	0.03
544.64	0.01
544.834	0.01
545.028	0.02
545.222	0.04
545.417	0.06
545.611	0.05
545.805	0.03
546	0
546.194	0.02
546.388	0.02
546.582	0.04
546.776	0.03
546.97	0.01
547.165	0.04
547.359	0.04
547.553	-0.01
547.747	0.05
547.941	0.04
548.135	0.03
548.329	0.03
548.523	0.03
548.717	0.03
548.911	0.01
549.105	0.03
549.299	0.03
549.493	0.05
549.687	0.02
549.881	0.03
550.075	0.01
550.269	-0
550.463	0.03
550.657	0.01
550.85	0.02
551.044	0.02
551.238	0.04
551.432	-0
551.626	0.01
551.82	0.03
552.013	0.03
552.207	0.02
552.401	0.04
552.594	0.04
552.788	0.02
552.982	0.01
553.176	0
553.369	0.05
553.563	0.04
553.756	-0.02
553.95	-0.01
554.144	0.02
554.337	0.06
554.531	0.05
554.724	0.04
554.918	0.01
555.111	0.05
555.305	0.02
555.498	0.08
555.692	0.03
555.885	0.01
556.079	0.03
556.272	0
556.466	0.07
556.659	0.04
556.852	0.01
557.046	0.01
557.239	0.06
557.432	-0.01
557.626	-0.01
557.819	0.03
558.012	0.05
558.206	0.04
558.399	0.05
558.592	0.04
558.785	0.02
558.979	0.04
559.172	0.03
559.365	0.04
559.558	0.03
559.751	0.02
559.944	0.02
560.138	0
560.331	0
560.524	0.01
560.717	0.04
560.91	0.01
561.103	0.04
561.296	0.03
561.489	0.05
561.682	0.01
561.875	0.05
562.068	0.04
562.261	0.02
562.454	0.06
562.647	0.06
562.84	0.03
563.032	0.02
563.225	0.03
563.418	0.01
563.611	0.02
563.804	0.02
563.997	-0
564.19	0
564.382	0.03
564.575	-0
564.768	0.02
564.961	0.04
565.153	-0
565.346	0.07
565.539	0.05
565.731	0.05
565.924	0.06
566.117	0.03
566.309	0.01
566.502	0.03
566.695	0.04
566.887	0.02
567.08	-0.01
567.272	0.02
567.465	0.01
567.657	0.03
567.85	0.06
568.042	0.04
568.235	0.05
568.427	0.01
568.62	0.01
568.812	0.02
569.005	0.03
569.197	-0.01
569.389	0.03
569.582	0.04
569.774	0.03
569.966	-0
570.159	-0.02
570.351	0.06
570.543	-0
570.736	-0.01
570.928	-0.01
571.12	0.02
571.312	0.02
571.505	-0.01
571.697	0.07
571.889	-0
572.081	0.03
572.273	-0.01
572.465	0.05
572.658	0.02
572.85	0.03
573.042	-0.01
573.234	0.01
573.426	0.03
573.618	0
573.81	0.05
574.002	0.09
574.194	0.09
574.386	-0.02
574.578	-0.04
574.77	0.02
574.962	0.01
575.154	-0.02
575.346	0
575.538	0.04
575.729	-0.01
575.921	0.02
576.113	0.01
576.305	0.03
576.497	0.02
576.689	-0
576.88	-0
577.072	0.04
577.264	0.01
577.456	0.01
577.647	-0.05
577.839	0.01
578.031	0.05
578.223	-0.01
578.414	-0.02
578.606	0.06
578.798	0.01
578.989	-0
579.181	0.02
579.372	0.02
579.564	-0
579.755	0.02
579.947	0.03
580.139	0.03
580.33	-0.03
580.522	0.03
580.713	-0.06
580.905	0.01
581.096	0.05
581.287	0.03
581.479	0.02
581.67	0.03
581.862	0.01
582.053	-0.01
582.244	-0.02
582.436	0
582.627	0.02
582.818	-0.02
583.01	-0.01
583.201	0.05
583.392	0.04
583.583	0.02
583.775	0
583.966	0.01
584.157	0
584.348	-0.01
584.54	-0.02
584.731	0.04
584.922	0.01
585.113	-0.01
585.304	0.03
585.495	0.06
585.686	0.02
585.877	0.05
586.068	0.04
586.259	0.03
586.45	0.06
586.641	-0.01
586.832	-0.02
587.023	0.02
587.214	0.01
587.405	0.02
587.596	-0.01
587.787	0.06
587.978	0.01
588.169	-0.01
588.36	-0.02
588.551	0.03
588.742	-0.01
588.932	0.03
589.123	0.01
589.314	0.03
589.505	0.02
589.696	0.03
589.886	0.01
590.077	-0.02
590.268	0.03
590.458	-0.02
590.649	-0.02
590.84	0.04
591.03	-0
591.221	-0.01
591.412	-0.04
591.602	0.05
591.793	0.06
591.984	-0.01
592.174	0.01
592.365	0.08
592.555	-0
592.746	0.02
592.936	0.05
593.127	0.05
593.317	0.05
593.508	-0.02
593.698	0
593.889	0.02
594.079	0.04
594.269	-0.03
594.46	-0.01
594.65	0.02
594.84	0
595.031	-0.01
595.221	-0
595.411	-0.04
595.602	0.04
595.792	-0.02
595.982	-0.02
596.172	0.05
596.363	0.02
596.553	0
596.743	-0
596.933	0.01
597.123	0.04
597.314	-0.01
597.504	-0.01
597.694	0.05
597.884	0.03
598.074	0.01
598.264	-0.02
598.454	0.02
598.644	0.02
598.834	0.01
599.024	-0.04
599.214	-0.01
599.404	0
599.594	-0.01
599.784	-0
599.974	0.06
600.164	0.03
600.354	-0.03
600.544	-0.03
600.734	0.02
600.924	0.06
601.114	-0.02
601.303	0.01
601.493	0.03
601.683	0
601.873	0.05
602.063	-0.05
602.252	0.04
602.442	-0.01
602.632	0
602.821	0
603.011	0.02
603.201	-0.02
603.39	-0.01
603.58	-0.03
603.77	0.02
603.959	0.08
604.149	0.02
604.339	0.04
604.528	0.05
604.718	0.04
604.907	0
605.097	0.01
605.286	-0
605.476	0.07
605.665	0.04
605.855	0.01
606.044	0.06
606.234	0.02
606.423	-0.01
606.612	-0.04
606.802	0.03
606.991	0.03
607.181	0.05
607.37	-0.04
607.559	-0.01
607.749	-0.03
607.938	0.02
608.127	0.01
608.316	-0.01
608.506	0.02
608.695	0.03
608.884	-0.02
609.073	0.01
609.263	0.04
609.452	0.02
609.641	0.03
609.83	-0.01
610.019	-0.01
610.208	-0.01
610.397	0.01
610.586	0.03
610.775	-0.01
610.965	0
611.154	0
611.343	0.02
611.532	0.01
611.721	-0.03
611.91	-0.03
612.099	0.04
612.287	0.01
612.476	-0.01
612.665	0
612.854	-0.02
613.043	0.05
613.232	-0.02
613.421	-0.06
613.61	0.02
613.798	-0.02
613.987	0.04
614.176	0.01
614.365	0.05
614.554	0.04
614.742	0.03
614.931	0
615.12	0.04
615.309	0.01
615.497	0.02
615.686	-0.02
615.875	0.02
616.063	0.04
616.252	-0.01
616.44	-0
616.629	0.04
616.818	0.05
617.006	0.02
617.195	0.01
617.383	0.05
617.572	0.03
617.76	-0.02
617.949	0
618.137	0.01
618.326	0.03
618.514	-0
618.703	-0.01
618.891	0.08
619.079	-0.06
619.268	0
619.456	-0.01
619.644	0.09
619.833	0.02
620.021	-0.02
620.209	-0.02
620.398	0.02
620.586	0.02
620.774	0.03
620.962	0.01
621.151	0.07
621.339	0.03
621.527	-0.04
621.715	-0.03
621.903	-0.01
622.092	-0.02
622.28	0.01
622.468	0.02
622.656	-0
622.844	0.04
623.032	0
623.22	-0.02
623.408	0.06
623.596	0.04
623.784	0.06
623.972	-0.03
624.16	0.01
624.348	0.09
624.536	-0.02
624.724	-0.02
624.912	0.05
625.1	0.05
625.288	-0.02
625.476	0.01
625.664	0.02
625.851	-0.02
626.039	-0.02
626.227	0.04
626.415	0.02
626.603	-0.05
626.79	0.07
626.978	-0.02
627.166	0.03
627.354	-0
627.541	-0.01
627.729	-0.03
627.917	0.06
628.104	0.06
628.292	-0
628.48	-0.01
628.667	0
628.855	0.03
629.042	0.02
629.23	0.02
629.418	0.05
629.605	-0.02
629.793	-0.01
629.98	-0.04
630.168	0.02
630.355	0
630.543	0.02
630.73	-0.02
630.917	0.05
631.105	0.05
631.292	0.03
631.48	-0.01
631.667	0.09
631.854	0.01
632.042	0.03
632.229	-0.04
632.416	0.03
632.604	0.01
632.791	-0.04
632.978	0.06
633.165	0.04
633.353	0.05
633.54	0.05
633.727	-0.06
633.914	0.02
634.101	-0.04
634.289	0.05
634.476	-0.03
634.663	-0.03
634.85	0.02
635.037	-0.04
635.224	-0.07
635.411	0.05
635.598	0.06
635.785	0.02
635.972	0.01
636.159	0.05
636.346	-0.01
636.533	0.02
636.72	0.01
636.907	0
637.094	0.03
637.281	0.01
637.468	0.02
637.655	-0.02
637.842	-0
638.029	0.01
638.215	0.04
638.402	0.02
638.589	-0.01
638.776	-0
638.963	-0.01
639.149	0.05
639.336	0.09
639.523	-0
639.709	-0.01
639.896	-0
640.083	0.06
640.27	0.06
640.456	-0.03
640.643	0.02
640.829	-0.06
641.016	0.01
641.203	-0.03
641.389	0.06
641.576	0.02
641.762	0.02
641.949	-0.01
642.135	0.01
642.322	0.01
642.508	-0.04
642.695	0.02
642.881	-0.02
643.068	-0.03
643.254	0.03
643.441	0.02
643.627	-0.03
643.813	-0.01
644	0.03
644.186	-0.01
644.372	0.03
644.559	0.05
644.745	-0.02
644.931	-0.02
645.118	0
645.304	0.02
645.49	-0.01
645.676	0.01
645.862	0.01
646.049	0.06
646.235	-0.01
646.421	0.08
646.607	0.07
646.793	-0.01
646.979	-0.01
647.165	0
647.352	0.01
647.538	0.06
647.724	0.02
647.91	0.02
648.096	0.05
648.282	0.07
648.468	-0.01
648.654	0.03
648.84	0.03
649.026	-0.03
649.212	0.02
649.397	-0.01
649.583	-0.03
649.769	0.04
649.955	0.03
650.141	0.01
650.327	0.08
650.513	-0.04
650.698	0.02
650.884	-0.06
651.07	0.03
651.256	0.03
651.442	0.03
651.627	0
651.813	0.02
651.999	0.03
652.184	0.04
652.37	-0.01
652.556	-0.03
652.741	0.07
652.927	-0.06
653.113	-0.01
653.298	0.01
653.484	-0.02
653.669	-0.03
653.855	-0.03
654.04	0.03
654.226	0.03
654.412	0.01
654.597	-0.05
654.782	0.01
654.968	0.05
655.153	0.04
655.339	0
655.524	-0.03
655.71	0.07
655.895	0.03
656.08	0.03
656.266	0.04
656.451	0.03
656.636	-0.03
656.822	0.02
657.007	-0.02
657.192	-0.01
657.378	-0.05
657.563	0.04
657.748	0.02
657.933	0.05
658.118	-0.01
658.304	-0.02
658.489	0.04
658.674	0.03
658.859	-0.05
659.044	0.06
659.229	0.03
659.414	-0.02
659.599	-0.01
659.785	-0.06
659.97	-0.02
660.155	0.04
660.34	0
660.525	0.01
660.71	-0.04
660.895	0.06
661.08	-0.02
661.264	-0.05
661.449	0.07
661.634	0.04
661.819	0.01
662.004	0.04
662.189	-0.04
662.374	-0.05
662.559	-0.04
662.743	-0.03
662.928	0.02
663.113	-0.03
663.298	-0.08
663.483	-0.02
663.667	-0
663.852	-0.05
664.037	0.06
664.221	-0.02
664.406	0.04
664.591	0.03
664.775	-0.01
664.96	-0.04
665.145	0.02
665.329	0.03
665.514	-0.04
665.698	-0.02
665.883	-0.07
666.068	0.07
666.252	0.03
666.437	-0.06
666.621	0.02
666.806	-0
666.99	0
667.174	-0.01
667.359	0.03
667.543	0
667.728	-0.01
667.912	-0.08
668.096	0.03
668.281	-0.02
668.465	-0.01
668.649	0.01
668.834	-0.03
669.018	-0.01
669.202	-0.03
669.387	0
669.571	0.03
669.755	-0.01
669.939	-0.02
670.124	0.01
670.308	0.05
670.492	0
670.676	0.01
670.86	0.01
671.044	-0.03
671.228	0.03
671.413	-0.06
671.597	-0
671.781	-0.04
671.965	0.03
672.149	0.02
672.333	-0.04
672.517	-0.01
672.701	0.04
672.885	-0.01
673.069	-0.06
673.253	0.02
673.437	-0.01
673.621	-0
673.804	-0.01
673.988	0
674.172	-0.01
674.356	-0.07
674.54	-0.03
674.724	0.11
674.908	0.02
675.091	0.06
675.275	-0.02
675.459	0.01
675.643	0.08
675.826	0.02
676.01	-0.01
676.194	0.01
676.377	0.07
676.561	-0.03
676.745	-0
676.928	0.06
677.112	0.05
677.296	-0.02
677.479	0.01
677.663	0.01
677.846	0.05
678.03	-0.03
678.213	-0.02
678.397	-0.03
678.58	0.05
678.764	-0.03
678.947	-0.04
679.131	-0.02
679.314	0.03
679.498	-0.02
679.681	-0.02
679.865	0.06
680.048	0
680.231	-0.02
680.415	-0
680.598	0.03
680.781	-0.01
680.965	-0.03
681.148	0.01
681.331	-0.05
681.514	0.06
681.698	0.01
681.881	-0.01
682.064	0.05
682.247	0.04
682.43	-0.08
682.614	0.05
682.797	0.06
682.98	0.04
683.163	-0
683.346	0.03
683.529	0.04
683.712	-0.01
683.895	0.01
684.078	-0.06
684.261	0.03
684.444	0.02
684.627	0.02
684.81	-0.01
684.993	-0
685.176	-0
685.359	-0
685.542	-0.02
685.725	0.08
685.908	0.03
686.091	-0.05
686.274	0.05
686.457	0.08
686.639	-0.03
686.822	0.06
687.005	-0.01
687.188	0.03
687.371	0.09
687.553	0.04
687.736	0.01
687.919	0.09
688.102	0.09
688.284	-0.06
688.467	-0.01
688.65	0.03
688.832	-0.04
689.015	0.02
689.197	-0.06
689.38	0.16
689.563	0.09
689.745	-0.03
689.928	0.01
690.11	0.01
690.293	-0
690.475	-0.08
690.658	0
690.84	-0
691.023	0.06
691.205	-0.07
691.388	-0.01
691.57	0.07
691.752	0.05
691.935	-0.05
692.117	-0.04
692.3	0.03
692.482	-0.02
692.664	-0.02
692.847	-0.01
693.029	0.06
693.211	0.02
693.393	-0.01
693.576	-0.02
693.758	0.04
693.94	-0.01
694.122	-0.01
694.304	-0.01
694.487	0.01
694.669	0.1
694.851	-0.04
695.033	-0.02
695.215	-0.01
695.397	-0
695.579	0
695.761	-0.02
695.943	-0.06
696.125	0.12
696.308	0.08
696.49	-0.04
696.671	0.14
696.853	0.04
697.035	0.12
697.217	0.03
697.399	0.06
697.581	-0.01
697.763	-0.01
697.945	-0.04
698.127	0.05
698.309	0.08
698.491	0.05
698.672	0.04
698.854	0.06
699.036	0.11
699.218	-0.04
699.399	0.03
699.581	-0
699.763	0.05
699.945	-0
700.126	-0.08
700.308	0.04
700.49	-0.03
700.671	-0.08
700.853	-0.02
701.035	-0.02
701.216	-0.01
701.398	-0.06
701.579	-0.03
701.761	0.04
701.943	-0.04
702.124	-0.04
702.306	-0.01
702.487	0.16
702.669	-0.02
702.85	-0.08
703.031	0
703.213	0.13
703.394	0.08
703.576	-0.01
703.757	0.04
703.938	0.06
704.12	0.14
704.301	-0.01
704.483	-0.02
704.664	-0
704.845	0.11
705.026	0.03
705.208	-0.01
705.389	-0.01
705.57	0.06
705.751	0.01
705.933	0.03
706.114	0.12
706.295	0
706.476	0.01
706.657	0.1
706.838	0.04
707.02	0.08
707.201	-0.1
707.382	-0.01
707.563	0.02
707.744	0.03
707.925	-0.03
708.106	-0.08
708.287	-0.01
708.468	0.05
708.649	0.02
708.83	0.08
709.011	0.01
709.192	0.06
709.373	-0.07
709.554	0.02
709.734	0.08
709.915	0.03
710.096	-0
710.277	-0.03
710.458	-0.02
710.639	0.01
710.819	-0.12
711	0.01
711.181	0.11
711.362	0.02
711.542	0.06
711.723	-0.08
711.904	0.11
712.085	0.05
712.265	0.05
712.446	-0.04
712.627	-0
712.807	0.05
712.988	0.06
713.168	-0.05
713.349	0.07
713.53	-0.11
713.71	-0.05
713.891	-0.05
714.071	0.06
714.252	-0.03
714.432	-0.08
714.613	-0.02
714.793	0
714.974	0.11
715.154	0.05
715.334	-0.01
715.515	0.09
715.695	0.02
715.876	0.04
716.056	-0.02
716.236	-0.04
716.417	-0
716.597	-0
716.777	0.12
716.957	0.01
717.138	0
717.318	-0.02
717.498	-0.11
717.678	0.02
717.859	0.03
718.039	-0.13
718.219	0.04
718.399	0.07
718.579	-0.12
718.759	-0.02
718.939	-0.01
719.12	0.04
719.3	-0.02
719.48	-0.21
719.66	-0.12
719.84	0.08
720.02	-0.01
720.2	0.01
720.38	0.03
720.56	0.08
720.74	-0
720.92	0.03
721.1	0.16
721.279	0.07
721.459	-0.03
721.639	-0.04
721.819	0.03
721.999	-0.06
722.179	0.04
722.359	-0.09
722.538	0.08
722.718	0.07
722.898	0.01
723.078	0.05
723.257	-0.11
723.437	0.03
723.617	0.05
723.797	-0.03
723.976	0.05
724.156	0.03
724.336	0.14
724.515	0.14
724.695	-0.07
724.874	0.05
725.054	0.12
725.234	-0.04
725.413	0.08
725.593	-0.02
725.772	0.01
725.952	-0.05
726.131	0.06
726.311	0.03
726.49	-0.03
726.67	-0.04
726.849	-0.06
727.028	0.01
727.208	-0.06
727.387	-0.01
727.567	-0.02
727.746	0.01
727.925	-0.03
728.105	-0.09
728.284	-0.05
728.463	-0.04
728.643	-0.01
728.822	-0.13
729.001	-0.07
729.18	0.01
729.359	0.05
729.539	-0.03
729.718	-0.03
729.897	0.08
730.076	-0.03
730.255	-0.14
730.434	0.01
730.614	0.03
730.793	0.06
730.972	-0.04
731.151	0.03
731.33	0.06
731.509	0.12
731.688	0.01
731.867	0.08
732.046	-0.11
732.225	0.29
732.404	-0.08
732.583	-0.07
732.762	-0.01
732.941	0.06
733.12	0.1
733.298	-0.02
733.477	0.09
733.656	-0
733.835	-0.06
734.014	0.12
734.193	-0.01
734.371	0
734.55	0.03
734.729	-0.11
734.908	0.1
735.086	0.08
735.265	0.09
735.444	-0.15
735.623	-0.12
735.801	-0.07
735.98	0.06
736.159	0.01
736.337	0.08
736.516	0.13
736.694	-0.01
736.873	-0.03
737.052	0.09
737.23	0.13
737.409	-0.06
737.587	0.19
737.766	-0.19
737.944	-0.08
738.123	0.02
738.301	0.13
738.479	0.01
738.658	0.07
738.836	-0.13
739.015	0.04
739.193	0.11
739.371	-0.1
739.55	-0.11
739.728	-0.12
739.906	0.13
740.085	0.2
740.263	0.03
740.441	-0.19
740.62	0.19
740.798	0.1
740.976	-0.04
741.154	-0.08
741.332	0.13
741.511	-0.08
741.689	0.12
741.867	0.14
742.045	0.03
742.223	0.08
742.401	-0.04
742.579	-0.02
742.757	0.11
742.935	-0.19
743.114	0.01
743.292	-0.02
743.47	0.11
743.648	0.01
743.826	0.11
744.004	0.04
744.181	0.09
744.359	-0.06
744.537	0.06
744.715	-0
744.893	-0.06
745.071	0.04
745.249	0.04
745.427	-0.08
745.605	0.06
745.782	0.04
745.96	0.15
746.138	-0.06
746.316	0.14
746.493	-0.04
746.671	-0.11
746.849	-0.05
747.027	0.11
747.204	-0.1
747.382	0.06
747.56	-0.09
747.737	0.02
747.915	0.02
748.093	0
748.27	-0.21
748.448	-0.01
748.625	-0.01
748.803	-0.09
748.98	0.06
749.158	0.02
749.335	0.08
749.513	-0.01
749.69	0.03
749.868	0.1
750.045	0.09
750.223	0.02
750.4	-0.16
750.578	0.15
750.755	-0.09
750.932	-0.15
751.11	0.13
751.287	-0.14
751.464	0.18
751.642	-0.05
751.819	0.01
751.996	0.06
752.173	-0.1
752.351	-0.07
752.528	0.09
752.705	-0.02
752.882	-0.08
753.06	0.12
753.237	0.12
753.414	0.09
753.591	0.18
753.768	0.06
753.945	-0.01
754.122	0.07
754.299	0.09
754.476	-0.15
754.654	0
754.831	0.1
755.008	0.08
755.185	-0.13
755.362	-0.14
755.539	0.09
755.716	-0.08
755.892	0
756.069	0.01
756.246	0.07
756.423	-0.01
756.6	0.14
756.777	-0.02
756.954	0.19
757.131	0.01
757.307	-0.16
757.484	-0.11
757.661	0.07
757.838	0.07
758.015	-0.12
758.191	0.02
758.368	-0.01
758.545	0.17
758.721	0.14
758.898	-0.13
759.075	0.07
759.251	0.17
759.428	0.05
759.605	-0.17
759.781	-0.01
759.958	0.04
760.134	0.02
760.311	-0.07
760.488	0.08
760.664	0.22
760.841	0.12
761.017	-0.12
761.194	-0.03
761.37	0.07
761.547	0.08
761.723	-0.05
761.899	0.11
762.076	-0.05
762.252	-0.07
762.429	-0.04
762.605	0.14
762.781	-0.05
762.958	0.12
763.134	-0.03
763.31	0.01
763.486	0.18
763.663	-0.08
763.839	0.14
764.015	-0.23
764.191	-0.13
764.368	0.06
764.544	0.06
764.72	0.19
764.896	0.14
765.072	0.16
765.248	-0.06
765.425	-0.02
765.601	0.08
765.777	-0
765.953	-0.22
766.129	-0.01
766.305	-0.08
766.481	0.15
766.657	-0.07
766.833	0.21
767.009	-0.03
767.185	-0.02
767.361	-0.04
767.537	-0.27
767.713	0.15
767.889	-0.08
768.065	-0.04
768.24	0.05
768.416	0.1
768.592	-0.04
768.768	0.01
768.944	0.12
769.12	-0.03
769.295	-0.1
769.471	0.12
769.647	-0
769.823	0.16
769.998	0.06
770.174	-0.15
770.35	0.45
770.525	0.34
770.701	0.18
770.877	-0.05
771.052	-0.17
771.228	0.1
771.403	-0
771.579	0.15
771.755	0.38
771.93	-0.17
772.106	-0.26
772.281	-0.19
772.457	-0.05
772.632	0.18
772.808	-0.06
772.983	-0.11
773.159	-0.19
773.334	0.23
773.509	0.09
773.685	-0.04
773.86	0.4
774.036	0.21
774.211	0.07
774.386	0.07
774.562	0.14
774.737	0.1
774.912	-0.1
775.087	0.17
775.263	0.06
775.438	0.06
775.613	-0.01
775.788	0.03
775.964	0.09
776.139	0.44
776.314	-0.04
776.489	0.07
776.664	0.02
776.839	-0.25
777.014	0.19
777.19	0.1
777.365	0.18
777.54	0.22
777.715	-0.12
777.89	0.05
778.065	0.02
778.24	0.05
778.415	0.11
778.59	-0.04
778.765	0.05
778.94	0.08
779.115	-0.1
779.289	0.11
779.464	-0.1
779.639	0.07
779.814	-0.16
779.989	-0.15
780.164	0.29
780.339	0.04
780.513	-0.01
780.688	-0.09
780.863	-0.05
781.038	0.24
781.212	-0.09
781.387	0.01
781.562	0.38
781.737	-0
781.911	0.24
782.086	0.06
782.261	0.16
782.435	0.29
782.61	0.1
782.784	0.15
782.959	0.19
783.134	0.1
783.308	-0.25
783.483	0.1
783.657	0.39
783.832	0.31
784.006	-0.27
784.181	-0.1
784.355	0.29
784.53	-0.22
784.704	-0.04
784.878	0.27
785.053	0.22
785.227	0.17
785.402	0.26
785.576	-0.09
785.75	0.08
785.925	-0.02
786.099	0.1
786.273	0.07
786.448	0.19
786.622	0.15
786.796	-0.01
786.97	-0.01
787.145	0.23
787.319	-0.24
787.493	-0.26
787.667	-0.41
787.841	-0.13
788.015	0.19
788.19	-0.07
788.364	0
788.538	0.14
788.712	0.16
788.886	-0.12
789.06	0.12
789.234	0.06
789.408	-0.14
789.582	-0.18
789.756	-0.07
789.93	-0.09
790.104	-0.14
790.278	-0.08
790.452	-0.21
790.626	0.21
790.8	-0.04
790.973	0.09
791.147	0.26
791.321	0.25
791.495	0.39
791.669	0.11
791.843	0.11
792.016	0.29
792.19	0.24
792.364	-0.22
792.538	0.51
792.711	0.28
792.885	-0.07
793.059	-0.17
793.233	-0.36
793.406	0.31
793.58	0.14
793.754	0.14
793.927	0.06
794.101	0.24
794.274	-0.06
794.448	0.41
794.622	-0.16
794.795	0.18
794.969	-0.08
795.142	0.52
795.316	-0.04
795.489	-0.1
795.663	0.4
795.836	-0.14
796.009	-0.18
796.183	0.49
796.356	0
796.53	0.22
796.703	-0.17
796.876	0.44
797.05	-0.21
797.223	-0.01
797.396	0.02
797.57	-0.17
797.743	0.38
797.916	0.18
798.09	0.11
798.263	0.51
798.436	0.01
798.609	0
798.782	0.03
798.956	0.29
799.129	0.07
799.302	-0.31
799.475	-0.03
799.648	0.02
799.821	0.03
799.994	0.01
800.167	-0.57
800.34	-0.15
800.514	0.03
800.687	0.21
800.86	0.13
801.033	0.03
801.206	0.15
801.379	-0.26
801.551	0.13
801.724	-0.03
801.897	-0.01
802.07	-0.19
802.243	-0.43
802.416	0.03
802.589	-0.21
802.762	-0.01
802.935	0.01
803.107	0.2
803.28	0.35
803.453	0.19
803.626	-0.13
803.798	0.21
803.971	-0.35
804.144	0.28
804.317	0.15
804.489	0.37
804.662	0.12
804.835	0.28
805.007	-0.47
805.18	0.41
805.353	0.48
805.525	-0.48
805.698	-0.24
805.87	0.43
806.043	0.38
806.215	-0.03
806.388	-0.49
806.56	0.09
806.733	0.33
806.905	0.15
807.078	-0.08
807.25	0.01
807.423	0.4
807.595	0.2
807.768	-0.06
807.94	0.61
808.112	0.32
808.285	0.03
808.457	-0.18
808.629	0.01
808.802	0.39
808.974	-0.11
809.146	0
809.318	0.03
809.491	-0.01
809.663	0.23
809.835	-0.28
810.007	0.02
810.18	0
810.352	-0.06
810.524	-0.29
810.696	0.12
810.868	0.45
811.04	-0.1
811.212	-0.08
811.384	0.39
811.556	0.24
811.728	0.24
811.901	0.42
812.073	-0.27
812.245	0.72
812.417	0.03
812.589	-0.46
812.76	0.01
812.932	0.48
813.104	0.13
813.276	-0.17
813.448	0.81
813.62	-0.22
813.792	0.12
813.964	0.24
814.136	0.08
814.307	0.13
814.479	-0.18
814.651	-0.03
814.823	0.9
814.995	-0.14
815.166	0.12
815.338	-0.27
815.51	-0.5
815.681	0.98
815.853	-0.26
816.025	-0.03
816.196	0.48
816.368	0.42
816.54	-0.37
816.711	-0.1
816.883	-0.07
817.054	1.2
817.226	-0.44
817.398	0.28
817.569	-0.29
817.741	-0.07
817.912	-0.08
818.084	0.3
818.255	0.08
818.426	-0.4
818.598	-0.11
818.769	-0.43
818.941	0.41
819.112	0.54
819.283	0.19
819.455	-0.11
819.626	0.12
819.798	0.1
819.969	0.2
820.14	-0.09
820.311	-0.03
820.483	0.1
820.654	-0.19
820.825	0.33
820.996	0.18
821.168	-0.15
821.339	0
821.51	-0.48
821.681	-0.29
821.852	-0.06
822.023	-0.64
822.195	-0.31
822.366	0.43
822.537	0.14
822.708	0.28
822.879	-0.39
823.05	0.67
823.221	-0.02
823.392	0.76
823.563	0.28
823.734	0.51
823.905	-0.22
824.076	-0.1
824.247	-0.64
824.418	-0.31
824.589	0.99
824.759	-0.26
824.93	0.14
825.101	-0.98
825.272	0.64
825.443	0.97
825.614	0.7
825.784	-0.82
825.955	1.45
826.126	0.29
826.297	-0.13
826.467	0.35
826.638	1.3
826.809	-0.48
826.98	0.12
827.15	0.2
827.321	0.18
827.492	0.3
827.662	-0
827.833	1.04
828.003	0.7
828.174	-0.61
828.345	-0.7
828.515	0.82
828.686	0.17
828.856	0.03
829.027	0.15
829.197	0.34
829.368	0.53
829.538	0.05
829.709	-0.96
829.879	0.08
830.049	-0.3
830.22	-0.58
830.39	-0.07
830.56	1.32
830.731	0
830.901	-0.31
831.072	-0.27
831.242	0.63
831.412	0.66
831.582	-0.12
831.753	-1.03
831.923	0.7
832.093	0.14
832.263	-0.26
832.434	-0.61
832.604	-0.28
832.774	0.39
832.944	-0.31
833.114	-0.52
833.284	0.31
833.454	-0.02
833.624	0.05
833.795	-0.08
833.965	0.48
834.135	1.19
834.305	-1.45
834.475	-0.37
834.645	0.05
834.815	0.18
834.985	-0.66
835.155	-0.81
835.325	0.11
835.494	0.29
835.664	-0.06
835.834	-0.6
836.004	0.24
836.174	-0.05
836.344	-0.07
836.514	-0.95
836.684	0.08
836.853	-0.03
837.023	0.28
837.193	-0.25
837.363	0.99
837.532	1.09
837.702	-0.08
837.872	0.06
838.041	0.79
838.211	1.65
838.381	-0.6
838.55	-0.06
838.72	2.16
838.89	1.59
839.059	-0.07
839.229	-0.18
839.398	1.08
839.568	0.04
839.738	-0.17
839.907	0.95
840.077	0.11
840.246	-0.62
840.416	-1.25
840.585	-0.98
840.755	1.08
840.924	0.56
841.093	-0.58
841.263	-0.6
841.432	0.7
841.602	-0.58
841.771	-0.93
841.94	0.25
842.11	1.8
842.279	1.21
842.448	-0.79
842.617	0.08
842.787	1.05
842.956	-1.21
843.125	0.06
843.294	-0.22
843.464	1
843.633	0.25
843.802	-0.64
843.971	-0.28
844.14	1.05
844.309	0.54
844.479	-0.93
844.648	-0.98
844.817	-0.39
844.986	-0.25
845.155	-0.07
845.324	-0.55
845.493	-0.19
845.662	-0.61
845.831	0.03
846	0.51
846.169	-0.66
846.338	1.27
846.507	0.37
846.676	0.04
846.844	-0.66
847.013	0.01
847.182	-0.11
847.351	-0.3
847.52	0.09
847.689	-0.11
847.858	-0.51
848.026	-0.55
848.195	0.05
848.364	0.05
848.533	-0.21
848.701	-0.39
848.87	0.16
849.039	1.8
849.207	0.37
849.376	1.46
849.545	1.12
849.713	-0.68
849.882	-0.08
850.051	-0.06
850.219	0.44
850.388	0.49
850.556	-0.47
850.725	-0.47
850.893	0.49
851.062	-0.67
851.23	0.95
851.399	-1.54
851.567	-0.27
851.736	-0.55
851.904	-0.7
852.073	0.72
852.241	0.51
852.41	-1.26
852.578	0.15
852.746	-0.39
852.915	1.47
853.083	0.6
853.251	-1.07
853.42	-0.04
853.588	0.62
853.756	1.43
853.924	-0.04
854.093	0.46
854.261	-0.08
854.429	-1.36
854.597	0.37
854.765	-0.64
854.934	1.22
855.102	0.66
855.27	0.21
855.438	0.4
855.606	1.09
855.774	1.17
855.942	-1.72
856.11	-1.14
856.278	-0.25
856.446	2.27
856.614	0.43
856.782	-1.38
856.95	1.11
857.118	0.26
857.286	0.95
857.454	-0.72
857.622	1.59
857.79	0.58
857.958	-0.96
858.126	-0.4
858.294	-1.04
858.462	-0.89
858.629	-0.34
858.797	-0.44
858.965	1.14
859.133	-0.41
859.301	0.05
859.468	1.42
859.636	-0.73
859.804	2.41
859.971	0.58
860.139	-0.29
860.307	1.94
860.474	0.64
860.642	-0.69
860.81	-0.57
860.977	-0.3
861.145	0.4
861.313	0.64
861.48	-0.2
861.648	0.45
861.815	0.14
861.983	-2.09
862.15	-0.53
862.318	1.77
862.485	1.17
862.653	-1.12
862.82	-0.92
862.988	0.97
863.155	1.76
863.322	-2.24
863.49	-0.81
863.657	-0.19
863.824	2.23
863.992	0.02
864.159	-0.12
864.326	1.95
864.494	-0.25
864.661	3
864.828	-1.54
864.996	1.12
865.163	1.99
865.33	-1.09
865.497	-3.36
865.664	-0.4
865.832	-1.29
865.999	-0.87
866.166	-1.86
866.333	-0.85
866.5	-0.16
866.667	-1.5
866.834	-0.75
867.001	1.61
867.168	-2.02
867.335	-0.65
867.502	-1.69
867.669	-0.15
867.836	3.71
868.003	-0.8
868.17	0.98
868.337	2.92
868.504	3.54
868.671	-1.32
868.838	-0.23
869.005	0.57
869.172	1.56
869.339	-0.25
869.505	0.3
869.672	0.26
869.839	2.22
870.006	0.81
870.173	-1.57
870.339	1.37
870.506	1.58
870.673	0.07
870.84	0.62
871.006	1.1
871.173	0.08
871.34	-0.01
871.506	-0.56
871.673	1.16
871.839	-0.96
872.006	0.95
872.173	0.04
872.339	0.83
872.506	1.81
872.672	0.39
872.839	-0.6
873.005	0.4
873.172	4.22
873.338	1.45
873.505	-0.3
873.671	0.09
873.838	0.9
874.004	-1.03
874.171	-1.47
874.337	1.15
874.503	2.19
874.67	-0.55
874.836	-0.14
875.002	1.78
875.169	1.48
875.335	-0.78
875.501	-0.93
875.668	0.81
875.834	1.03
876	-0.64
876.166	0.97
876.332	2.09
876.499	2.98
876.665	0
876.831	-0.96
876.997	3.22
877.163	2.15
877.329	-1.55
877.495	0.28
877.662	-0.84
877.828	1.39
877.994	-0.75
878.16	-2.64
878.326	-2.08
878.492	1.37
878.658	-0.61
878.824	-0.37
878.99	-0.67
879.156	-0.8
879.322	2.5
879.487	0.34
879.653	2.36
879.819	-0.2
879.985	-0.91
880.151	-0.71
880.317	0.66
880.483	0.9
880.648	1.8
880.814	-2.5
880.98	0.77
881.146	-3.49
881.312	-1.83
881.477	0
881.643	1.68
881.809	1.66
881.974	2.26
882.14	-1.35
882.306	-0.51
882.471	3.85
882.637	-2.04
882.803	1.26
882.968	2.27
883.134	2.86
883.299	0.12
883.465	0.26
883.63	1.05
883.796	2.67
883.961	0.51
884.127	2.12
884.292	-3.69
884.458	-2.43
884.623	-2.43
