Data from Apollo_Calib_20240827__AbsoluteIrradiance__435__06-24-02-171.txt Node

Date: Wed Aug 28 06:24:02 BST 2024
User: biology
Spectrometer: FLMT08252
Trigger mode: 0
Integration Time (sec): 5.000000E-1
Scans to average: 5
Electric dark correction enabled: true
Nonlinearity correction enabled: false
Boxcar width: 0
XAxis mode: Wavelengths
Number of Pixels in Spectrum: 3648
>>>>>Begin Spectral Data<<<<<
179.588	-0
179.809	-0
180.03	-0
180.251	-0
180.473	-0
180.694	0
180.915	0
181.136	-0
181.357	0
181.578	-0
181.799	-0
182.02	-0
182.241	-0
182.462	-0
182.683	0
182.904	-0
183.125	-0
183.346	0
183.567	0
183.788	0
184.009	0
184.23	0
184.451	0
184.672	0
184.892	0
185.113	0
185.334	0
185.555	0
185.776	0
185.996	0
186.217	0
186.438	0
186.659	0
186.879	0
187.1	0
187.321	0
187.541	0
187.762	0
187.983	0
188.203	0
188.424	0
188.644	0
188.865	0
189.086	0
189.306	0
189.527	0
189.747	0
189.968	0
190.188	0
190.409	0
190.629	0
190.849	0
191.07	0
191.29	0
191.511	0
191.731	0
191.951	0
192.172	0
192.392	0
192.612	0
192.833	0
193.053	0
193.273	0
193.493	0
193.714	0
193.934	0
194.154	0
194.374	0
194.594	0
194.815	0
195.035	0
195.255	0
195.475	0
195.695	0
195.915	0
196.135	0
196.355	0
196.575	0
196.795	0
197.015	0
197.235	0
197.455	0
197.675	0
197.895	0
198.115	0
198.335	0
198.555	0
198.775	0
198.995	0
199.214	0
199.434	0
199.654	0
199.874	0
200.094	0.02
200.313	0.86
200.533	0.99
200.753	1.03
200.973	1.83
201.192	1.73
201.412	0.37
201.632	1.08
201.851	1.6
202.071	0.83
202.291	0.68
202.51	-0.03
202.73	1.15
202.95	0.84
203.169	0.31
203.389	0.72
203.608	0.84
203.828	0.59
204.047	0.37
204.267	1.14
204.486	1.08
204.706	0.82
204.925	0.77
205.145	0.54
205.364	1.36
205.583	1.4
205.803	0.81
206.022	0.26
206.242	0.58
206.461	0.65
206.68	0.32
206.9	1.12
207.119	1.22
207.338	1.23
207.557	0.9
207.777	0.58
207.996	0.57
208.215	1.11
208.434	0.25
208.654	0.12
208.873	0.65
209.092	1.04
209.311	0.58
209.53	0.61
209.749	0.59
209.968	0.35
210.187	0.44
210.407	-0.04
210.626	0.59
210.845	0.92
211.064	0.68
211.283	0.41
211.502	0.92
211.721	0.47
211.94	0.43
212.159	0.97
212.377	0.83
212.596	0.93
212.815	0.49
213.034	0.64
213.253	0.77
213.472	0.69
213.691	0.27
213.91	0.32
214.128	0.55
214.347	0.71
214.566	0.06
214.785	0.09
215.003	0.37
215.222	0.52
215.441	0.27
215.66	-0.05
215.878	0.29
216.097	0.69
216.316	0.14
216.534	0.43
216.753	0.38
216.972	0.54
217.19	0.45
217.409	0.15
217.627	0.3
217.846	0.35
218.064	0.51
218.283	0.06
218.501	0.83
218.72	0.64
218.938	0.15
219.157	0.2
219.375	0.46
219.594	0.44
219.812	0.09
220.031	0.19
220.249	0.52
220.467	0.62
220.686	0.33
220.904	0.26
221.122	0.24
221.341	0.63
221.559	0.33
221.777	0.26
221.995	0.35
222.214	0.3
222.432	0.29
222.65	0.47
222.868	0.26
223.086	0.5
223.305	0.46
223.523	0.16
223.741	0.55
223.959	0.21
224.177	-0.08
224.395	0.21
224.613	0.31
224.831	0.22
225.049	0.24
225.267	0.22
225.485	0.36
225.703	0.14
225.921	0.36
226.139	0.26
226.357	0.27
226.575	0.35
226.793	0.16
227.011	0.73
227.229	0.33
227.447	0.43
227.665	0.06
227.883	0.1
228.1	0.32
228.318	0.33
228.536	0.03
228.754	0.22
228.972	0.19
229.189	0.27
229.407	0.23
229.625	0.13
229.843	0.42
230.06	0.24
230.278	0.14
230.496	0.27
230.713	0.34
230.931	0.45
231.149	0.09
231.366	0.04
231.584	0.25
231.801	0.61
232.019	0.19
232.236	0.04
232.454	0.06
232.671	0.29
232.889	0.29
233.106	0.11
233.324	0.31
233.541	0.25
233.759	0.21
233.976	0.13
234.194	0.29
234.411	0.17
234.628	0.11
234.846	0.13
235.063	0.25
235.28	0.14
235.498	0.25
235.715	0.04
235.932	0.36
236.149	0.21
236.367	0.12
236.584	0.26
236.801	0.18
237.018	0.42
237.236	0.25
237.453	0.14
237.67	0.36
237.887	0.19
238.104	0.16
238.321	0
238.538	0.16
238.755	0.3
238.973	-0.02
239.19	0.28
239.407	0.31
239.624	0.31
239.841	-0.02
240.058	0.12
240.275	0.19
240.492	0.19
240.709	0.18
240.925	0.17
241.142	0.18
241.359	0.11
241.576	0.05
241.793	0.2
242.01	0.21
242.227	0.25
242.444	0.15
242.66	0.29
242.877	0.22
243.094	0.18
243.311	0.17
243.527	0.17
243.744	0.31
243.961	0.25
244.178	0.09
244.394	0.17
244.611	0.34
244.828	0.36
245.044	0.21
245.261	0.18
245.477	0.29
245.694	0.26
245.911	0.09
246.127	0.23
246.344	0.32
246.56	0.23
246.777	0.19
246.993	0.21
247.21	0.24
247.426	0.22
247.643	0.17
247.859	0.1
248.076	0.11
248.292	0.44
248.508	0.07
248.725	0.18
248.941	0.2
249.157	0.26
249.374	0.13
249.59	0.2
249.806	0.19
250.023	0.3
250.239	0.11
250.455	0.09
250.671	0.17
250.888	0.14
251.104	0.23
251.32	0.08
251.536	0.12
251.752	0.17
251.969	0.23
252.185	0.17
252.401	0.33
252.617	0.31
252.833	0.13
253.049	0.14
253.265	0.26
253.481	0.23
253.697	0.16
253.913	0.17
254.129	0.12
254.345	0.21
254.561	0.2
254.777	0.1
254.993	0.21
255.209	0.21
255.425	0.18
255.641	0.03
255.857	0.23
256.073	0.13
256.288	0.04
256.504	0.1
256.72	0.12
256.936	0.32
257.152	0.12
257.367	0.09
257.583	0.21
257.799	0.22
258.015	0.11
258.23	0.13
258.446	0.33
258.662	0.17
258.877	0.16
259.093	0.1
259.309	0.2
259.524	0.21
259.74	0.15
259.955	0.04
260.171	0.15
260.387	0.15
260.602	0.23
260.818	0.19
261.033	0.11
261.249	0.12
261.464	0.06
261.68	0.11
261.895	0.11
262.11	0.17
262.326	0.16
262.541	0.07
262.757	0.16
262.972	0.25
263.187	0.21
263.403	0.1
263.618	0.18
263.833	0.17
264.049	0.05
264.264	0.11
264.479	0.23
264.694	0.24
264.91	0.1
265.125	0.08
265.34	0.25
265.555	0.34
265.77	0.15
265.986	0.12
266.201	0.23
266.416	0.23
266.631	0.05
266.846	0.15
267.061	0.16
267.276	0.22
267.491	0.04
267.706	0.17
267.921	0.2
268.136	0.13
268.351	0.14
268.566	0.04
268.781	0.23
268.996	0.18
269.211	0.18
269.426	0.08
269.641	0.13
269.856	0.21
270.071	0.16
270.285	0.11
270.5	0.19
270.715	0.16
270.93	0.14
271.145	0.14
271.359	0.2
271.574	0.1
271.789	0.11
272.004	0.06
272.218	0.11
272.433	0.17
272.648	0.06
272.862	0.2
273.077	0.13
273.292	0.14
273.506	0.09
273.721	0.11
273.936	0.21
274.15	0.22
274.365	0.12
274.579	0.2
274.794	0.17
275.008	0.23
275.223	0.03
275.437	0.13
275.652	0.22
275.866	0.15
276.081	0.16
276.295	0.2
276.509	0.16
276.724	0.11
276.938	0.13
277.153	0.15
277.367	0.14
277.581	0.1
277.796	0.14
278.01	0.09
278.224	0.18
278.438	0.35
278.653	0.06
278.867	0.17
279.081	0.01
279.295	0.14
279.51	0.15
279.724	0.05
279.938	0.15
280.152	0.2
280.366	0.14
280.58	0.17
280.794	0.24
281.008	0.16
281.222	0.18
281.437	0.25
281.651	0.18
281.865	0.2
282.079	0.11
282.293	0.06
282.507	0.03
282.721	0.1
282.935	0.13
283.148	0.07
283.362	0.08
283.576	0.1
283.79	0.19
284.004	0.11
284.218	0.16
284.432	0.08
284.646	0.12
284.859	0.13
285.073	0.1
285.287	0.2
285.501	0.11
285.714	0.13
285.928	0.18
286.142	0.12
286.356	0.13
286.569	0.08
286.783	0.2
286.997	0.19
287.21	0.17
287.424	0.18
287.637	0.07
287.851	0.1
288.065	0.12
288.278	0.17
288.492	0.11
288.705	0.12
288.919	0.16
289.132	0.06
289.346	0.15
289.559	0.06
289.773	0.1
289.986	0.09
290.2	0.19
290.413	0.15
290.626	0.06
290.84	0.08
291.053	0.07
291.267	0.21
291.48	0.14
291.693	0.11
291.906	0.12
292.12	0.12
292.333	0.08
292.546	0.08
292.76	0.2
292.973	0.16
293.186	0.17
293.399	0.07
293.612	0.15
293.826	0.13
294.039	0.11
294.252	0.07
294.465	0.2
294.678	0.14
294.891	0.13
295.104	0.1
295.317	0.08
295.53	0.1
295.743	0.07
295.956	0.08
296.169	0.13
296.382	0.13
296.595	0.14
296.808	0.06
297.021	0.16
297.234	0.14
297.447	0.1
297.66	0.13
297.873	0.14
298.086	0.13
298.299	0.07
298.511	0.08
298.724	0.09
298.937	0.03
299.15	0.06
299.363	0.12
299.575	0.13
299.788	0.18
300.001	0.06
300.213	0.03
300.426	0.07
300.639	0.07
300.852	0.1
301.064	0.13
301.277	0.2
301.489	0.18
301.702	0.12
301.915	0.12
302.127	0.11
302.34	0.13
302.552	0.15
302.765	0.05
302.977	0.17
303.19	0.06
303.402	0.09
303.615	0.11
303.827	0.06
304.04	0.09
304.252	0.13
304.464	0.09
304.677	0.19
304.889	0.18
305.102	0.11
305.314	0.05
305.526	0.15
305.739	0.12
305.951	0.12
306.163	0.16
306.375	0.2
306.588	0.05
306.8	0.03
307.012	0.07
307.224	0.11
307.436	0.16
307.649	0.06
307.861	0.12
308.073	0.15
308.285	0.14
308.497	0.04
308.709	0.09
308.921	0.12
309.133	0.18
309.346	0.11
309.558	0.08
309.77	0.14
309.982	0.17
310.194	0.14
310.406	0.08
310.617	0.22
310.829	0.11
311.041	0.17
311.253	0.07
311.465	0.12
311.677	0.14
311.889	0.12
312.101	0.08
312.313	0.18
312.524	0.16
312.736	0.03
312.948	0.03
313.16	0.21
313.372	0.15
313.583	0.14
313.795	0.11
314.007	0.09
314.218	0.14
314.43	0.06
314.642	0.08
314.853	0.06
315.065	0.16
315.277	0.11
315.488	0.08
315.7	0.13
315.912	0.12
316.123	0.12
316.335	0.08
316.546	0.2
316.758	0.08
316.969	0.11
317.181	0.12
317.392	0.08
317.604	0.12
317.815	0.07
318.026	0.09
318.238	0.12
318.449	0.16
318.661	0.02
318.872	0.07
319.083	0.06
319.295	0.17
319.506	0.09
319.717	0.12
319.929	0.11
320.14	0.08
320.351	0.11
320.562	0.07
320.774	0.12
320.985	0.1
321.196	0.06
321.407	0.08
321.618	0.12
321.829	0.08
322.041	0.15
322.252	0.1
322.463	0.13
322.674	0.13
322.885	0.06
323.096	0.1
323.307	0.1
323.518	0.12
323.729	0.08
323.94	0.07
324.151	0.06
324.362	0.12
324.573	0.15
324.784	0.08
324.995	0.19
325.206	0.13
325.417	0.1
325.628	0.11
325.838	0.09
326.049	0.1
326.26	0.17
326.471	0.11
326.682	0.14
326.892	0.06
327.103	0.01
327.314	0.03
327.525	0.18
327.735	0.08
327.946	0.15
328.157	0.08
328.368	0.14
328.578	0.1
328.789	0.15
328.999	0.12
329.21	0.12
329.421	0.14
329.631	0.06
329.842	0.08
330.052	0.15
330.263	0.08
330.473	0.11
330.684	0.07
330.894	0.09
331.105	0.15
331.315	0.11
331.526	0.06
331.736	0.18
331.947	0.13
332.157	0.1
332.367	0.08
332.578	0.13
332.788	0.18
332.999	0.15
333.209	0.08
333.419	0.07
333.629	0.14
333.84	0.15
334.05	0.11
334.26	0.15
334.47	0.13
334.681	0.19
334.891	0.09
335.101	0.14
335.311	0.18
335.521	0.1
335.732	0.04
335.942	0.18
336.152	0.15
336.362	0.14
336.572	0.1
336.782	0.15
336.992	0.06
337.202	0.09
337.412	0.06
337.622	0.12
337.832	0.12
338.042	0.1
338.252	0.09
338.462	0.14
338.672	0.1
338.882	0.05
339.092	0.08
339.302	0.11
339.511	0.16
339.721	0.08
339.931	0.1
340.141	0.14
340.351	0.17
340.561	0.11
340.77	0.13
340.98	0.1
341.19	0.12
341.4	0.09
341.609	0.07
341.819	0.11
342.029	0.1
342.238	0.12
342.448	0.09
342.658	0.15
342.867	0.14
343.077	0.11
343.286	0.12
343.496	0.13
343.706	0.16
343.915	0.06
344.125	0.07
344.334	0.11
344.544	0.03
344.753	0.1
344.963	0.09
345.172	0.11
345.381	0.12
345.591	0.05
345.8	0.11
346.01	0.17
346.219	0.15
346.428	-0.01
346.638	0.08
346.847	0.11
347.056	0.18
347.266	0.05
347.475	0.1
347.684	0.12
347.893	0.12
348.103	0.13
348.312	0.09
348.521	0.08
348.73	0.1
348.94	0.14
349.149	0.14
349.358	0.09
349.567	0.07
349.776	0.08
349.985	0.07
350.194	0.14
350.403	0.15
350.612	0.05
350.821	0.1
351.03	0.11
351.239	0.06
351.448	0.13
351.657	0.06
351.866	0.19
352.075	0.09
352.284	0.13
352.493	0.05
352.702	0.13
352.911	0.08
353.12	0.09
353.329	0.09
353.538	0.1
353.746	0.13
353.955	0.09
354.164	0.12
354.373	0.11
354.582	0.1
354.79	0.12
354.999	0.14
355.208	0.12
355.416	0.14
355.625	0.05
355.834	0.12
356.042	0.09
356.251	0.09
356.46	0.06
356.668	0.14
356.877	0.2
357.085	0.14
357.294	0.04
357.503	0.1
357.711	0.07
357.92	0.22
358.128	0.11
358.337	0.07
358.545	0.1
358.754	0.04
358.962	0.13
359.17	0.06
359.379	0.14
359.587	0.13
359.796	0.09
360.004	0.14
360.212	0.13
360.421	0.16
360.629	0.1
360.837	0.09
361.046	0.19
361.254	0.15
361.462	0.12
361.67	0.08
361.879	0.11
362.087	0.13
362.295	0.09
362.503	0.08
362.711	0.05
362.92	0.07
363.128	0.07
363.336	0.06
363.544	0.08
363.752	0.09
363.96	0.08
364.168	0.11
364.376	0.1
364.584	0.08
364.792	0.17
365	0.12
365.208	0.11
365.416	0.12
365.624	0.14
365.832	0.08
366.04	0.13
366.248	0.13
366.456	0.09
366.664	0.14
366.872	0.1
367.079	0.12
367.287	0.09
367.495	0.07
367.703	0.1
367.911	0.1
368.118	0.06
368.326	0.1
368.534	0.08
368.742	0.17
368.949	0.02
369.157	0.09
369.365	0.14
369.572	0.09
369.78	0.04
369.988	0.19
370.195	0.16
370.403	0.12
370.61	0.11
370.818	0.13
371.026	0.19
371.233	0.08
371.441	0.14
371.648	0.08
371.856	0.13
372.063	0.1
372.271	0.07
372.478	0.09
372.685	0.1
372.893	0.15
373.1	0.11
373.308	0.07
373.515	0.15
373.722	0.15
373.93	0.12
374.137	0.13
374.344	0.22
374.552	0.12
374.759	0.13
374.966	0.07
375.173	0.12
375.381	0.19
375.588	0.09
375.795	0.05
376.002	0.09
376.209	0.09
376.417	0.12
376.624	0.1
376.831	0.16
377.038	0.1
377.245	0.02
377.452	0.06
377.659	0.13
377.866	0.1
378.073	0.11
378.28	0.09
378.487	0.12
378.694	0.16
378.901	0.06
379.108	0.13
379.315	0.19
379.522	0.19
379.729	0.13
379.936	0.06
380.143	0.14
380.35	0.08
380.557	0.15
380.763	0.14
380.97	0.1
381.177	0.13
381.384	0.14
381.591	0.06
381.797	0.11
382.004	0.14
382.211	0.15
382.418	0.11
382.624	0.16
382.831	0.14
383.038	0.05
383.244	0.12
383.451	0.09
383.658	0.14
383.864	0.07
384.071	0.09
384.277	0.18
384.484	0.08
384.69	0.18
384.897	0.1
385.103	0.09
385.31	0.08
385.516	0.11
385.723	0.07
385.929	0.11
386.136	0.05
386.342	0.13
386.549	0.12
386.755	0.19
386.961	0.12
387.168	0.11
387.374	0.17
387.58	0.19
387.787	0.09
387.993	0.09
388.199	0.1
388.406	0.04
388.612	0.14
388.818	0.09
389.024	0.11
389.231	0.17
389.437	0.16
389.643	0.14
389.849	0.1
390.055	0.13
390.261	0.16
390.467	0.14
390.674	0.1
390.88	0.12
391.086	0.12
391.292	0.08
391.498	0.19
391.704	0.16
391.91	0.1
392.116	0.08
392.322	0.02
392.528	0.15
392.734	0.1
392.94	0.1
393.146	0.08
393.352	0.12
393.557	0.12
393.763	0.11
393.969	0.17
394.175	0.12
394.381	0.14
394.587	0.07
394.792	0.13
394.998	0.21
395.204	0.2
395.41	0.13
395.615	0.17
395.821	0.15
396.027	0.16
396.233	0.06
396.438	0.18
396.644	0.2
396.85	0.14
397.055	0.1
397.261	0.15
397.466	0.1
397.672	0.11
397.878	0.17
398.083	0.12
398.289	0.08
398.494	0.16
398.7	0.15
398.905	0.09
399.111	0.16
399.316	0.08
399.522	0.14
399.727	0.13
399.932	0.16
400.138	0.08
400.343	0.2
400.549	0.15
400.754	0.14
400.959	0.13
401.165	0.14
401.37	0.14
401.575	0.25
401.78	0.1
401.986	0.07
402.191	0.12
402.396	0.13
402.601	0.17
402.807	0.14
403.012	0.13
403.217	0.2
403.422	0.15
403.627	0.11
403.832	0.15
404.037	0.17
404.243	0.13
404.448	0.11
404.653	0.16
404.858	0.15
405.063	0.17
405.268	0.14
405.473	0.1
405.678	0.08
405.883	0.25
406.088	0.16
406.293	0.1
406.498	0.14
406.703	0.18
406.907	0.14
407.112	0.14
407.317	0.18
407.522	0.23
407.727	0.08
407.932	0.16
408.136	0.23
408.341	0.13
408.546	0.17
408.751	0.14
408.956	0.16
409.16	0.19
409.365	0.14
409.57	0.16
409.774	0.18
409.979	0.19
410.184	0.17
410.388	0.11
410.593	0.2
410.798	0.19
411.002	0.1
411.207	0.17
411.411	0.19
411.616	0.16
411.82	0.17
412.025	0.17
412.229	0.14
412.434	0.24
412.638	0.14
412.843	0.16
413.047	0.19
413.252	0.13
413.456	0.15
413.66	0.18
413.865	0.14
414.069	0.22
414.273	0.13
414.478	0.11
414.682	0.13
414.886	0.13
415.091	0.13
415.295	0.07
415.499	0.21
415.703	0.16
415.908	0.14
416.112	0.05
416.316	0.21
416.52	0.16
416.724	0.1
416.929	0.13
417.133	0.28
417.337	0.14
417.541	0.16
417.745	0.17
417.949	0.19
418.153	0.19
418.357	0.15
418.561	0.23
418.765	0.21
418.969	0.26
419.173	0.23
419.377	0.15
419.581	0.23
419.785	0.13
419.989	0.1
420.193	0.12
420.397	0.18
420.601	0.18
420.804	0.21
421.008	0.15
421.212	0.19
421.416	0.21
421.62	0.14
421.823	0.18
422.027	0.23
422.231	0.2
422.435	0.17
422.638	0.21
422.842	0.11
423.046	0.12
423.249	0.2
423.453	0.2
423.657	0.21
423.86	0.11
424.064	0.2
424.268	0.25
424.471	0.2
424.675	0.24
424.878	0.25
425.082	0.18
425.285	0.17
425.489	0.17
425.692	0.18
425.896	0.13
426.099	0.17
426.303	0.15
426.506	0.1
426.71	0.24
426.913	0.23
427.116	0.22
427.32	0.24
427.523	0.14
427.726	0.26
427.93	0.13
428.133	0.23
428.336	0.14
428.54	0.18
428.743	0.2
428.946	0.23
429.149	0.17
429.353	0.17
429.556	0.23
429.759	0.17
429.962	0.15
430.165	0.21
430.368	0.18
430.571	0.22
430.775	0.2
430.978	0.16
431.181	0.19
431.384	0.2
431.587	0.15
431.79	0.22
431.993	0.22
432.196	0.17
432.399	0.19
432.602	0.22
432.805	0.2
433.008	0.18
433.211	0.11
433.414	0.19
433.616	0.25
433.819	0.16
434.022	0.08
434.225	0.28
434.428	0.21
434.631	0.3
434.833	0.19
435.036	0.22
435.239	0.23
435.442	0.15
435.645	0.15
435.847	0.22
436.05	0.27
436.253	0.21
436.455	0.17
436.658	0.16
436.861	0.24
437.063	0.16
437.266	0.21
437.468	0.21
437.671	0.38
437.874	0.21
438.076	0.11
438.279	0.13
438.481	0.21
438.684	0.14
438.886	0.23
439.089	0.11
439.291	0.21
439.494	0.21
439.696	0.19
439.899	0.21
440.101	0.22
440.303	0.1
440.506	0.24
440.708	0.21
440.91	0.23
441.113	0.16
441.315	0.25
441.517	0.19
441.72	0.24
441.922	0.2
442.124	0.18
442.326	0.2
442.529	0.28
442.731	0.17
442.933	0.28
443.135	0.25
443.337	0.2
443.539	0.22
443.742	0.23
443.944	0.25
444.146	0.2
444.348	0.2
444.55	0.18
444.752	0.23
444.954	0.19
445.156	0.21
445.358	0.16
445.56	0.26
445.762	0.21
445.964	0.2
446.166	0.22
446.368	0.22
446.57	0.29
446.772	0.24
446.974	0.19
447.175	0.22
447.377	0.19
447.579	0.17
447.781	0.16
447.983	0.3
448.184	0.2
448.386	0.19
448.588	0.17
448.79	0.26
448.991	0.2
449.193	0.22
449.395	0.22
449.597	0.24
449.798	0.26
450	0.28
450.202	0.18
450.403	0.19
450.605	0.26
450.806	0.23
451.008	0.16
451.21	0.17
451.411	0.26
451.613	0.2
451.814	0.23
452.016	0.25
452.217	0.23
452.419	0.25
452.62	0.26
452.821	0.28
453.023	0.29
453.224	0.3
453.426	0.24
453.627	0.22
453.828	0.23
454.03	0.24
454.231	0.28
454.432	0.21
454.634	0.35
454.835	0.18
455.036	0.18
455.238	0.3
455.439	0.37
455.64	0.22
455.841	0.26
456.042	0.37
456.244	0.28
456.445	0.23
456.646	0.21
456.847	0.2
457.048	0.32
457.249	0.33
457.45	0.55
457.651	0.21
457.852	0.36
458.054	0.31
458.255	0.27
458.456	0.26
458.657	0.31
458.858	0.22
459.058	0.31
459.259	0.35
459.46	0.3
459.661	0.28
459.862	0.38
460.063	0.27
460.264	0.33
460.465	0.28
460.666	0.4
460.866	0.3
461.067	0.3
461.268	0.32
461.469	0.28
461.67	0.32
461.87	0.29
462.071	0.28
462.272	0.26
462.473	0.32
462.673	0.34
462.874	0.3
463.075	0.3
463.275	0.25
463.476	0.36
463.676	0.37
463.877	0.34
464.078	0.3
464.278	0.36
464.479	0.42
464.679	0.39
464.88	0.31
465.08	0.4
465.281	0.32
465.481	0.3
465.682	0.33
465.882	0.4
466.083	0.41
466.283	0.38
466.483	0.37
466.684	0.29
466.884	0.31
467.085	0.34
467.285	0.45
467.485	0.34
467.686	0.41
467.886	0.34
468.086	0.4
468.286	0.41
468.487	0.44
468.687	0.36
468.887	0.38
469.087	0.45
469.287	0.41
469.488	0.36
469.688	0.47
469.888	0.48
470.088	0.48
470.288	0.53
470.488	0.49
470.688	0.41
470.888	0.43
471.088	0.4
471.288	0.5
471.488	0.48
471.688	0.52
471.888	0.47
472.088	0.54
472.288	0.5
472.488	0.46
472.688	0.45
472.888	0.52
473.088	0.55
473.288	0.58
473.488	0.52
473.688	0.65
473.887	0.58
474.087	0.61
474.287	0.61
474.487	0.58
474.687	0.66
474.886	0.63
475.086	0.63
475.286	0.65
475.486	0.66
475.685	0.64
475.885	0.63
476.085	0.64
476.284	0.69
476.484	0.71
476.684	0.73
476.883	0.84
477.083	0.76
477.282	0.7
477.482	0.84
477.681	0.79
477.881	0.75
478.08	0.76
478.28	0.75
478.479	0.84
478.679	0.93
478.878	0.86
479.078	0.81
479.277	0.88
479.477	0.89
479.676	0.9
479.875	0.92
480.075	0.85
480.274	0.94
480.473	1
480.673	0.95
480.872	1.06
481.071	1.05
481.271	1.09
481.47	1.08
481.669	1.06
481.868	1.04
482.067	1.09
482.267	1.04
482.466	1.13
482.665	1.13
482.864	1.1
483.063	1.19
483.262	1.27
483.461	1.3
483.661	1.32
483.86	1.31
484.059	1.34
484.258	1.37
484.457	1.39
484.656	1.42
484.855	1.52
485.054	1.36
485.253	1.43
485.452	1.47
485.651	1.57
485.849	1.54
486.048	1.54
486.247	1.6
486.446	1.65
486.645	1.67
486.844	1.73
487.043	1.74
487.241	1.76
487.44	1.82
487.639	1.84
487.838	1.87
488.037	1.86
488.235	2
488.434	2.03
488.633	1.91
488.831	2.09
489.03	2.11
489.229	2.13
489.427	2.19
489.626	2.22
489.825	2.27
490.023	2.29
490.222	2.31
490.42	2.36
490.619	2.46
490.817	2.47
491.016	2.48
491.214	2.58
491.413	2.63
491.611	2.62
491.81	2.64
492.008	2.7
492.207	2.85
492.405	2.86
492.604	2.84
492.802	2.94
493	3.03
493.199	3.04
493.397	3.12
493.595	3.16
493.794	3.17
493.992	3.37
494.19	3.35
494.388	3.48
494.587	3.4
494.785	3.53
494.983	3.41
495.181	3.68
495.379	3.77
495.578	3.83
495.776	3.83
495.974	3.86
496.172	3.95
496.37	4.14
496.568	4.19
496.766	4.21
496.964	4.35
497.162	4.36
497.36	4.45
497.558	4.55
497.756	4.61
497.954	4.66
498.152	4.83
498.35	4.93
498.548	4.92
498.746	5.02
498.944	5.04
499.142	5.14
499.34	5.28
499.538	5.53
499.736	5.4
499.933	5.52
500.131	5.59
500.329	5.89
500.527	5.93
500.725	6.07
500.922	6.12
501.12	6.24
501.318	6.4
501.516	6.4
501.713	6.64
501.911	6.59
502.109	6.66
502.306	6.92
502.504	6.81
502.701	7.04
502.899	7.17
503.097	7.47
503.294	7.36
503.492	7.67
503.689	7.83
503.887	7.82
504.084	7.96
504.282	8.04
504.479	8.12
504.677	8.36
504.874	8.43
505.072	8.33
505.269	8.81
505.466	8.94
505.664	9.02
505.861	8.96
506.059	9.29
506.256	9.29
506.453	9.57
506.651	9.74
506.848	9.89
507.045	9.89
507.242	10.02
507.44	10.22
507.637	10.38
507.834	10.38
508.031	10.75
508.229	10.66
508.426	10.64
508.623	11.09
508.82	11.29
509.017	11.28
509.214	11.35
509.411	11.63
509.608	11.66
509.805	11.99
510.003	12
510.2	12.17
510.397	12.43
510.594	12.3
510.791	12.67
510.988	12.68
511.184	12.67
511.381	12.44
511.578	13
511.775	13.28
511.972	13.17
512.169	13.49
512.366	13.47
512.563	13.74
512.76	14.02
512.956	13.98
513.153	14.03
513.35	13.91
513.547	14
513.744	14.31
513.94	14.46
514.137	14.6
514.334	14.61
514.53	14.79
514.727	15.24
514.924	14.9
515.12	15.07
515.317	15.17
515.514	14.93
515.71	14.95
515.907	15.5
516.103	15.47
516.3	15.28
516.497	15.6
516.693	15.65
516.89	15.64
517.086	15.79
517.283	15.79
517.479	15.46
517.676	15.98
517.872	16.09
518.068	16.02
518.265	15.88
518.461	15.85
518.658	16.09
518.854	16.02
519.05	16.24
519.247	16.3
519.443	16.12
519.639	16.28
519.836	16
520.032	15.82
520.228	16.23
520.424	15.92
520.621	16.05
520.817	16.21
521.013	15.94
521.209	16.25
521.405	16.12
521.601	15.97
521.798	15.87
521.994	15.71
522.19	15.62
522.386	15.73
522.582	15.79
522.778	15.99
522.974	15.65
523.17	15.58
523.366	15.4
523.562	15.41
523.758	15.39
523.954	15.05
524.15	15.26
524.346	15.19
524.542	15.12
524.738	14.99
524.934	15.11
525.129	14.94
525.325	14.68
525.521	14.52
525.717	14.85
525.913	14.3
526.109	14.34
526.304	14.47
526.5	14.22
526.696	14.21
526.892	13.94
527.087	14.29
527.283	13.97
527.479	13.71
527.674	13.4
527.87	13.56
528.066	13.48
528.261	13.25
528.457	12.96
528.653	13.21
528.848	13.04
529.044	12.93
529.239	12.62
529.435	12.5
529.63	12.38
529.826	12.26
530.021	12.13
530.217	12.12
530.412	11.95
530.608	11.95
530.803	11.81
530.999	11.49
531.194	11.58
531.389	11.54
531.585	11.41
531.78	11.39
531.975	11.19
532.171	11.1
532.366	10.96
532.561	10.87
532.757	10.68
532.952	10.75
533.147	10.3
533.342	10.45
533.538	10.19
533.733	10.38
533.928	9.8
534.123	9.87
534.318	9.92
534.513	9.59
534.709	9.76
534.904	9.64
535.099	9.57
535.294	9.46
535.489	9.32
535.684	9.19
535.879	9.12
536.074	9
536.269	8.99
536.464	8.84
536.659	8.66
536.854	8.6
537.049	8.63
537.244	8.5
537.439	8.36
537.634	8.29
537.828	8.28
538.023	8.07
538.218	7.97
538.413	7.82
538.608	7.78
538.803	7.73
538.997	7.63
539.192	7.59
539.387	7.45
539.582	7.44
539.776	7.24
539.971	7.33
540.166	7.21
540.36	7.05
540.555	7.15
540.75	6.97
540.944	6.91
541.139	6.81
541.334	6.73
541.528	6.66
541.723	6.67
541.917	6.57
542.112	6.33
542.306	6.31
542.501	6.24
542.695	6.2
542.89	6.08
543.084	6.07
543.279	6.02
543.473	5.98
543.668	5.93
543.862	5.72
544.056	5.65
544.251	5.75
544.445	5.71
544.64	5.63
544.834	5.34
545.028	5.18
545.222	5.38
545.417	5.42
545.611	5.33
545.805	5.19
546	5
546.194	5.07
546.388	5.05
546.582	4.95
546.776	4.83
546.97	4.77
547.165	4.74
547.359	4.66
547.553	4.59
547.747	4.61
547.941	4.65
548.135	4.47
548.329	4.44
548.523	4.41
548.717	4.3
548.911	4.24
549.105	4.19
549.299	4.21
549.493	4.18
549.687	4.02
549.881	4.06
550.075	3.98
550.269	3.88
550.463	3.91
550.657	3.81
550.85	3.77
551.044	3.71
551.238	3.69
551.432	3.57
551.626	3.56
551.82	3.53
552.013	3.46
552.207	3.48
552.401	3.46
552.594	3.32
552.788	3.28
552.982	3.26
553.176	3.16
553.369	3.22
553.563	3.2
553.756	3.12
553.95	3.07
554.144	3.04
554.337	3.06
554.531	2.87
554.724	2.97
554.918	2.88
555.111	2.81
555.305	2.83
555.498	2.78
555.692	2.77
555.885	2.7
556.079	2.67
556.272	2.62
556.466	2.62
556.659	2.57
556.852	2.53
557.046	2.44
557.239	2.43
557.432	2.41
557.626	2.39
557.819	2.38
558.012	2.39
558.206	2.37
558.399	2.3
558.592	2.27
558.785	2.17
558.979	2.2
559.172	2.16
559.365	2.13
559.558	2.13
559.751	2.03
559.944	2.06
560.138	2.05
560.331	2.01
560.524	1.98
560.717	1.96
560.91	1.9
561.103	1.93
561.296	1.85
561.489	1.83
561.682	1.87
561.875	1.86
562.068	1.83
562.261	1.76
562.454	1.8
562.647	1.67
562.84	1.69
563.032	1.69
563.225	1.65
563.418	1.66
563.611	1.63
563.804	1.6
563.997	1.53
564.19	1.48
564.382	1.56
564.575	1.47
564.768	1.49
564.961	1.5
565.153	1.43
565.346	1.46
565.539	1.48
565.731	1.46
565.924	1.4
566.117	1.46
566.309	1.35
566.502	1.33
566.695	1.33
566.887	1.35
567.08	1.27
567.272	1.27
567.465	1.25
567.657	1.26
567.85	1.23
568.042	1.24
568.235	1.24
568.427	1.17
568.62	1.19
568.812	1.15
569.005	1.16
569.197	1.08
569.389	1.13
569.582	1.1
569.774	1.08
569.966	1.03
570.159	1.02
570.351	1.03
570.543	1
570.736	1.01
570.928	0.96
571.12	1
571.312	0.95
571.505	0.92
571.697	0.99
571.889	0.92
572.081	0.93
572.273	0.89
572.465	0.94
572.658	0.89
572.85	0.91
573.042	0.89
573.234	0.85
573.426	0.86
573.618	0.81
573.81	0.85
574.002	0.87
574.194	0.86
574.386	0.78
574.578	0.72
574.77	0.78
574.962	0.77
575.154	0.75
575.346	0.77
575.538	0.77
575.729	0.7
575.921	0.7
576.113	0.71
576.305	0.76
576.497	0.69
576.689	0.69
576.88	0.67
577.072	0.71
577.264	0.66
577.456	0.67
577.647	0.61
577.839	0.68
578.031	0.65
578.223	0.56
578.414	0.58
578.606	0.62
578.798	0.61
578.989	0.59
579.181	0.6
579.372	0.6
579.564	0.58
579.755	0.6
579.947	0.57
580.139	0.57
580.33	0.48
580.522	0.54
580.713	0.45
580.905	0.53
581.096	0.56
581.287	0.52
581.479	0.51
581.67	0.52
581.862	0.51
582.053	0.47
582.244	0.45
582.436	0.49
582.627	0.49
582.818	0.46
583.01	0.44
583.201	0.46
583.392	0.49
583.583	0.45
583.775	0.46
583.966	0.42
584.157	0.46
584.348	0.42
584.54	0.38
584.731	0.43
584.922	0.4
585.113	0.38
585.304	0.43
585.495	0.42
585.686	0.43
585.877	0.43
586.068	0.43
586.259	0.4
586.45	0.4
586.641	0.38
586.832	0.33
587.023	0.38
587.214	0.38
587.405	0.38
587.596	0.35
587.787	0.43
587.978	0.4
588.169	0.31
588.36	0.36
588.551	0.36
588.742	0.32
588.932	0.38
589.123	0.32
589.314	0.36
589.505	0.35
589.696	0.32
589.886	0.33
590.077	0.29
590.268	0.32
590.458	0.27
590.649	0.28
590.84	0.36
591.03	0.27
591.221	0.28
591.412	0.25
591.602	0.33
591.793	0.32
591.984	0.25
592.174	0.28
592.365	0.36
592.555	0.24
592.746	0.31
592.936	0.34
593.127	0.26
593.317	0.29
593.508	0.26
593.698	0.26
593.889	0.26
594.079	0.26
594.269	0.25
594.46	0.24
594.65	0.26
594.84	0.23
595.031	0.24
595.221	0.24
595.411	0.18
595.602	0.28
595.792	0.24
595.982	0.24
596.172	0.3
596.363	0.25
596.553	0.24
596.743	0.23
596.933	0.23
597.123	0.26
597.314	0.22
597.504	0.21
597.694	0.25
597.884	0.26
598.074	0.23
598.264	0.21
598.454	0.21
598.644	0.2
598.834	0.2
599.024	0.16
599.214	0.19
599.404	0.28
599.594	0.18
599.784	0.18
599.974	0.28
600.164	0.22
600.354	0.17
600.544	0.16
600.734	0.21
600.924	0.22
601.114	0.18
601.303	0.17
601.493	0.24
601.683	0.18
601.873	0.17
602.063	0.14
602.252	0.21
602.442	0.15
602.632	0.18
602.821	0.18
603.011	0.21
603.201	0.17
603.39	0.17
603.58	0.17
603.77	0.2
603.959	0.21
604.149	0.19
604.339	0.17
604.528	0.2
604.718	0.2
604.907	0.15
605.097	0.16
605.286	0.12
605.476	0.21
605.665	0.18
605.855	0.15
606.044	0.2
606.234	0.19
606.423	0.14
606.612	0.13
606.802	0.17
606.991	0.18
607.181	0.15
607.37	0.13
607.559	0.16
607.749	0.1
607.938	0.14
608.127	0.14
608.316	0.14
608.506	0.2
608.695	0.18
608.884	0.14
609.073	0.18
609.263	0.15
609.452	0.18
609.641	0.17
609.83	0.11
610.019	0.12
610.208	0.14
610.397	0.12
610.586	0.18
610.775	0.1
610.965	0.12
611.154	0.12
611.343	0.17
611.532	0.16
611.721	0.11
611.91	0.13
612.099	0.15
612.287	0.14
612.476	0.11
612.665	0.15
612.854	0.12
613.043	0.19
613.232	0.12
613.421	0.08
613.61	0.15
613.798	0.1
613.987	0.18
614.176	0.12
614.365	0.16
614.554	0.14
614.742	0.17
614.931	0.11
615.12	0.17
615.309	0.13
615.497	0.16
615.686	0.11
615.875	0.11
616.063	0.1
616.252	0.11
616.44	0.11
616.629	0.12
616.818	0.14
617.006	0.1
617.195	0.16
617.383	0.15
617.572	0.12
617.76	0.13
617.949	0.14
618.137	0.13
618.326	0.15
618.514	0.1
618.703	0.1
618.891	0.16
619.079	0.08
619.268	0.14
619.456	0.09
619.644	0.17
619.833	0.13
620.021	0.1
620.209	0.07
620.398	0.14
620.586	0.13
620.774	0.13
620.962	0.13
621.151	0.16
621.339	0.1
621.527	0.09
621.715	0.12
621.903	0.06
622.092	0.08
622.28	0.13
622.468	0.11
622.656	0.14
622.844	0.16
623.032	0.13
623.22	0.06
623.408	0.18
623.596	0.12
623.784	0.15
623.972	0.11
624.16	0.1
624.348	0.18
624.536	0.12
624.724	0.09
624.912	0.18
625.1	0.15
625.288	0.08
625.476	0.08
625.664	0.15
625.851	0.07
626.039	0.1
626.227	0.1
626.415	0.1
626.603	0.08
626.79	0.14
626.978	0.08
627.166	0.12
627.354	0.13
627.541	0.09
627.729	0.03
627.917	0.14
628.104	0.14
628.292	0.11
628.48	0.14
628.667	0.14
628.855	0.13
629.042	0.12
629.23	0.1
629.418	0.12
629.605	0.11
629.793	0.08
629.98	0.09
630.168	0.1
630.355	0.08
630.543	0.15
630.73	0.07
630.917	0.1
631.105	0.18
631.292	0.1
631.48	0.08
631.667	0.16
631.854	0.11
632.042	0.11
632.229	0.06
632.416	0.11
632.604	0.08
632.791	0.07
632.978	0.13
633.165	0.13
633.353	0.13
633.54	0.15
633.727	0.04
633.914	0.08
634.101	0.03
634.289	0.13
634.476	0.11
634.663	0.06
634.85	0.13
635.037	0.02
635.224	0.05
635.411	0.13
635.598	0.11
635.785	0.07
635.972	0.07
636.159	0.14
636.346	0.05
636.533	0.11
636.72	0.1
636.907	0.09
637.094	0.12
637.281	0.13
637.468	0.12
637.655	0.08
637.842	0.1
638.029	0.06
638.215	0.09
638.402	0.09
638.589	0.08
638.776	0.09
638.963	0.07
639.149	0.12
639.336	0.17
639.523	0.1
639.709	0.09
639.896	0.09
640.083	0.15
640.27	0.12
640.456	0.08
640.643	0.12
640.829	0.04
641.016	0.07
641.203	0.04
641.389	0.11
641.576	0.13
641.762	0.1
641.949	0.07
642.135	0.09
642.322	0.12
642.508	0.04
642.695	0.09
642.881	0.07
643.068	0.12
643.254	0.09
643.441	0.14
643.627	0.08
643.813	0.08
644	0.13
644.186	0.06
644.372	0.04
644.559	0.14
644.745	0.09
644.931	0.07
645.118	0.09
645.304	0.1
645.49	0.07
645.676	0.1
645.862	0.09
646.049	0.13
646.235	0.1
646.421	0.16
646.607	0.16
646.793	0.07
646.979	0.05
647.165	0.12
647.352	0.11
647.538	0.12
647.724	0.1
647.91	0.09
648.096	0.14
648.282	0.11
648.468	0.11
648.654	0.13
648.84	0.09
649.026	0.08
649.212	0.09
649.397	0.1
649.583	0.06
649.769	0.13
649.955	0.08
650.141	0.14
650.327	0.14
650.513	0.08
650.698	0.11
650.884	0.03
651.07	0.11
651.256	0.09
651.442	0.11
651.627	0.11
651.813	0.12
651.999	0.11
652.184	0.11
652.37	0.06
652.556	0.08
652.741	0.13
652.927	0.01
653.113	0.07
653.298	0.06
653.484	0.08
653.669	0.02
653.855	0.1
654.04	0.1
654.226	0.07
654.412	0.05
654.597	0.03
654.782	0.09
654.968	0.13
655.153	0.13
655.339	0.07
655.524	0.06
655.71	0.09
655.895	0.07
656.08	0.1
656.266	0.13
656.451	0.11
656.636	0.04
656.822	0.09
657.007	0.07
657.192	0.07
657.378	0
657.563	0.11
657.748	0.14
657.933	0.1
658.118	0.06
658.304	0.08
658.489	0.12
658.674	0.07
658.859	0.07
659.044	0.12
659.229	0.14
659.414	0.06
659.599	0.12
659.785	0.03
659.97	0.08
660.155	0.1
660.34	0.07
660.525	0.06
660.71	0.08
660.895	0.13
661.08	0.09
661.264	0.1
661.449	0.14
661.634	0.15
661.819	0.11
662.004	0.12
662.189	0.01
662.374	0.1
662.559	0.05
662.743	0.04
662.928	0.11
663.113	0.09
663.298	0.05
663.483	0.09
663.667	0.11
663.852	0.07
664.037	0.17
664.221	0.07
664.406	0.12
664.591	0.13
664.775	0.13
664.96	0.11
665.145	0.1
665.329	0.14
665.514	0.09
665.698	0.11
665.883	0.05
666.068	0.15
666.252	0.13
666.437	0.07
666.621	0.05
666.806	0.13
666.99	0.07
667.174	0.1
667.359	0.19
667.543	0.09
667.728	0.14
667.912	0.06
668.096	0.11
668.281	0.09
668.465	0.11
668.649	0.09
668.834	0.11
669.018	0.08
669.202	0.09
669.387	0.06
669.571	0.16
669.755	0.06
669.939	0.1
670.124	0.09
670.308	0.17
670.492	0.16
670.676	0.11
670.86	0.07
671.044	0.08
671.228	0.18
671.413	0.07
671.597	0.08
671.781	0.08
671.965	0.15
672.149	0.1
672.333	0.11
672.517	0.06
672.701	0.14
672.885	0.14
673.069	0.09
673.253	0.15
673.437	0.11
673.621	0.09
673.804	0.08
673.988	0.11
674.172	0.1
674.356	0.08
674.54	0.1
674.724	0.19
674.908	0.1
675.091	0.16
675.275	0.11
675.459	0.15
675.643	0.09
675.826	0.12
676.01	0.15
676.194	0.11
676.377	0.2
676.561	0.13
676.745	0.13
676.928	0.19
677.112	0.16
677.296	0.09
677.479	0.11
677.663	0.1
677.846	0.15
678.03	0.13
678.213	0.08
678.397	0.11
678.58	0.09
678.764	0.16
678.947	0.12
679.131	0.1
679.314	0.16
679.498	0.13
679.681	0.19
679.865	0.17
680.048	0.14
680.231	0.07
680.415	0.1
680.598	0.1
680.781	0.14
680.965	0.14
681.148	0.14
681.331	0.09
681.514	0.17
681.698	0.1
681.881	0.11
682.064	0.11
682.247	0.14
682.43	0.08
682.614	0.12
682.797	0.15
682.98	0.2
683.163	0.11
683.346	0.17
683.529	0.1
683.712	0.07
683.895	0.15
684.078	0.06
684.261	0.09
684.444	0.18
684.627	0.1
684.81	0.09
684.993	0.17
685.176	0.14
685.359	0.09
685.542	0.1
685.725	0.16
685.908	0.12
686.091	0.09
686.274	0.16
686.457	0.15
686.639	0.13
686.822	0.13
687.005	0.13
687.188	0.16
687.371	0.18
687.553	0.13
687.736	0.2
687.919	0.23
688.102	0.21
688.284	0.12
688.467	0.14
688.65	0.08
688.832	0.1
689.015	0.15
689.197	0.07
689.38	0.23
689.563	0.2
689.745	0.07
689.928	0.08
690.11	0.11
690.293	0.17
690.475	0.02
690.658	0.13
690.84	0.12
691.023	0.12
691.205	0.06
691.388	0.11
691.57	0.14
691.752	0.13
691.935	0.03
692.117	0.08
692.3	0.16
692.482	0.15
692.664	0.12
692.847	0.13
693.029	0.12
693.211	0.1
693.393	0.12
693.576	0.12
693.758	0.12
693.94	0.17
694.122	0.1
694.304	0.1
694.487	0.08
694.669	0.2
694.851	0.08
695.033	0.14
695.215	0.05
695.397	0.08
695.579	0.16
695.761	0.09
695.943	-0
696.125	0.18
696.308	0.13
696.49	-0.01
696.671	0.2
696.853	0.11
697.035	0.25
697.217	0.14
697.399	0.17
697.581	0.06
697.763	0.14
697.945	0.04
698.127	0.11
698.309	0.2
698.491	0.15
698.672	0.19
698.854	0.16
699.036	0.2
699.218	0.12
699.399	0.21
699.581	0.17
699.763	0.16
699.945	0.09
700.126	0.09
700.308	0.12
700.49	0.12
700.671	0.04
700.853	0.13
701.035	0.11
701.216	0.12
701.398	0.09
701.579	0.09
701.761	0.2
701.943	0.09
702.124	0.03
702.306	0.14
702.487	0.34
702.669	0.13
702.85	0.07
703.031	0.13
703.213	0.21
703.394	0.16
703.576	0.15
703.757	0.18
703.938	0.16
704.12	0.27
704.301	0.15
704.483	0.09
704.664	0.14
704.845	0.23
705.026	0.12
705.208	0.15
705.389	0.12
705.57	0.15
705.751	0.1
705.933	0.13
706.114	0.13
706.295	0.17
706.476	0.06
706.657	0.19
706.838	0.13
707.02	0.21
707.201	0.08
707.382	0.05
707.563	0.12
707.744	0.07
707.925	0.09
708.106	0.07
708.287	0.11
708.468	0.19
708.649	0.1
708.83	0.16
709.011	0.04
709.192	0.2
709.373	0.04
709.554	0.12
709.734	0.13
709.915	0.17
710.096	0.13
710.277	0.06
710.458	0.12
710.639	0.18
710.819	0.03
711	0.12
711.181	0.15
711.362	0.21
711.542	0.17
711.723	0.15
711.904	0.18
712.085	0.18
712.265	0.14
712.446	0.02
712.627	0.04
712.807	0.16
712.988	0.11
713.168	0.05
713.349	0.1
713.53	0.03
713.71	0
713.891	0.05
714.071	0.15
714.252	0.1
714.432	0.14
714.613	0.1
714.793	0.15
714.974	0.21
715.154	0.2
715.334	0.18
715.515	0.18
715.695	0.09
715.876	0.2
716.056	0.13
716.236	0.08
716.417	0.14
716.597	0.06
716.777	0.26
716.957	0.08
717.138	0.14
717.318	0.13
717.498	0.03
717.678	0.14
717.859	0.19
718.039	0.08
718.219	0.09
718.399	0.18
718.579	0.08
718.759	0.08
718.939	0.19
719.12	0.18
719.3	0.13
719.48	-0.07
719.66	0.02
719.84	0.23
720.02	0.15
720.2	0.05
720.38	0.14
720.56	0.2
720.74	0.11
720.92	0.11
721.1	0.25
721.279	0.19
721.459	0.13
721.639	0
721.819	0.1
721.999	0.06
722.179	0.21
722.359	0.04
722.538	0.16
722.718	0.1
722.898	0.11
723.078	0.09
723.257	0.08
723.437	0.23
723.617	0.15
723.797	0.07
723.976	0.18
724.156	0.24
724.336	0.2
724.515	0.3
724.695	-0.02
724.874	0.07
725.054	0.21
725.234	0.05
725.413	0.19
725.593	0.16
725.772	0.16
725.952	0.13
726.131	0.12
726.311	0.14
726.49	0.11
726.67	0.1
726.849	0.1
727.028	0.19
727.208	0.11
727.387	0.18
727.567	0.09
727.746	0.14
727.925	0.19
728.105	0.11
728.284	0.08
728.463	0.1
728.643	0.21
728.822	0.03
729.001	0.08
729.18	0.1
729.359	0.14
729.539	0.22
729.718	0.08
729.897	0.08
730.076	0.05
730.255	0.07
730.434	0.12
730.614	0.17
730.793	0.22
730.972	0.15
731.151	0.1
731.33	0.17
731.509	0.21
731.688	0.13
731.867	0.11
732.046	0.05
732.225	0.33
732.404	0.02
732.583	0.07
732.762	0.12
732.941	0.18
733.12	0.15
733.298	0.18
733.477	0.2
733.656	0.16
733.835	0.07
734.014	0.16
734.193	0.16
734.371	0.23
734.55	0.24
734.729	0.08
734.908	0.17
735.086	0.15
735.265	0.2
735.444	0.03
735.623	0.06
735.801	0.01
735.98	0.1
736.159	0.14
736.337	0.15
736.516	0.13
736.694	0.18
736.873	0.16
737.052	0.28
737.23	0.21
737.409	0.09
737.587	0.36
737.766	0.06
737.944	0.03
738.123	0.25
738.301	0.12
738.479	0.14
738.658	0.13
738.836	0.07
739.015	0.2
739.193	0.22
739.371	0.19
739.55	0.13
739.728	0.04
739.906	0.2
740.085	0.27
740.263	0.21
740.441	-0.03
740.62	0.39
740.798	0.31
740.976	0.17
741.154	0.19
741.332	0.26
741.511	0.08
741.689	0.21
741.867	0.28
742.045	0.17
742.223	0.11
742.401	-0.03
742.579	0.09
742.757	0.21
742.935	-0
743.114	0.1
743.292	0.18
743.47	0.14
743.648	0.24
743.826	0.18
744.004	0.22
744.181	0.22
744.359	0.11
744.537	0.14
744.715	0.07
744.893	0.18
745.071	0.1
745.249	0.13
745.427	0.17
745.605	0.22
745.782	0.21
745.96	0.18
746.138	0.16
746.316	0.19
746.493	0.1
746.671	0.11
746.849	0.22
747.027	0.29
747.204	0.02
747.382	0.22
747.56	0.06
747.737	0.16
747.915	0.05
748.093	0.17
748.27	0.07
748.448	0.17
748.625	-0
748.803	0.1
748.98	0.14
749.158	0.05
749.335	0.21
749.513	0.06
749.69	0.13
749.868	0.15
750.045	0.21
750.223	0.01
750.4	-0.09
750.578	0.33
750.755	0.17
750.932	0.05
751.11	0.24
751.287	0.05
751.464	0.28
751.642	0.06
751.819	0.25
751.996	0.16
752.173	0.21
752.351	0.08
752.528	0.2
752.705	0.17
752.882	0.16
753.06	0.17
753.237	0.25
753.414	0.24
753.591	0.37
753.768	0.12
753.945	0
754.122	0.16
754.299	0.15
754.476	0.08
754.654	0.14
754.831	0.22
755.008	0.16
755.185	-0
755.362	-0.06
755.539	0.25
755.716	0.02
755.892	0.17
756.069	0.1
756.246	0.07
756.423	0.08
756.6	0.25
756.777	0.15
756.954	0.33
757.131	0.18
757.307	-0.05
757.484	0.06
757.661	0.07
757.838	0.19
758.015	-0.01
758.191	0.25
758.368	0.23
758.545	0.25
758.721	0.16
758.898	0.07
759.075	0.16
759.251	0.2
759.428	0.23
759.605	-0.15
759.781	0.25
759.958	0.23
760.134	0.26
760.311	0.12
760.488	0.29
760.664	0.25
760.841	0.05
761.017	0.01
761.194	0.15
761.37	0.29
761.547	0.11
761.723	0.16
761.899	0.25
762.076	0.03
762.252	0.04
762.429	0.05
762.605	0.23
762.781	0.01
762.958	0.25
763.134	0.08
763.31	0.02
763.486	0.29
763.663	0.02
763.839	0.23
764.015	0.09
764.191	0.09
764.368	0.12
764.544	0.05
764.72	0.17
764.896	0.25
765.072	0.22
765.248	0.06
765.425	0.13
765.601	0.03
765.777	0.18
765.953	0.01
766.129	0.1
766.305	0.08
766.481	0.24
766.657	0.13
766.833	0.28
767.009	0.03
767.185	0.06
767.361	0.04
767.537	0.04
767.713	0.2
767.889	0.11
768.065	0.09
768.24	0
768.416	0.3
768.592	0.1
768.768	0.25
768.944	0.2
769.12	-0.01
769.295	-0.06
769.471	0.16
769.647	0.14
769.823	0.25
769.998	-0
770.174	0.14
770.35	0.5
770.525	0.37
770.701	0.12
770.877	0.14
771.052	0.05
771.228	0.22
771.403	0.2
771.579	0.08
771.755	0.49
771.93	0.2
772.106	0.1
772.281	-0.02
772.457	0.13
772.632	0.21
772.808	-0.14
772.983	0.16
773.159	-0.06
773.334	0.42
773.509	0.08
773.685	0.06
773.86	0.39
774.036	0.35
774.211	0.23
774.386	0.05
774.562	0.31
774.737	0.24
774.912	0.15
775.087	0.03
775.263	0.32
775.438	0.04
775.613	-0.04
775.788	0.16
775.964	0.18
776.139	0.7
776.314	-0.01
776.489	0.19
776.664	0.21
776.839	0.06
777.014	0.31
777.19	0.38
777.365	0.43
777.54	0.33
777.715	0.15
777.89	0.13
778.065	0.05
778.24	0.14
778.415	0.16
778.59	0.04
778.765	0.19
778.94	0.25
779.115	0.24
779.289	0.08
779.464	0.21
779.639	0.12
779.814	-0.16
779.989	-0.1
780.164	0.34
780.339	0.14
780.513	-0.03
780.688	-0
780.863	0.11
781.038	0.3
781.212	-0.1
781.387	0.15
781.562	0.42
781.737	0.04
781.911	0.27
782.086	-0.04
782.261	0.12
782.435	0.41
782.61	0.11
782.784	0.16
782.959	0.41
783.134	0.05
783.308	-0.01
783.483	0.08
783.657	0.65
783.832	0.28
784.006	-0.25
784.181	0.06
784.355	0.43
784.53	-0.02
784.704	0.15
784.878	0.39
785.053	0.35
785.227	0.42
785.402	0.66
785.576	0.01
785.75	0.14
785.925	0.04
786.099	0.24
786.273	0.32
786.448	0.47
786.622	0.4
786.796	0.12
786.97	0.23
787.145	0.59
787.319	-0.13
787.493	0.07
787.667	0.22
787.841	0.06
788.015	0.29
788.19	0.16
788.364	0.19
788.538	0.31
788.712	0.15
788.886	0.15
789.06	0.27
789.234	0.31
789.408	-0.15
789.582	0.18
789.756	0.15
789.93	0.01
790.104	-0.03
790.278	-0.07
790.452	0.15
790.626	0.24
790.8	0.17
790.973	0.12
791.147	0.45
791.321	0.48
791.495	0.11
791.669	0.23
791.843	0.33
792.016	0.15
792.19	0.59
792.364	-0.1
792.538	0.54
792.711	0.42
792.885	0.31
793.059	-0.02
793.233	-0.33
793.406	0.22
793.58	0.28
793.754	0.35
793.927	0.09
794.101	0.59
794.274	0.08
794.448	0.49
794.622	0.03
794.795	0.37
794.969	-0.01
795.142	0.52
795.316	0.12
795.489	0
795.663	0.51
795.836	0.49
796.009	0.02
796.183	0.55
796.356	0.34
796.53	0.2
796.703	0.19
796.876	0.77
797.05	0.18
797.223	0.23
797.396	0.39
797.57	0.51
797.743	0.76
797.916	0.31
798.09	0.14
798.263	0.42
798.436	0.32
798.609	0.25
798.782	0.28
798.956	0.34
799.129	0.36
799.302	0.15
799.475	0.01
799.648	-0.18
799.821	0.28
799.994	0.17
800.167	-0.04
800.34	0.21
800.514	0.24
800.687	-0.07
800.86	0.22
801.033	0.14
801.206	0.32
801.379	-0.21
801.551	0.44
801.724	0.63
801.897	0.57
802.07	0.06
802.243	-0.14
802.416	0.23
802.589	0.35
802.762	0.57
802.935	0.31
803.107	0.55
803.28	0.4
803.453	0.28
803.626	0.02
803.798	0.45
803.971	0.02
804.144	0.29
804.317	0.26
804.489	0.6
804.662	0.29
804.835	0.19
805.007	-0.09
805.18	0.73
805.353	0.36
805.525	0.25
805.698	0.24
805.87	0.52
806.043	0.48
806.215	0.01
806.388	-0.09
806.56	0.48
806.733	0.54
806.905	0.23
807.078	0.01
807.25	0.05
807.423	0.49
807.595	0.12
807.768	0.19
807.94	0.63
808.112	0.26
808.285	0.21
808.457	0.05
808.629	0.12
808.802	0.3
808.974	0.6
809.146	0.12
809.318	0.11
809.491	0.57
809.663	0.31
809.835	0.03
810.007	0.36
810.18	0.45
810.352	-0.09
810.524	-0.09
810.696	0.51
810.868	0.68
811.04	0.19
811.212	0.27
811.384	0.41
811.556	0.27
811.728	0.42
811.901	0.54
812.073	-0.11
812.245	0.77
812.417	0.36
812.589	-0.52
812.76	0.5
812.932	0.43
813.104	0.61
813.276	0.01
813.448	0.8
813.62	0.38
813.792	0.4
813.964	-0.05
814.136	-0.02
814.307	0.1
814.479	-0.38
814.651	0.18
814.823	1.07
814.995	0.3
815.166	-0.01
815.338	0.04
815.51	-0.22
815.681	1.02
815.853	0.38
816.025	0.43
816.196	0.88
816.368	0.48
816.54	-0.11
816.711	0.22
816.883	0.53
817.054	1.41
817.226	-0.44
817.398	0.28
817.569	0.16
817.741	0.34
817.912	0.45
818.084	0.12
818.255	1.13
818.426	-0.15
818.598	0.67
818.769	0.39
818.941	0.41
819.112	0.75
819.283	0.87
819.455	-0.32
819.626	-0.04
819.798	0.66
819.969	0.25
820.14	0.33
820.311	0.08
820.483	0.51
820.654	0.55
820.825	0.35
820.996	0.07
821.168	0.06
821.339	0.49
821.51	-0.2
821.681	0.14
821.852	0.5
822.023	-0.01
822.195	-0.65
822.366	0.57
822.537	0.17
822.708	0.38
822.879	0.2
823.05	0.93
823.221	0.03
823.392	0.31
823.563	0.27
823.734	0.08
823.905	0.19
824.076	-0.47
824.247	-0.02
824.418	0.14
824.589	0.88
824.759	0.22
824.93	0.61
825.101	-0.31
825.272	1.05
825.443	1.22
825.614	0.77
825.784	-0.9
825.955	1.4
826.126	1.17
826.297	0.3
826.467	0.9
826.638	0.51
826.809	-1.09
826.98	0.39
827.15	0.66
827.321	0.29
827.492	1.07
827.662	0.3
827.833	1.37
828.003	0.17
828.174	-0.29
828.345	-0.34
828.515	1.17
828.686	0.29
828.856	-0.07
829.027	0.48
829.197	0.95
829.368	0.52
829.538	-0.04
829.709	-0.12
829.879	0.52
830.049	0.29
830.22	0.08
830.39	0.42
830.56	0.95
830.731	0.56
830.901	0.39
831.072	0.31
831.242	0.33
831.412	0.51
831.582	0.32
831.753	-0.45
831.923	0.81
832.093	0.02
832.263	0.05
832.434	0.1
832.604	0.12
832.774	0.84
832.944	-0.06
833.114	0.08
833.284	0.32
833.454	0.46
833.624	-0.1
833.795	-0.28
833.965	0.88
834.135	1.09
834.305	0.03
834.475	-0.25
834.645	0.27
834.815	-0.04
834.985	-0.05
835.155	0.12
835.325	0.76
835.494	0.21
835.664	0.81
835.834	-0.7
836.004	0.5
836.174	0.28
836.344	-0.37
836.514	-0.36
836.684	0.13
836.853	0.62
837.023	0.74
837.193	0.16
837.363	0.85
837.532	0.84
837.702	0.72
837.872	-0.57
838.041	1.21
838.211	2.05
838.381	-0.46
838.55	0.31
838.72	2.24
838.89	1.37
839.059	0.57
839.229	0.67
839.398	2.15
839.568	-0.02
839.738	0.41
839.907	1.22
840.077	0.72
840.246	-0.37
840.416	0.29
840.585	0.14
840.755	2.34
840.924	1.2
841.093	0.33
841.263	0.65
841.432	0.38
841.602	0.43
841.771	0.18
841.94	0.4
842.11	1.57
842.279	1.02
842.448	-0.7
842.617	0.1
842.787	1.32
842.956	-0.82
843.125	0.07
843.294	0.7
843.464	1.56
843.633	1.08
843.802	-0.29
843.971	0.88
844.14	1.54
844.309	0.86
844.479	0.48
844.648	-0.23
844.817	-0.08
844.986	0.77
845.155	-0.5
845.324	0.5
845.493	-0.03
845.662	-0.76
845.831	0.63
846	0.79
846.169	0.52
846.338	2.08
846.507	0.92
846.676	0.58
846.844	-0.01
847.013	1.69
847.182	0.13
847.351	0.58
847.52	0.31
847.689	0.56
847.858	0.16
848.026	-0.45
848.195	0.81
848.364	-0.36
848.533	0.25
848.701	0.23
848.87	-0.23
849.039	1.42
849.207	1.09
849.376	1.03
849.545	2.03
849.713	0.08
849.882	0.21
850.051	0.28
850.219	-0
850.388	1.43
850.556	0.08
850.725	0.21
850.893	1.34
851.062	0.65
851.23	0.96
851.399	0.15
851.567	-0.35
851.736	0.76
851.904	-0.93
852.073	0.71
852.241	0.95
852.41	0.58
852.578	0.61
852.746	0.14
852.915	0.71
853.083	0.6
853.251	-0.72
853.42	0.73
853.588	1.95
853.756	1.64
853.924	0.14
854.093	-0.14
854.261	0.58
854.429	-1.69
854.597	1.21
854.765	-0.87
854.934	0.84
855.102	2.1
855.27	0.43
855.438	2.02
855.606	1.99
855.774	1.61
855.942	-1.54
856.11	-1
856.278	0.22
856.446	1.33
856.614	0.32
856.782	-0.36
856.95	1.22
857.118	1.37
857.286	1.41
857.454	-1.02
857.622	1.98
857.79	2.01
857.958	-0.78
858.126	0.61
858.294	-0.86
858.462	0.71
858.629	-0.66
858.797	-1.12
858.965	0.93
859.133	0.63
859.301	0.65
859.468	1.12
859.636	-0.03
859.804	1.82
859.971	0.74
860.139	-0.37
860.307	2.29
860.474	0.01
860.642	-0.69
860.81	1.01
860.977	0.33
861.145	1.96
861.313	0.68
861.48	0.51
861.648	1.32
861.815	1.09
861.983	-1.32
862.15	0.28
862.318	1.59
862.485	1.19
862.653	0.98
862.82	-0.37
862.988	2.6
863.155	1.64
863.322	0.44
863.49	-0.67
863.657	0.3
863.824	2.92
863.992	0.96
864.159	0.81
864.326	3
864.494	0.7
864.661	3.27
864.828	-1.21
864.996	2.46
865.163	2.97
865.33	-0.05
865.497	-1.96
865.664	0.08
865.832	-0.28
865.999	0.41
866.166	-1.05
866.333	0.62
866.5	-1.01
866.667	0.79
866.834	-0.05
867.001	2.5
867.168	-0
867.335	0.95
867.502	-0.67
867.669	0.86
867.836	3.02
868.003	0.6
868.17	2.17
868.337	2.37
868.504	2.66
868.671	-0.79
868.838	-0.32
869.005	1.09
869.172	1.15
869.339	1.25
869.505	1.18
869.672	1.26
869.839	2.01
870.006	0.15
870.173	0.06
870.339	1.87
870.506	3.85
870.673	-1.27
870.84	2.27
871.006	0.69
871.173	0.57
871.34	1.83
871.506	0.08
871.673	1.28
871.839	-0.31
872.006	1.01
872.173	-1.04
872.339	0.28
872.506	2.46
872.672	0.71
872.839	-0.69
873.005	1.76
873.172	4.31
873.338	2.31
873.505	1.49
873.671	0.06
873.838	1.61
874.004	-2.15
874.171	-0.47
874.337	0.22
874.503	1.82
874.67	0.53
874.836	-0.09
875.002	3.07
875.169	2.43
875.335	-0.32
875.501	0.47
875.668	3.2
875.834	0.72
876	1.22
876.166	1.64
876.332	2.45
876.499	4.52
876.665	1.23
876.831	0.78
876.997	2.61
877.163	3.48
877.329	0.54
877.495	0.27
877.662	0.07
877.828	1.5
877.994	-1.13
878.16	-1.94
878.326	1.49
878.492	0.64
878.658	0.05
878.824	0.7
878.99	2.19
879.156	0.29
879.322	3.75
879.487	-0.49
879.653	1.77
879.819	2.03
879.985	-0.36
880.151	1.99
880.317	0.5
880.483	-0.32
880.648	2.52
880.814	-1.93
880.98	1.8
881.146	-1.49
881.312	0.61
881.477	1.85
881.643	0.39
881.809	2.93
881.974	2.97
882.14	0.84
882.306	2.5
882.471	3.27
882.637	1.16
882.803	2.02
882.968	3.02
883.134	3.68
883.299	0.14
883.465	-0.7
883.63	3.24
883.796	1.92
883.961	-0.25
884.127	-0.32
884.292	-1.55
884.458	-1.61
884.623	-1.61
