Data from Apollo_Calib_20240827__AbsoluteIrradiance__397__05-46-00-658.txt Node

Date: Wed Aug 28 05:46:00 BST 2024
User: biology
Spectrometer: FLMT08252
Trigger mode: 0
Integration Time (sec): 5.000000E-1
Scans to average: 5
Electric dark correction enabled: true
Nonlinearity correction enabled: false
Boxcar width: 0
XAxis mode: Wavelengths
Number of Pixels in Spectrum: 3648
>>>>>Begin Spectral Data<<<<<
179.588	-0
179.809	-0
180.03	-0
180.251	-0
180.473	-0
180.694	0
180.915	0
181.136	-0
181.357	0
181.578	-0
181.799	-0
182.02	0
182.241	-0
182.462	-0
182.683	0
182.904	-0
183.125	-0
183.346	0
183.567	0
183.788	-0
184.009	-0
184.23	0
184.451	0
184.672	-0
184.892	-0
185.113	0
185.334	0
185.555	-0
185.776	-0
185.996	0
186.217	0
186.438	0
186.659	-0
186.879	0
187.1	0
187.321	0
187.541	0
187.762	0
187.983	0
188.203	0
188.424	0
188.644	-0
188.865	0
189.086	0
189.306	-0
189.527	0
189.747	0
189.968	-0
190.188	0
190.409	0
190.629	0
190.849	-0
191.07	-0
191.29	0
191.511	0
191.731	-0
191.951	-0
192.172	0
192.392	0
192.612	-0
192.833	0
193.053	0
193.273	0
193.493	0
193.714	-0
193.934	0
194.154	0
194.374	0
194.594	0
194.815	0
195.035	0
195.255	0
195.475	-0
195.695	0
195.915	0
196.135	-0
196.355	0
196.575	0
196.795	0
197.015	-0
197.235	0
197.455	-0
197.675	0
197.895	-0
198.115	-0
198.335	0
198.555	-0
198.775	0
198.995	0
199.214	0
199.434	0
199.654	-0
199.874	-0
200.094	1.2
200.313	-0.1
200.533	-0.23
200.753	-0.66
200.973	0.76
201.192	0.51
201.412	-0.29
201.632	-0.18
201.851	0.6
202.071	-0.28
202.291	-0.08
202.51	-0.54
202.73	0.53
202.95	-0.17
203.169	-0.05
203.389	-0.15
203.608	0.12
203.828	-0.15
204.047	0
204.267	0.71
204.486	0.17
204.706	-0.01
204.925	0.11
205.145	0.02
205.364	0.65
205.583	1.03
205.803	-0.18
206.022	-0.49
206.242	0.22
206.461	-0.18
206.68	-0.08
206.9	0.13
207.119	0.67
207.338	0.8
207.557	-0.03
207.777	0.1
207.996	0.19
208.215	0.68
208.434	-0.14
208.654	-0.38
208.873	-0.15
209.092	0.68
209.311	0.12
209.53	-0.07
209.749	0.12
209.968	-0.12
210.187	0.04
210.407	-0.48
210.626	0.08
210.845	0.27
211.064	0.23
211.283	-0.15
211.502	0.37
211.721	0.37
211.94	-0.19
212.159	0.27
212.377	0.36
212.596	0.48
212.815	-0.07
213.034	-0.03
213.253	0.28
213.472	0.11
213.691	-0.1
213.91	-0.23
214.128	0.11
214.347	0.49
214.566	-0.16
214.785	-0.18
215.003	0.13
215.222	-0.11
215.441	-0.03
215.66	-0.06
215.878	0.08
216.097	0.39
216.316	-0.15
216.534	0.01
216.753	0.13
216.972	0
217.19	0.2
217.409	-0.12
217.627	-0.09
217.846	-0.12
218.064	0.12
218.283	-0.09
218.501	0.42
218.72	0.26
218.938	-0.01
219.157	-0.08
219.375	0.31
219.594	0.16
219.812	-0.08
220.031	-0.24
220.249	0.19
220.467	0.36
220.686	-0.02
220.904	-0.21
221.122	0.03
221.341	0.31
221.559	-0.1
221.777	-0.2
221.995	0.1
222.214	0.05
222.432	-0.03
222.65	0.18
222.868	0.07
223.086	0.19
223.305	0.17
223.523	-0.01
223.741	0.31
223.959	0.02
224.177	-0.27
224.395	-0.05
224.613	0.1
224.831	0.33
225.049	-0.19
225.267	-0.02
225.485	0.01
225.703	0.09
225.921	-0.02
226.139	-0.04
226.357	0.22
226.575	0.11
226.793	0.07
227.011	0.53
227.229	0.06
227.447	0.18
227.665	-0.13
227.883	-0.05
228.1	-0.04
228.318	0.18
228.536	-0.21
228.754	-0.01
228.972	0.25
229.189	0.02
229.407	-0.09
229.625	0.04
229.843	0.16
230.06	0.23
230.278	-0.05
230.496	0.07
230.713	-0.04
230.931	0.24
231.149	-0.02
231.366	-0.33
231.584	0.06
231.801	0.36
232.019	-0.09
232.236	-0.12
232.454	-0.05
232.671	0.07
232.889	0.1
233.106	-0.07
233.324	0.06
233.541	-0.01
233.759	-0.01
233.976	-0.03
234.194	0.09
234.411	0.03
234.628	-0.14
234.846	-0.08
235.063	0.02
235.28	0.01
235.498	0.04
235.715	-0.1
235.932	0.04
236.149	0.09
236.367	-0.08
236.584	0.16
236.801	-0.07
237.018	0.2
237.236	0.08
237.453	-0.18
237.67	0.13
237.887	-0.07
238.104	-0.02
238.321	-0.04
238.538	0.07
238.755	0.06
238.973	-0.1
239.19	-0.03
239.407	0.07
239.624	0.11
239.841	-0.11
240.058	-0.02
240.275	0.05
240.492	0.05
240.709	0.05
240.925	-0.1
241.142	0.07
241.359	-0.07
241.576	-0.07
241.793	-0.02
242.01	0.02
242.227	0.17
242.444	-0.05
242.66	0.12
242.877	0.03
243.094	-0.03
243.311	0.04
243.527	-0.02
243.744	0.1
243.961	0.14
244.178	-0.09
244.394	-0.07
244.611	0.19
244.828	0.23
245.044	-0.06
245.261	0.02
245.477	0.04
245.694	0.09
245.911	-0.06
246.127	0.03
246.344	0.15
246.56	0.11
246.777	-0.07
246.993	0.04
247.21	0.04
247.426	0.12
247.643	-0.05
247.859	-0.07
248.076	0.02
248.292	0.24
248.508	0.04
248.725	-0.02
248.941	0.12
249.157	0.19
249.374	-0.02
249.59	0.04
249.806	0.06
250.023	0.09
250.239	0
250.455	-0.07
250.671	-0.02
250.888	0.11
251.104	0.07
251.32	-0.01
251.536	-0.03
251.752	0.08
251.969	0.02
252.185	0.03
252.401	0.28
252.617	0.06
252.833	-0.01
253.049	0.03
253.265	0.01
253.481	0.04
253.697	-0.03
253.913	-0.06
254.129	0.07
254.345	0.05
254.561	0.01
254.777	-0.01
254.993	0.09
255.209	0.11
255.425	-0.05
255.641	-0.05
255.857	0.06
256.073	0.09
256.288	-0.11
256.504	0.01
256.72	0.12
256.936	0.1
257.152	0.03
257.367	-0.08
257.583	0.06
257.799	0.01
258.015	-0.01
258.23	-0
258.446	0.16
258.662	0.08
258.877	-0.12
259.093	-0.03
259.309	0.07
259.524	0.08
259.74	-0.02
259.955	-0.08
260.171	0.04
260.387	0.01
260.602	0.01
260.818	0.07
261.033	-0.1
261.249	0.03
261.464	0.02
261.68	-0.05
261.895	0.11
262.11	0.12
262.326	-0
262.541	-0.1
262.757	0.08
262.972	0.08
263.187	0.03
263.403	0.03
263.618	0.11
263.833	0.03
264.049	-0.03
264.264	0.07
264.479	0.13
264.694	0.13
264.91	-0.1
265.125	-0.01
265.34	0.1
265.555	0.16
265.77	0.1
265.986	0.01
266.201	0.08
266.416	0.2
266.631	-0.02
266.846	0.03
267.061	0.05
267.276	0.06
267.491	-0.08
267.706	0.11
267.921	0.1
268.136	0.09
268.351	-0.01
268.566	-0.03
268.781	0.15
268.996	0.06
269.211	0.05
269.426	-0.02
269.641	0.02
269.856	0.06
270.071	-0.03
270.285	-0.06
270.5	0.1
270.715	0.06
270.93	-0
271.145	0.04
271.359	0.08
271.574	0.05
271.789	-0.01
272.004	-0
272.218	0.01
272.433	0.07
272.648	-0.05
272.862	0.13
273.077	0.01
273.292	0.04
273.506	-0.02
273.721	-0.03
273.936	0.08
274.15	0.09
274.365	0.01
274.579	0.02
274.794	0.08
275.008	0.06
275.223	-0.05
275.437	0.05
275.652	0.09
275.866	0.11
276.081	0.03
276.295	0.07
276.509	0.02
276.724	0.02
276.938	0.09
277.153	0.07
277.367	0.11
277.581	-0.07
277.796	-0.05
278.01	-0.01
278.224	0.09
278.438	0.15
278.653	-0.04
278.867	-0.05
279.081	0.07
279.295	-0.02
279.51	0.05
279.724	-0.02
279.938	0.08
280.152	0.1
280.366	-0.04
280.58	0.05
280.794	0.14
281.008	0.05
281.222	0.05
281.437	0.12
281.651	0.05
281.865	0.09
282.079	0.01
282.293	-0.09
282.507	-0.01
282.721	0.03
282.935	0.01
283.148	-0.05
283.362	0.02
283.576	-0.06
283.79	-0.02
284.004	-0.07
284.218	0.12
284.432	-0.03
284.646	0.03
284.859	-0
285.073	-0
285.287	0.06
285.501	0.01
285.714	-0.03
285.928	0.05
286.142	0.05
286.356	-0.03
286.569	-0.01
286.783	0.14
286.997	0.08
287.21	0.02
287.424	0.06
287.637	0.01
287.851	0.03
288.065	0.07
288.278	0.01
288.492	0.07
288.705	-0.01
288.919	0.06
289.132	0
289.346	0.11
289.559	-0.09
289.773	0.01
289.986	0.02
290.2	0.02
290.413	0.06
290.626	-0.02
290.84	0.04
291.053	0.03
291.267	0.11
291.48	0.05
291.693	0.04
291.906	-0.01
292.12	0.05
292.333	-0.03
292.546	-0.03
292.76	0.09
292.973	0.09
293.186	0.02
293.399	-0.03
293.612	0.03
293.826	0.01
294.039	0.01
294.252	0.01
294.465	0.07
294.678	0.04
294.891	0.07
295.104	-0.01
295.317	0.05
295.53	0.02
295.743	0.04
295.956	-0
296.169	0.07
296.382	0.02
296.595	0.03
296.808	-0.03
297.021	0.09
297.234	0.05
297.447	0
297.66	0.02
297.873	0.08
298.086	0.04
298.299	0.01
298.511	-0.03
298.724	-0.01
298.937	-0.03
299.15	-0
299.363	0.04
299.575	0.1
299.788	0.04
300.001	-0.02
300.213	0.01
300.426	0.01
300.639	0.02
300.852	0.01
301.064	0.13
301.277	0.13
301.489	0.08
301.702	0.04
301.915	0
302.127	0.03
302.34	0.06
302.552	0.07
302.765	-0.05
302.977	0.07
303.19	-0.01
303.402	0.02
303.615	0.04
303.827	0.03
304.04	0.02
304.252	0.06
304.464	0.01
304.677	0.14
304.889	0.04
305.102	0.01
305.314	-0
305.526	0.07
305.739	0.02
305.951	0.02
306.163	-0.01
306.375	0.12
306.588	0.02
306.8	0.01
307.012	0.01
307.224	0.01
307.436	0.06
307.649	-0.09
307.861	0.06
308.073	0.08
308.285	0.03
308.497	-0.01
308.709	0.03
308.921	0.01
309.133	0.08
309.346	0.02
309.558	0.02
309.77	0.09
309.982	0.15
310.194	0.08
310.406	0.02
310.617	0.13
310.829	0.02
311.041	0.05
311.253	-0.01
311.465	0.01
311.677	0.02
311.889	0.06
312.101	-0.01
312.313	0.06
312.524	0.12
312.736	0.01
312.948	-0.04
313.16	0.06
313.372	0.06
313.583	0.08
313.795	0.03
314.007	0.03
314.218	0.06
314.43	0
314.642	0.01
314.853	-0.02
315.065	0.05
315.277	0.01
315.488	0.02
315.7	0.05
315.912	0.09
316.123	0.03
316.335	0.01
316.546	0.14
316.758	0.04
316.969	-0.01
317.181	-0
317.392	0.04
317.604	0.07
317.815	-0.01
318.026	-0.02
318.238	0.02
318.449	0.04
318.661	-0.05
318.872	0.03
319.083	-0.03
319.295	0.06
319.506	-0.01
319.717	0.03
319.929	0.06
320.14	0.04
320.351	0.04
320.562	-0
320.774	0
320.985	0.03
321.196	0.02
321.407	-0.05
321.618	0.03
321.829	0.03
322.041	0.04
322.252	0.05
322.463	0.06
322.674	0.05
322.885	0.01
323.096	-0.01
323.307	0.04
323.518	0.04
323.729	0.01
323.94	0.04
324.151	0
324.362	0.03
324.573	0
324.784	0.02
324.995	0.04
325.206	0.03
325.417	0.03
325.628	-0
325.838	0.02
326.049	0.04
326.26	0.06
326.471	-0.02
326.682	0.03
326.892	0.04
327.103	-0.02
327.314	-0.04
327.525	0.08
327.735	0.04
327.946	0.03
328.157	-0.02
328.368	0.04
328.578	0.01
328.789	0.02
328.999	0.03
329.21	-0.04
329.421	0.05
329.631	-0.01
329.842	0.01
330.052	0.02
330.263	0.05
330.473	0.06
330.684	0.01
330.894	0.01
331.105	0.05
331.315	0.08
331.526	-0.05
331.736	0.12
331.947	0.04
332.157	0.02
332.367	-0.01
332.578	0.03
332.788	0.09
332.999	0.05
333.209	-0
333.419	-0.05
333.629	0.03
333.84	0.09
334.05	-0.01
334.26	0.11
334.47	0.03
334.681	0.08
334.891	-0.04
335.101	0.09
335.311	0.13
335.521	0.02
335.732	0.03
335.942	0.09
336.152	0.11
336.362	0.04
336.572	0.05
336.782	0.09
336.992	0.03
337.202	0.02
337.412	0.03
337.622	0.06
337.832	-0.01
338.042	0.02
338.252	-0.01
338.462	-0.02
338.672	0.02
338.882	-0
339.092	-0
339.302	0.12
339.511	0.06
339.721	0.03
339.931	-0.01
340.141	0.06
340.351	0.05
340.561	0.03
340.77	0.02
340.98	0.02
341.19	0.11
341.4	-0.01
341.609	-0.01
341.819	0.01
342.029	-0.01
342.238	0.02
342.448	-0.02
342.658	0.03
342.867	0.04
343.077	0.05
343.286	0.02
343.496	0.01
343.706	0.1
343.915	-0.02
344.125	0.03
344.334	0.04
344.544	-0.05
344.753	0.03
344.963	-0.02
345.172	-0.01
345.381	-0.04
345.591	-0.02
345.8	0.04
346.01	0.05
346.219	0.08
346.428	-0.11
346.638	-0.01
346.847	0.01
347.056	0.11
347.266	-0.01
347.475	0
347.684	0.04
347.893	0.03
348.103	0.02
348.312	-0.02
348.521	0.02
348.73	0.05
348.94	0.02
349.149	-0.03
349.358	0.02
349.567	0.01
349.776	-0.02
349.985	-0.01
350.194	0.09
350.403	0.11
350.612	-0.03
350.821	0.03
351.03	0.05
351.239	0.01
351.448	0
351.657	0.02
351.866	0.11
352.075	0.03
352.284	0.05
352.493	-0.01
352.702	0.09
352.911	0.03
353.12	0.02
353.329	-0.03
353.538	0.05
353.746	0.03
353.955	-0.01
354.164	0.06
354.373	0.04
354.582	0.04
354.79	0.05
354.999	0.07
355.208	0
355.416	0.08
355.625	-0.01
355.834	0.01
356.042	0.06
356.251	0.03
356.46	-0
356.668	0.05
356.877	0.15
357.085	0.08
357.294	-0.08
357.503	0.06
357.711	0.04
357.92	0.15
358.128	0.04
358.337	0
358.545	0.02
358.754	0.03
358.962	0.04
359.17	0
359.379	0.03
359.587	0.05
359.796	0.02
360.004	0.06
360.212	0.08
360.421	0.09
360.629	-0
360.837	0.03
361.046	0.07
361.254	0.11
361.462	0.03
361.67	-0.01
361.879	0.02
362.087	0.07
362.295	0.05
362.503	0
362.711	-0.01
362.92	0.01
363.128	-0.01
363.336	-0
363.544	-0.05
363.752	0.02
363.96	-0.04
364.168	-0.02
364.376	0.03
364.584	0.04
364.792	0.1
365	0.05
365.208	0.03
365.416	0.09
365.624	0.09
365.832	-0.03
366.04	0.09
366.248	0.02
366.456	0
366.664	0.02
366.872	0.04
367.079	0.05
367.287	0.01
367.495	0.07
367.703	0.04
367.911	0.06
368.118	-0.01
368.326	-0
368.534	-0.03
368.742	0.07
368.949	-0.02
369.157	0.04
369.365	0.06
369.572	0.01
369.78	0.01
369.988	0.07
370.195	0.08
370.403	0.02
370.61	0
370.818	0.02
371.026	0.11
371.233	0.02
371.441	0.04
371.648	0.03
371.856	0.03
372.063	0.05
372.271	0.02
372.478	-0.01
372.685	0
372.893	0.09
373.1	0.05
373.308	-0.01
373.515	0.1
373.722	0.05
373.93	0.03
374.137	0.04
374.344	0.09
374.552	0.1
374.759	0.05
374.966	0.03
375.173	0.02
375.381	0.1
375.588	0.03
375.795	-0.09
376.002	0.03
376.209	0
376.417	-0.01
376.624	0.01
376.831	0.05
377.038	0.02
377.245	-0.05
377.452	-0.01
377.659	0.01
377.866	0
378.073	0.02
378.28	-0.01
378.487	0.03
378.694	0.05
378.901	0.05
379.108	0.01
379.315	0.09
379.522	0.1
379.729	0.04
379.936	0
380.143	0.04
380.35	0.03
380.557	-0
380.763	0.05
380.97	0
381.177	0.08
381.384	0.03
381.591	-0.02
381.797	0.03
382.004	0.07
382.211	0.06
382.418	0.04
382.624	0.06
382.831	0.04
383.038	-0.03
383.244	0.03
383.451	0
383.658	0.07
383.864	0.02
384.071	0.02
384.277	0.1
384.484	0.01
384.69	0.06
384.897	0
385.103	-0.02
385.31	0.02
385.516	0.02
385.723	-0
385.929	-0.01
386.136	-0.02
386.342	0.02
386.549	0.01
386.755	0.06
386.961	0.05
387.168	-0.02
387.374	0.02
387.58	0.03
387.787	0.03
387.993	0
388.199	0.03
388.406	0.02
388.612	-0.01
388.818	0.01
389.024	0.01
389.231	0.04
389.437	0.12
389.643	0.03
389.849	0.01
390.055	0.02
390.261	0.04
390.467	0.02
390.674	-0.03
390.88	0.04
391.086	0.05
391.292	-0.03
391.498	0.06
391.704	0.05
391.91	0.02
392.116	-0.01
392.322	-0.03
392.528	0.06
392.734	-0.03
392.94	0.05
393.146	0.03
393.352	0.06
393.557	0.03
393.763	0.01
393.969	0.08
394.175	0.05
394.381	0.02
394.587	0.01
394.792	-0.02
394.998	0.05
395.204	0.05
395.41	-0
395.615	0.08
395.821	-0
396.027	0.06
396.233	-0.02
396.438	0.03
396.644	0.1
396.85	0.02
397.055	0.05
397.261	0.01
397.466	0.09
397.672	0.08
397.878	0.06
398.083	0.06
398.289	0.02
398.494	0.04
398.7	0.04
398.905	-0.08
399.111	0.1
399.316	-0.01
399.522	0.06
399.727	0.01
399.932	0.03
400.138	0.04
400.343	0.08
400.549	0.05
400.754	0.03
400.959	0.06
401.165	0.03
401.37	0.03
401.575	0.15
401.78	0.01
401.986	0.04
402.191	0.07
402.396	0.03
402.601	0.07
402.807	0.02
403.012	0.04
403.217	0.08
403.422	0.06
403.627	0.03
403.832	0.03
404.037	0.09
404.243	0.06
404.448	0.02
404.653	-0
404.858	0.04
405.063	0.1
405.268	-0
405.473	0.01
405.678	0.05
405.883	0.19
406.088	0.05
406.293	-0
406.498	-0.02
406.703	0.05
406.907	0.04
407.112	-0
407.317	0.12
407.522	0.07
407.727	-0.03
407.932	0.02
408.136	0.1
408.341	0.08
408.546	0.08
408.751	0.06
408.956	0.01
409.16	0.09
409.365	0.06
409.57	0.02
409.774	0.04
409.979	0.08
410.184	0.03
410.388	0.03
410.593	0.06
410.798	0.02
411.002	0.01
411.207	0.04
411.411	0.07
411.616	0.04
411.82	-0
412.025	0.05
412.229	0.04
412.434	0.11
412.638	0.05
412.843	-0.01
413.047	0.04
413.252	-0.02
413.456	-0.01
413.66	0.06
413.865	0.01
414.069	0.1
414.273	-0.02
414.478	0.04
414.682	0.03
414.886	-0.01
415.091	-0.04
415.295	-0
415.499	0.09
415.703	0.03
415.908	0.04
416.112	-0.07
416.316	0.03
416.52	0.03
416.724	-0.02
416.929	-0.02
417.133	0.11
417.337	0.05
417.541	0.01
417.745	0.03
417.949	0.04
418.153	0.04
418.357	-0.04
418.561	0.1
418.765	0
418.969	0.09
419.173	0.06
419.377	-0
419.581	0.14
419.785	0.01
419.989	-0.03
420.193	0.01
420.397	0.08
420.601	0.09
420.804	0.04
421.008	0.06
421.212	0.05
421.416	0.09
421.62	0
421.823	0.01
422.027	0.14
422.231	0.02
422.435	0.06
422.638	0.01
422.842	-0.03
423.046	0
423.249	0.07
423.453	0.06
423.657	0.07
423.86	0.04
424.064	0.01
424.268	0.11
424.471	0.07
424.675	0.13
424.878	0.11
425.082	0.04
425.285	0.05
425.489	0.09
425.692	0.07
425.896	0.02
426.099	0.05
426.303	-0.03
426.506	-0.04
426.71	0.05
426.913	0.07
427.116	0.09
427.32	0.05
427.523	0.03
427.726	0.13
427.93	0
428.133	0.06
428.336	-0.02
428.54	0.02
428.743	0.06
428.946	0.05
429.149	-0.01
429.353	0.04
429.556	0.04
429.759	0.04
429.962	0
430.165	0.04
430.368	0.04
430.571	0.04
430.775	0.07
430.978	-0
431.181	0.05
431.384	0.05
431.587	0.02
431.79	0.05
431.993	0.04
432.196	0.04
432.399	0.02
432.602	0.09
432.805	0.01
433.008	0.01
433.211	-0.02
433.414	0.04
433.616	0.08
433.819	0.03
434.022	-0.03
434.225	0.14
434.428	0.08
434.631	0.15
434.833	0.02
435.036	0.04
435.239	0.09
435.442	0.02
435.645	-0.01
435.847	0.03
436.05	0.11
436.253	0.04
436.455	0.02
436.658	-0
436.861	0.12
437.063	0.03
437.266	0
437.468	0.05
437.671	0.16
437.874	0.03
438.076	-0.05
438.279	-0.05
438.481	0.05
438.684	-0.02
438.886	0.05
439.089	-0.02
439.291	0.13
439.494	0.07
439.696	-0.02
439.899	0.02
440.101	0.03
440.303	-0.05
440.506	0.08
440.708	0.01
440.91	0.05
441.113	-0.02
441.315	0.04
441.517	-0.02
441.72	0.07
441.922	-0.01
442.124	0.02
442.326	0.03
442.529	0.08
442.731	0
442.933	0.12
443.135	0.05
443.337	0.04
443.539	0.03
443.742	0.03
443.944	0.05
444.146	0.01
444.348	0.01
444.55	0.01
444.752	0.03
444.954	0.01
445.156	0.05
445.358	0.02
445.56	0.07
445.762	-0
445.964	0.06
446.166	0.02
446.368	-0.02
446.57	0.09
446.772	0.03
446.974	0.05
447.175	0.06
447.377	0.07
447.579	0.05
447.781	-0.02
447.983	0.14
448.184	0.05
448.386	0.06
448.588	-0.02
448.79	0.07
448.991	0.04
449.193	0.06
449.395	0.01
449.597	0.11
449.798	0.13
450	0.06
450.202	0.04
450.403	0.06
450.605	0.1
450.806	0.04
451.008	-0.07
451.21	0.04
451.411	0.04
451.613	0.03
451.814	0.1
452.016	0.06
452.217	0.06
452.419	0.09
452.62	0.06
452.821	0.07
453.023	0.12
453.224	0.07
453.426	0.04
453.627	0.08
453.828	0.11
454.03	0.04
454.231	0.03
454.432	-0.04
454.634	0.13
454.835	0.02
455.036	-0.01
455.238	0.09
455.439	0.17
455.64	-0.01
455.841	0.05
456.042	0.2
456.244	0.05
456.445	0.02
456.646	0.02
456.847	0.02
457.048	0.05
457.249	0.09
457.45	0.23
457.651	0
457.852	0.08
458.054	0.09
458.255	0.03
458.456	0.08
458.657	0.04
458.858	0.01
459.058	0.04
459.259	0.11
459.46	0.03
459.661	0.07
459.862	0.2
460.063	0.06
460.264	0.14
460.465	-0.01
460.666	0.16
460.866	0.02
461.067	0.02
461.268	0.03
461.469	0.04
461.67	0.07
461.87	0.05
462.071	-0.01
462.272	0.03
462.473	0.04
462.673	0.11
462.874	-0.01
463.075	0.09
463.275	0.02
463.476	0.08
463.676	0.11
463.877	0.05
464.078	0.02
464.278	0.1
464.479	0.02
464.679	0.07
464.88	0.07
465.08	0.06
465.281	0.04
465.481	0.02
465.682	0.08
465.882	0.07
466.083	0.07
466.283	0.07
466.483	0.08
466.684	0.05
466.884	0.07
467.085	0.05
467.285	0.13
467.485	0.03
467.686	0.04
467.886	-0.01
468.086	0.02
468.286	0.06
468.487	0.08
468.687	-0
468.887	0.06
469.087	0.06
469.287	0.07
469.488	-0.01
469.688	0.06
469.888	0.13
470.088	0.13
470.288	0.1
470.488	0.12
470.688	0
470.888	0.03
471.088	0.05
471.288	0.08
471.488	0.07
471.688	0.06
471.888	0.07
472.088	0.12
472.288	0.11
472.488	0.03
472.688	0.05
472.888	0.07
473.088	0.09
473.288	0.05
473.488	0.09
473.688	0.13
473.887	0.09
474.087	0.07
474.287	0.1
474.487	0.06
474.687	0.1
474.886	0.04
475.086	0.06
475.286	0.06
475.486	0.05
475.685	0.07
475.885	0.07
476.085	0.03
476.284	0.15
476.484	0.05
476.684	0.11
476.883	0.16
477.083	0.13
477.282	0.03
477.482	0.12
477.681	0.12
477.881	0.08
478.08	0.03
478.28	0.09
478.479	0.11
478.679	0.16
478.878	0.08
479.078	0.07
479.277	0.06
479.477	0.07
479.676	0.13
479.875	0.12
480.075	0.01
480.274	0.11
480.473	0.11
480.673	0.08
480.872	0.11
481.071	0.12
481.271	0.13
481.47	0.07
481.669	0.09
481.868	0.08
482.067	0.07
482.267	0.07
482.466	0.09
482.665	0.07
482.864	0.09
483.063	0.07
483.262	0.11
483.461	0.19
483.661	0.16
483.86	0.14
484.059	0.12
484.258	0.11
484.457	0.1
484.656	0.17
484.855	0.2
485.054	0.09
485.253	0.13
485.452	0.08
485.651	0.15
485.849	0.14
486.048	0.13
486.247	0.14
486.446	0.15
486.645	0.1
486.844	0.12
487.043	0.16
487.241	0.2
487.44	0.17
487.639	0.19
487.838	0.17
488.037	0.16
488.235	0.26
488.434	0.2
488.633	0.18
488.831	0.21
489.03	0.22
489.229	0.22
489.427	0.19
489.626	0.28
489.825	0.24
490.023	0.21
490.222	0.22
490.42	0.24
490.619	0.27
490.817	0.26
491.016	0.22
491.214	0.27
491.413	0.26
491.611	0.27
491.81	0.26
492.008	0.28
492.207	0.31
492.405	0.3
492.604	0.23
492.802	0.3
493	0.3
493.199	0.3
493.397	0.31
493.595	0.32
493.794	0.31
493.992	0.38
494.19	0.34
494.388	0.39
494.587	0.33
494.785	0.37
494.983	0.33
495.181	0.39
495.379	0.42
495.578	0.41
495.776	0.42
495.974	0.43
496.172	0.4
496.37	0.43
496.568	0.46
496.766	0.44
496.964	0.51
497.162	0.49
497.36	0.47
497.558	0.55
497.756	0.54
497.954	0.51
498.152	0.54
498.35	0.59
498.548	0.52
498.746	0.58
498.944	0.55
499.142	0.57
499.34	0.59
499.538	0.66
499.736	0.6
499.933	0.7
500.131	0.73
500.329	0.74
500.527	0.74
500.725	0.76
500.922	0.79
501.12	0.77
501.318	0.81
501.516	0.83
501.713	0.85
501.911	0.85
502.109	0.84
502.306	0.88
502.504	0.88
502.701	0.92
502.899	0.95
503.097	1.03
503.294	1.01
503.492	1.03
503.689	1.08
503.887	1.11
504.084	1.15
504.282	1.14
504.479	1.11
504.677	1.19
504.874	1.15
505.072	1.18
505.269	1.26
505.466	1.29
505.664	1.35
505.861	1.28
506.059	1.31
506.256	1.39
506.453	1.4
506.651	1.51
506.848	1.53
507.045	1.53
507.242	1.55
507.44	1.6
507.637	1.64
507.834	1.63
508.031	1.71
508.229	1.66
508.426	1.7
508.623	1.82
508.82	1.78
509.017	1.87
509.214	1.84
509.411	1.92
509.608	1.93
509.805	1.98
510.003	2.02
510.2	2.04
510.397	2.16
510.594	2.1
510.791	2.2
510.988	2.2
511.184	2.23
511.381	2.26
511.578	2.29
511.775	2.43
511.972	2.38
512.169	2.44
512.366	2.49
512.563	2.53
512.76	2.54
512.956	2.7
513.153	2.66
513.35	2.63
513.547	2.64
513.744	2.73
513.94	2.78
514.137	2.87
514.334	2.88
514.53	2.92
514.727	3.05
514.924	3.09
515.12	3.04
515.317	3.06
515.514	3.02
515.71	3.1
515.907	3.22
516.103	3.27
516.3	3.25
516.497	3.29
516.693	3.34
516.89	3.37
517.086	3.35
517.283	3.49
517.479	3.42
517.676	3.48
517.872	3.54
518.068	3.58
518.265	3.54
518.461	3.58
518.658	3.63
518.854	3.66
519.05	3.75
519.247	3.8
519.443	3.78
519.639	3.82
519.836	3.75
520.032	3.76
520.228	3.87
520.424	3.85
520.621	3.92
520.817	3.86
521.013	3.88
521.209	4
521.405	3.96
521.601	3.96
521.798	3.92
521.994	3.96
522.19	3.94
522.386	3.87
522.582	3.99
522.778	4.06
522.974	3.95
523.17	4
523.366	3.92
523.562	3.99
523.758	4.02
523.954	3.9
524.15	3.95
524.346	4.01
524.542	3.97
524.738	3.93
524.934	4.01
525.129	3.97
525.325	3.93
525.521	3.89
525.717	4.02
525.913	3.89
526.109	3.83
526.304	3.9
526.5	3.9
526.696	3.9
526.892	3.82
527.087	3.92
527.283	3.84
527.479	3.81
527.674	3.65
527.87	3.75
528.066	3.71
528.261	3.73
528.457	3.63
528.653	3.69
528.848	3.61
529.044	3.65
529.239	3.55
529.435	3.55
529.63	3.5
529.826	3.47
530.021	3.43
530.217	3.4
530.412	3.39
530.608	3.36
530.803	3.34
530.999	3.21
531.194	3.21
531.389	3.26
531.585	3.16
531.78	3.23
531.975	3.19
532.171	3.15
532.366	3.08
532.561	3.09
532.757	3
532.952	3.06
533.147	2.93
533.342	2.94
533.538	2.9
533.733	2.92
533.928	2.79
534.123	2.79
534.318	2.76
534.513	2.71
534.709	2.75
534.904	2.7
535.099	2.71
535.294	2.66
535.489	2.61
535.684	2.55
535.879	2.52
536.074	2.54
536.269	2.51
536.464	2.5
536.659	2.45
536.854	2.4
537.049	2.38
537.244	2.35
537.439	2.29
537.634	2.33
537.828	2.32
538.023	2.23
538.218	2.17
538.413	2.19
538.608	2.16
538.803	2.17
538.997	2.1
539.192	2.12
539.387	2.06
539.582	2.03
539.776	1.99
539.971	2.02
540.166	1.98
540.36	1.95
540.555	1.97
540.75	1.95
540.944	1.88
541.139	1.88
541.334	1.84
541.528	1.87
541.723	1.86
541.917	1.86
542.112	1.72
542.306	1.71
542.501	1.72
542.695	1.74
542.89	1.68
543.084	1.68
543.279	1.64
543.473	1.68
543.668	1.63
543.862	1.61
544.056	1.6
544.251	1.57
544.445	1.6
544.64	1.55
544.834	1.47
545.028	1.43
545.222	1.47
545.417	1.56
545.611	1.47
545.805	1.44
546	1.39
546.194	1.38
546.388	1.39
546.582	1.38
546.776	1.35
546.97	1.31
547.165	1.3
547.359	1.32
547.553	1.26
547.747	1.3
547.941	1.27
548.135	1.23
548.329	1.26
548.523	1.25
548.717	1.18
548.911	1.2
549.105	1.14
549.299	1.17
549.493	1.19
549.687	1.14
549.881	1.15
550.075	1.1
550.269	1.03
550.463	1.11
550.657	1.03
550.85	1.03
551.044	1.02
551.238	1
551.432	0.97
551.626	0.97
551.82	0.99
552.013	0.92
552.207	0.93
552.401	0.95
552.594	0.91
552.788	0.92
552.982	0.88
553.176	0.86
553.369	0.9
553.563	0.87
553.756	0.82
553.95	0.84
554.144	0.85
554.337	0.86
554.531	0.77
554.724	0.82
554.918	0.79
555.111	0.77
555.305	0.79
555.498	0.79
555.692	0.78
555.885	0.72
556.079	0.74
556.272	0.7
556.466	0.73
556.659	0.7
556.852	0.67
557.046	0.67
557.239	0.68
557.432	0.62
557.626	0.63
557.819	0.65
558.012	0.64
558.206	0.65
558.399	0.58
558.592	0.6
558.785	0.58
558.979	0.61
559.172	0.6
559.365	0.59
559.558	0.56
559.751	0.54
559.944	0.54
560.138	0.5
560.331	0.5
560.524	0.5
560.717	0.49
560.91	0.51
561.103	0.52
561.296	0.5
561.489	0.49
561.682	0.49
561.875	0.5
562.068	0.49
562.261	0.45
562.454	0.52
562.647	0.44
562.84	0.45
563.032	0.43
563.225	0.44
563.418	0.42
563.611	0.42
563.804	0.42
563.997	0.39
564.19	0.36
564.382	0.43
564.575	0.39
564.768	0.38
564.961	0.38
565.153	0.37
565.346	0.38
565.539	0.36
565.731	0.38
565.924	0.41
566.117	0.37
566.309	0.34
566.502	0.33
566.695	0.35
566.887	0.36
567.08	0.32
567.272	0.3
567.465	0.32
567.657	0.31
567.85	0.35
568.042	0.33
568.235	0.32
568.427	0.32
568.62	0.29
568.812	0.32
569.005	0.3
569.197	0.26
569.389	0.29
569.582	0.3
569.774	0.28
569.966	0.24
570.159	0.23
570.351	0.28
570.543	0.25
570.736	0.25
570.928	0.24
571.12	0.24
571.312	0.2
571.505	0.22
571.697	0.31
571.889	0.21
572.081	0.24
572.273	0.21
572.465	0.26
572.658	0.23
572.85	0.24
573.042	0.2
573.234	0.22
573.426	0.24
573.618	0.18
573.81	0.21
574.002	0.27
574.194	0.24
574.386	0.16
574.578	0.13
574.77	0.18
574.962	0.18
575.154	0.16
575.346	0.17
575.538	0.19
575.729	0.15
575.921	0.2
576.113	0.17
576.305	0.2
576.497	0.16
576.689	0.17
576.88	0.14
577.072	0.18
577.264	0.17
577.456	0.15
577.647	0.1
577.839	0.14
578.031	0.19
578.223	0.11
578.414	0.12
578.606	0.19
578.798	0.17
578.989	0.12
579.181	0.15
579.372	0.14
579.564	0.12
579.755	0.14
579.947	0.16
580.139	0.16
580.33	0.09
580.522	0.1
580.713	0.05
580.905	0.15
581.096	0.15
581.287	0.13
581.479	0.14
581.67	0.16
581.862	0.11
582.053	0.12
582.244	0.08
582.436	0.15
582.627	0.12
582.818	0.1
583.01	0.08
583.201	0.13
583.392	0.14
583.583	0.13
583.775	0.12
583.966	0.08
584.157	0.09
584.348	0.08
584.54	0.07
584.731	0.1
584.922	0.1
585.113	0.07
585.304	0.12
585.495	0.12
585.686	0.11
585.877	0.11
586.068	0.12
586.259	0.1
586.45	0.09
586.641	0.06
586.832	0.06
587.023	0.12
587.214	0.09
587.405	0.1
587.596	0.06
587.787	0.1
587.978	0.12
588.169	0.06
588.36	0.07
588.551	0.08
588.742	0.08
588.932	0.08
589.123	0.07
589.314	0.12
589.505	0.09
589.696	0.08
589.886	0.08
590.077	0.05
590.268	0.06
590.458	0.03
590.649	0.03
590.84	0.12
591.03	0.03
591.221	0.02
591.412	0.05
591.602	0.09
591.793	0.11
591.984	0.02
592.174	0.06
592.365	0.13
592.555	0.05
592.746	0.08
592.936	0.09
593.127	0.09
593.317	0.1
593.508	0.05
593.698	0.06
593.889	0.05
594.079	0.1
594.269	0.06
594.46	0.05
594.65	0.07
594.84	0.07
595.031	0.02
595.221	0.04
595.411	0.03
595.602	0.09
595.792	0.07
595.982	0.04
596.172	0.09
596.363	0.06
596.553	0.06
596.743	0.06
596.933	0.07
597.123	0.07
597.314	0.03
597.504	0.03
597.694	0.08
597.884	0.08
598.074	0.06
598.264	0.03
598.454	0.08
598.644	0.02
598.834	0.06
599.024	-0
599.214	0.04
599.404	0.09
599.594	0.01
599.784	0.03
599.974	0.09
600.164	0.07
600.354	0.02
600.544	-0.01
600.734	0.05
600.924	0.1
601.114	-0
601.303	0.06
601.493	0.07
601.683	0.02
601.873	0.06
602.063	0.02
602.252	0.05
602.442	-0.03
602.632	0.02
602.821	-0
603.011	0.06
603.201	0.02
603.39	0
603.58	0.03
603.77	0.05
603.959	0.08
604.149	0.06
604.339	0.04
604.528	0.08
604.718	0.07
604.907	0.04
605.097	0.01
605.286	0.02
605.476	0.06
605.665	0.06
605.855	0.02
606.044	0.1
606.234	0.06
606.423	0.02
606.612	-0
606.802	0.06
606.991	0.03
607.181	0.04
607.37	-0.02
607.559	0.04
607.749	-0.01
607.938	0.05
608.127	0
608.316	0.04
608.506	0.05
608.695	0.05
608.884	0.02
609.073	0.05
609.263	0.06
609.452	0.06
609.641	0.04
609.83	-0.01
610.019	0.01
610.208	0.01
610.397	0.01
610.586	0.03
610.775	0.01
610.965	0.03
611.154	0.01
611.343	0.07
611.532	0.03
611.721	0.01
611.91	0.01
612.099	0.06
612.287	0.03
612.476	0
612.665	0.06
612.854	0.02
613.043	0.07
613.232	0.03
613.421	-0.01
613.61	0.04
613.798	0
613.987	0.05
614.176	0.02
614.365	0.06
614.554	0.05
614.742	0.06
614.931	0.03
615.12	0.06
615.309	0.02
615.497	0.05
615.686	-0.02
615.875	0.01
616.063	0.05
616.252	0
616.44	0.03
616.629	0.05
616.818	0.06
617.006	0.02
617.195	0
617.383	0.06
617.572	0.03
617.76	-0
617.949	0.03
618.137	0.05
618.326	0.09
618.514	0.01
618.703	-0.02
618.891	0.05
619.079	-0.03
619.268	0.04
619.456	0.02
619.644	0.06
619.833	0.03
620.021	0.01
620.209	-0.01
620.398	0.05
620.586	0.03
620.774	0.03
620.962	0.02
621.151	0.07
621.339	0.02
621.527	-0.01
621.715	0.01
621.903	-0.02
622.092	-0.03
622.28	0.04
622.468	0.01
622.656	0.02
622.844	0.08
623.032	0.01
623.22	-0.06
623.408	0.07
623.596	0.06
623.784	0.07
623.972	-0.02
624.16	0.01
624.348	0.08
624.536	0.01
624.724	0.01
624.912	0.07
625.1	0.06
625.288	-0.01
625.476	0.02
625.664	0.07
625.851	-0.02
626.039	0.02
626.227	0.03
626.415	0.05
626.603	-0.05
626.79	0.05
626.978	0.02
627.166	0.05
627.354	0.05
627.541	-0
627.729	-0.07
627.917	0.04
628.104	0.07
628.292	0.03
628.48	0.01
628.667	0.03
628.855	0.05
629.042	0.01
629.23	-0.02
629.418	0.03
629.605	-0.01
629.793	-0.01
629.98	-0.01
630.168	0.01
630.355	0.04
630.543	0.04
630.73	-0.02
630.917	0.04
631.105	0.08
631.292	0
631.48	0.03
631.667	0.07
631.854	0.04
632.042	0.01
632.229	-0.05
632.416	0.03
632.604	0.05
632.791	-0.02
632.978	0.07
633.165	0.05
633.353	0.05
633.54	0.05
633.727	-0.05
633.914	-0.02
634.101	-0.02
634.289	0.08
634.476	-0.01
634.663	0.02
634.85	0.06
635.037	0
635.224	-0.03
635.411	0.05
635.598	0.05
635.785	0.01
635.972	-0.01
636.159	0.04
636.346	-0
636.533	0.03
636.72	0.01
636.907	0.02
637.094	0.07
637.281	0.01
637.468	0.04
637.655	0.03
637.842	0.02
638.029	-0.01
638.215	0.04
638.402	0
638.589	-0
638.776	0.02
638.963	-0.01
639.149	0.05
639.336	0.07
639.523	-0.01
639.709	0.01
639.896	0.02
640.083	0.09
640.27	0.04
640.456	-0.01
640.643	0.03
640.829	-0.02
641.016	0.02
641.203	-0.03
641.389	0.05
641.576	0.06
641.762	0
641.949	-0.03
642.135	0.05
642.322	0.04
642.508	-0.03
642.695	-0.01
642.881	0.01
643.068	-0.01
643.254	0.02
643.441	0.04
643.627	0.01
643.813	0.03
644	0.03
644.186	-0
644.372	0.03
644.559	0.05
644.745	-0.02
644.931	-0
645.118	0.02
645.304	0.02
645.49	-0.01
645.676	0.02
645.862	0.01
646.049	0.04
646.235	0.01
646.421	0.05
646.607	0.07
646.793	-0.02
646.979	0.01
647.165	0.02
647.352	0
647.538	0.06
647.724	0.01
647.91	0.03
648.096	0.06
648.282	0.06
648.468	-0
648.654	0.02
648.84	0.02
649.026	0
649.212	0.02
649.397	-0.01
649.583	-0.03
649.769	0.05
649.955	-0.01
650.141	-0
650.327	0.06
650.513	-0.01
650.698	0.06
650.884	-0.05
651.07	0.02
651.256	0.03
651.442	-0
651.627	0
651.813	0.02
651.999	0.03
652.184	0.04
652.37	-0.01
652.556	0.01
652.741	0.08
652.927	-0.06
653.113	0.01
653.298	0.03
653.484	0.01
653.669	-0.04
653.855	0.04
654.04	0.02
654.226	0.04
654.412	0.02
654.597	-0.02
654.782	0.01
654.968	0.05
655.153	0
655.339	0.01
655.524	-0.03
655.71	0.08
655.895	-0.01
656.08	-0.02
656.266	0.03
656.451	0.04
656.636	-0
656.822	0.04
657.007	-0.06
657.192	0.01
657.378	-0.05
657.563	0.03
657.748	0.06
657.933	0
658.118	-0
658.304	-0.01
658.489	0.06
658.674	0.04
658.859	-0.02
659.044	0.05
659.229	0.03
659.414	0
659.599	0.01
659.785	-0.02
659.97	0.01
660.155	0.04
660.34	0.03
660.525	0.01
660.71	-0.02
660.895	0.05
661.08	-0
661.264	-0.03
661.449	0.08
661.634	0.04
661.819	0.06
662.004	0.04
662.189	-0.04
662.374	-0.01
662.559	-0.05
662.743	-0.03
662.928	-0
663.113	-0.03
663.298	-0.06
663.483	-0.02
663.667	0.05
663.852	-0.02
664.037	0.03
664.221	-0.01
664.406	0.05
664.591	0.04
664.775	0
664.96	0.03
665.145	0.03
665.329	0.02
665.514	-0.03
665.698	-0.02
665.883	-0.05
666.068	0.08
666.252	0.01
666.437	-0.01
666.621	-0.01
666.806	0.05
666.99	0.03
667.174	-0.02
667.359	0.05
667.543	0.01
667.728	0
667.912	-0.05
668.096	0.05
668.281	0.05
668.465	-0.01
668.649	0.02
668.834	-0.01
669.018	0.03
669.202	-0.02
669.387	-0.03
669.571	0.04
669.755	-0.01
669.939	0.02
670.124	0.01
670.308	0.07
670.492	0.06
670.676	0.01
670.86	0.03
671.044	-0.01
671.228	0.04
671.413	-0.04
671.597	0.01
671.781	0.03
671.965	0.07
672.149	0
672.333	-0
672.517	-0
672.701	0.03
672.885	-0.02
673.069	-0.03
673.253	0.08
673.437	0.03
673.621	-0.01
673.804	0.05
673.988	0.02
674.172	-0.01
674.356	-0.04
674.54	-0
674.724	0.1
674.908	0.03
675.091	0.06
675.275	0.01
675.459	0.05
675.643	-0.01
675.826	0.05
676.01	0.02
676.194	-0.02
676.377	0.08
676.561	0.05
676.745	0.06
676.928	0.05
677.112	0.07
677.296	0.02
677.479	0.02
677.663	0.01
677.846	0.05
678.03	0.03
678.213	-0.03
678.397	0.07
678.58	0.05
678.764	-0
678.947	0.02
679.131	0.04
679.314	0.06
679.498	-0.01
679.681	0.06
679.865	0.1
680.048	0.04
680.231	-0.02
680.415	0.01
680.598	-0
680.781	-0
680.965	-0.02
681.148	0.05
681.331	0.01
681.514	0.04
681.698	-0.01
681.881	0.04
682.064	0.05
682.247	0.08
682.43	-0.03
682.614	0.06
682.797	0.09
682.98	0.09
683.163	-0.01
683.346	0.07
683.529	0.01
683.712	-0.02
683.895	0.06
684.078	-0.03
684.261	0.03
684.444	0.06
684.627	0.01
684.81	0.02
684.993	0.06
685.176	0.02
685.359	-0.04
685.542	-0.02
685.725	0.07
685.908	0.04
686.091	0.03
686.274	0.09
686.457	0.05
686.639	0.03
686.822	0.05
687.005	0.04
687.188	0.06
687.371	0.06
687.553	0.05
687.736	0.07
687.919	0.07
688.102	0.08
688.284	-0.05
688.467	0.06
688.65	0.01
688.832	-0
689.015	-0.01
689.197	-0.02
689.38	0.1
689.563	0.09
689.745	0.02
689.928	-0.02
690.11	-0.03
690.293	0.06
690.475	-0.06
690.658	0.04
690.84	0.02
691.023	0.02
691.205	-0.03
691.388	0.02
691.57	0.05
691.752	0.01
691.935	-0.05
692.117	-0.02
692.3	0.01
692.482	-0.01
692.664	0.07
692.847	0.05
693.029	0.09
693.211	0.07
693.393	0
693.576	-0.01
693.758	-0.01
693.94	0
694.122	0
694.304	-0.01
694.487	0.02
694.669	0.1
694.851	-0.01
695.033	0.04
695.215	0.01
695.397	0.01
695.579	0.09
695.761	-0.03
695.943	-0.03
696.125	0.09
696.308	0.05
696.49	-0.06
696.671	0.11
696.853	0.05
697.035	0.16
697.217	0.07
697.399	0.01
697.581	0.03
697.763	0.04
697.945	0.02
698.127	0.03
698.309	-0.08
698.491	0.04
698.672	0.04
698.854	0.03
699.036	0.15
699.218	-0.02
699.399	0.08
699.581	0.08
699.763	0.03
699.945	-0.03
700.126	-0.06
700.308	0.06
700.49	0.06
700.671	-0.05
700.853	0.05
701.035	-0
701.216	0.04
701.398	0.01
701.579	0.01
701.761	0.07
701.943	-0.01
702.124	-0.04
702.306	0.04
702.487	0.1
702.669	0.01
702.85	-0.03
703.031	-0.04
703.213	0.14
703.394	0.09
703.576	-0.02
703.757	0.11
703.938	0.04
704.12	0.19
704.301	-0.02
704.483	0.02
704.664	0.04
704.845	0.09
705.026	0.08
705.208	0.02
705.389	0.07
705.57	0.03
705.751	0.03
705.933	0.08
706.114	0.12
706.295	0.1
706.476	0.03
706.657	0.12
706.838	0.04
707.02	0.03
707.201	-0.03
707.382	0.01
707.563	0.06
707.744	0.02
707.925	-0
708.106	0
708.287	-0.01
708.468	0.13
708.649	-0
708.83	0.09
709.011	0.02
709.192	0.07
709.373	-0.05
709.554	0.05
709.734	0.09
709.915	-0
710.096	-0.02
710.277	-0.04
710.458	0.1
710.639	0.01
710.819	-0.04
711	0
711.181	0.14
711.362	0.12
711.542	0.02
711.723	-0.01
711.904	0.05
712.085	-0.02
712.265	0.05
712.446	-0.04
712.627	-0.04
712.807	0.01
712.988	-0
713.168	-0.08
713.349	0.02
713.53	-0.09
713.71	-0.08
713.891	-0.03
714.071	0.1
714.252	0.03
714.432	0.09
714.613	-0.01
714.793	0.04
714.974	0.12
715.154	0.1
715.334	0.01
715.515	0.08
715.695	-0.05
715.876	-0.01
716.056	0.02
716.236	-0.05
716.417	-0.01
716.597	-0.02
716.777	0.2
716.957	0.02
717.138	0.03
717.318	0.02
717.498	-0.09
717.678	0.01
717.859	0.03
718.039	-0.05
718.219	0.06
718.399	0.15
718.579	-0.06
718.759	-0.06
718.939	0.01
719.12	-0.03
719.3	-0.02
719.48	-0.09
719.66	-0.1
719.84	0.18
720.02	0.08
720.2	-0.07
720.38	0.05
720.56	0.17
720.74	0.05
720.92	0.05
721.1	0.11
721.279	0.11
721.459	0.05
721.639	-0.1
721.819	0.02
721.999	0.02
722.179	0.05
722.359	-0.04
722.538	0.07
722.718	0.06
722.898	-0
723.078	-0.11
723.257	-0.06
723.437	0.06
723.617	0.01
723.797	-0.03
723.976	-0.02
724.156	-0.02
724.336	0.1
724.515	0.17
724.695	-0.07
724.874	-0.01
725.054	0.11
725.234	-0
725.413	0.05
725.593	0.05
725.772	0.01
725.952	0.05
726.131	0.04
726.311	0.11
726.49	-0.03
726.67	-0.04
726.849	0.05
727.028	0.11
727.208	0.03
727.387	0.06
727.567	-0
727.746	0.02
727.925	-0.01
728.105	-0.09
728.284	0.02
728.463	-0.03
728.643	0.18
728.822	-0.05
729.001	0.01
729.18	0.06
729.359	0.14
729.539	-0.07
729.718	0.03
729.897	0.08
730.076	-0
730.255	-0.12
730.434	-0.01
730.614	0.07
730.793	0.13
730.972	-0.08
731.151	-0.03
731.33	0.12
731.509	0.13
731.688	-0.08
731.867	-0
732.046	-0.08
732.225	0.21
732.404	-0.05
732.583	-0.07
732.762	0.05
732.941	0.13
733.12	0.14
733.298	0.05
733.477	0.12
733.656	-0
733.835	-0.09
734.014	0.1
734.193	0.03
734.371	0.11
734.55	0.03
734.729	-0.1
734.908	0.09
735.086	0.11
735.265	0.12
735.444	-0.07
735.623	-0.05
735.801	-0.02
735.98	0
736.159	0
736.337	0.25
736.516	0.04
736.694	0.04
736.873	-0.04
737.052	0.1
737.23	0.16
737.409	-0.07
737.587	0.24
737.766	-0.13
737.944	-0.09
738.123	0.08
738.301	0.03
738.479	-0.1
738.658	0.02
738.836	-0.1
739.015	0.04
739.193	0.23
739.371	-0.07
739.55	0.03
739.728	-0.12
739.906	0.16
740.085	0.11
740.263	0.03
740.441	-0.17
740.62	0.16
740.798	0.04
740.976	0.01
741.154	0.04
741.332	0.16
741.511	-0.05
741.689	0.08
741.867	0.11
742.045	0.04
742.223	0.01
742.401	-0.06
742.579	-0.08
742.757	0.12
742.935	-0.06
743.114	-0.06
743.292	-0.12
743.47	0.1
743.648	0.07
743.826	0.04
744.004	0.07
744.181	0.11
744.359	0.03
744.537	0.06
744.715	-0.03
744.893	0.1
745.071	0.04
745.249	0.05
745.427	0.1
745.605	0.05
745.782	0.09
745.96	0.11
746.138	0.28
746.316	0.21
746.493	0.01
746.671	0.1
746.849	0.07
747.027	0.13
747.204	0.04
747.382	0.16
747.56	-0.02
747.737	0.04
747.915	0.02
748.093	0.08
748.27	-0.07
748.448	0.09
748.625	-0.07
748.803	-0.08
748.98	0.05
749.158	-0.03
749.335	0.12
749.513	0
749.69	0.03
749.868	0.09
750.045	0.13
750.223	0
750.4	-0.12
750.578	0.31
750.755	0.06
750.932	-0.02
751.11	0.18
751.287	-0.17
751.464	0.18
751.642	-0.08
751.819	0.13
751.996	0.08
752.173	-0.06
752.351	-0.05
752.528	0.04
752.705	0.03
752.882	0
753.06	0.03
753.237	0.05
753.414	0.21
753.591	0.16
753.768	0.02
753.945	-0.02
754.122	0.01
754.299	-0.01
754.476	-0
754.654	-0.05
754.831	0.16
755.008	-0.01
755.185	-0.05
755.362	-0.04
755.539	0.09
755.716	0.06
755.892	-0
756.069	-0.07
756.246	-0.03
756.423	0.12
756.6	0.1
756.777	0.07
756.954	0.17
757.131	0.08
757.307	-0.02
757.484	-0.1
757.661	0.06
757.838	0.06
758.015	-0.13
758.191	0.1
758.368	-0.03
758.545	0.23
758.721	0.08
758.898	-0.02
759.075	0.15
759.251	0.22
759.428	0.1
759.605	-0.13
759.781	0.02
759.958	0.04
760.134	0.06
760.311	0
760.488	0.13
760.664	0.13
760.841	0.05
761.017	-0.07
761.194	0.11
761.37	0.12
761.547	-0.01
761.723	-0.04
761.899	0.11
762.076	-0.07
762.252	-0.1
762.429	-0.06
762.605	0.23
762.781	0.09
762.958	0.19
763.134	-0.01
763.31	-0.04
763.486	0.16
763.663	-0.07
763.839	-0.02
764.015	-0.13
764.191	-0.02
764.368	-0.06
764.544	-0.09
764.72	0.08
764.896	0.18
765.072	-0.04
765.248	-0.14
765.425	-0.01
765.601	-0.06
765.777	0.05
765.953	-0.17
766.129	-0.17
766.305	-0.01
766.481	0.12
766.657	0.05
766.833	0.13
767.009	-0.02
767.185	-0.01
767.361	0.05
767.537	-0.06
767.713	0.25
767.889	-0.03
768.065	0
768.24	0.02
768.416	0.14
768.592	0.02
768.768	0.09
768.944	0.04
769.12	-0.13
769.295	-0.11
769.471	0.12
769.647	0.05
769.823	0.27
769.998	0.14
770.174	-0.08
770.35	0.38
770.525	0.31
770.701	0.15
770.877	-0.04
771.052	-0.05
771.228	0.12
771.403	0.13
771.579	0.1
771.755	0.4
771.93	0.05
772.106	-0.15
772.281	-0.1
772.457	-0.04
772.632	0.02
772.808	-0.14
772.983	-0.16
773.159	-0.17
773.334	0.19
773.509	-0.06
773.685	-0.06
773.86	0.39
774.036	0.15
774.211	-0
774.386	0.02
774.562	0.03
774.737	0.02
774.912	-0
775.087	0.09
775.263	0.14
775.438	0.17
775.613	-0.01
775.788	0.09
775.964	0.17
776.139	0.4
776.314	-0.18
776.489	0.14
776.664	0.17
776.839	-0
777.014	0.17
777.19	0.31
777.365	0.29
777.54	0.12
777.715	-0.01
777.89	-0.05
778.065	-0.17
778.24	-0.11
778.415	0.04
778.59	-0.17
778.765	-0.07
778.94	0.04
779.115	0.05
779.289	-0.03
779.464	-0.1
779.639	0.09
779.814	-0.01
779.989	-0.22
780.164	0.3
780.339	-0.01
780.513	-0.13
780.688	-0.11
780.863	0.09
781.038	0.21
781.212	-0.06
781.387	0.07
781.562	0.39
781.737	0.06
781.911	0.12
782.086	-0.06
782.261	0.08
782.435	0.27
782.61	-0.19
782.784	-0.1
782.959	0.26
783.134	-0.09
783.308	-0.1
783.483	-0.02
783.657	0.38
783.832	0.23
784.006	-0.39
784.181	0.09
784.355	0.29
784.53	-0.23
784.704	-0.17
784.878	0.16
785.053	0.32
785.227	0.23
785.402	0.51
785.576	-0.2
785.75	-0.1
785.925	-0.12
786.099	0.24
786.273	0.18
786.448	0.39
786.622	0.2
786.796	0.16
786.97	-0.14
787.145	0.56
787.319	-0.39
787.493	-0.13
787.667	-0.39
787.841	0
788.015	0.22
788.19	-0.03
788.364	-0.11
788.538	0.29
788.712	0.12
788.886	0.03
789.06	0.23
789.234	0.25
789.408	0.04
789.582	-0.09
789.756	0.06
789.93	0.1
790.104	-0.16
790.278	-0.17
790.452	-0.21
790.626	-0.01
790.8	-0.21
790.973	0.22
791.147	0.22
791.321	0.5
791.495	0.23
791.669	0.02
791.843	0.1
792.016	0.04
792.19	0.31
792.364	-0.19
792.538	0.7
792.711	0.21
792.885	0.22
793.059	-0.14
793.233	-0.42
793.406	0.33
793.58	0.31
793.754	0.08
793.927	-0.19
794.101	0.52
794.274	0.14
794.448	0.35
794.622	-0.07
794.795	0.31
794.969	0.06
795.142	0.37
795.316	0.21
795.489	0.02
795.663	0.51
795.836	0.22
796.009	-0.2
796.183	0.47
796.356	0.18
796.53	0.19
796.703	-0.05
796.876	0.7
797.05	-0.03
797.223	-0.05
797.396	0.1
797.57	0.05
797.743	0.4
797.916	0.01
798.09	-0.01
798.263	0.03
798.436	0.36
798.609	-0.03
798.782	-0.11
798.956	-0.01
799.129	0.21
799.302	0.02
799.475	-0.33
799.648	-0.02
799.821	-0.07
799.994	-0.17
800.167	-0.13
800.34	-0.13
800.514	0.2
800.687	-0.1
800.86	-0.13
801.033	0.23
801.206	0.19
801.379	-0.25
801.551	0.03
801.724	0.2
801.897	0.52
802.07	-0.01
802.243	-0.38
802.416	0.31
802.589	-0.12
802.762	0.1
802.935	-0.09
803.107	0.59
803.28	0.5
803.453	0.29
803.626	-0.06
803.798	0.01
803.971	-0.16
804.144	0.04
804.317	0.29
804.489	0.48
804.662	0.01
804.835	0.14
805.007	-0.09
805.18	0.4
805.353	0.15
805.525	-0.17
805.698	0.01
805.87	0.39
806.043	0.43
806.215	-0.36
806.388	-0.23
806.56	0.35
806.733	0.43
806.905	0.03
807.078	-0.13
807.25	-0.16
807.423	0.21
807.595	0.06
807.768	0.26
807.94	0.39
808.112	0.19
808.285	-0.03
808.457	-0.17
808.629	-0.15
808.802	0.18
808.974	0.64
809.146	-0.1
809.318	-0.56
809.491	0.23
809.663	0.23
809.835	0.07
810.007	-0.05
810.18	-0.26
810.352	-0.35
810.524	-0.01
810.696	0.31
810.868	0.31
811.04	-0.07
811.212	-0.14
811.384	0.37
811.556	0.22
811.728	-0.24
811.901	0.69
812.073	-0.17
812.245	0.24
812.417	-0.02
812.589	-0.59
812.76	0.09
812.932	0.57
813.104	0.41
813.276	-0.28
813.448	0.54
813.62	-0.23
813.792	0.06
813.964	0.03
814.136	-0.1
814.307	0.03
814.479	0.03
814.651	-0.21
814.823	0.72
814.995	0.12
815.166	0.25
815.338	0.14
815.51	-0.62
815.681	0.72
815.853	0.1
816.025	-0.24
816.196	0.77
816.368	0.32
816.54	-0.27
816.711	-0.13
816.883	0.07
817.054	0.88
817.226	-0.66
817.398	0.2
817.569	-0.14
817.741	-0.04
817.912	0.23
818.084	0.19
818.255	0.4
818.426	0.14
818.598	-0.2
818.769	-0.12
818.941	0.24
819.112	0.49
819.283	0.4
819.455	-0.12
819.626	0.03
819.798	0.25
819.969	0.1
820.14	0.05
820.311	0.16
820.483	0.1
820.654	0.44
820.825	0.13
820.996	-0.06
821.168	-0.23
821.339	0.08
821.51	-0.02
821.681	-0.21
821.852	-0.01
822.023	-0.54
822.195	-0.58
822.366	0.72
822.537	0.13
822.708	0.07
822.879	-0.12
823.05	0.76
823.221	-0.09
823.392	0.45
823.563	0.2
823.734	-0
823.905	-0.29
824.076	0.17
824.247	-0.43
824.418	0.18
824.589	0.96
824.759	-0.14
824.93	0.43
825.101	-0.61
825.272	0.84
825.443	0.87
825.614	0.43
825.784	-0.71
825.955	0.84
826.126	0.51
826.297	0.15
826.467	1.13
826.638	0.97
826.809	-0.85
826.98	-0.06
827.15	0.42
827.321	0.15
827.492	0.94
827.662	-0.41
827.833	0.64
828.003	0.02
828.174	-0.17
828.345	-0.57
828.515	0.63
828.686	0.33
828.856	-0.46
829.027	0.01
829.197	0.3
829.368	0.37
829.538	0.11
829.709	-0.39
829.879	0.23
830.049	0.5
830.22	-0.43
830.39	0.47
830.56	0.66
830.731	-0.24
830.901	-0.09
831.072	0.05
831.242	0.47
831.412	0.21
831.582	0.52
831.753	-1.19
831.923	0.75
832.093	0.47
832.263	0.38
832.434	-0.22
832.604	-0.23
832.774	0.53
832.944	-0.22
833.114	-0.31
833.284	0.24
833.454	-0.57
833.624	-0.21
833.795	-0.34
833.965	0.93
834.135	0.47
834.305	-0.71
834.475	-0.67
834.645	-0.01
834.815	-0.74
834.985	-0.31
835.155	-0.26
835.325	0.46
835.494	0.52
835.664	-0.26
835.834	-0.73
836.004	-0.06
836.174	0.31
836.344	-0.25
836.514	-0.72
836.684	-0.58
836.853	-0.33
837.023	0.53
837.193	-0.28
837.363	0.95
837.532	0.47
837.702	0.18
837.872	-0.57
838.041	0.37
838.211	1.13
838.381	-0.66
838.55	0.56
838.72	2.25
838.89	1.03
839.059	-0.03
839.229	-0.97
839.398	1.43
839.568	0.11
839.738	0.09
839.907	1.58
840.077	0.14
840.246	-0.79
840.416	-0.54
840.585	-0.61
840.755	1.59
840.924	0.64
841.093	-0.35
841.263	-0.22
841.432	-0.09
841.602	0.08
841.771	-0.48
841.94	0.03
842.11	1.67
842.279	1.61
842.448	-0.72
842.617	-0.6
842.787	1.74
842.956	-0.8
843.125	0.03
843.294	0.59
843.464	1.24
843.633	-0.06
843.802	-0.66
843.971	0.07
844.14	1.06
844.309	1.22
844.479	-0.42
844.648	-0.5
844.817	-0.55
844.986	0.04
845.155	-0.2
845.324	0.71
845.493	0.21
845.662	-0.59
845.831	0.26
846	1.01
846.169	0.07
846.338	1.25
846.507	-0.07
846.676	-0.19
846.844	0.04
847.013	0.61
847.182	0.69
847.351	0.05
847.52	-0.44
847.689	0.77
847.858	-0.06
848.026	-0.14
848.195	0.59
848.364	-0.66
848.533	0.82
848.701	-0.79
848.87	1.15
849.039	1.23
849.207	1.31
849.376	0.99
849.545	0.66
849.713	-0.18
849.882	-0.01
850.051	0.47
850.219	0.99
850.388	0.66
850.556	-0.14
850.725	-0.79
850.893	0.32
851.062	-0.01
851.23	1.03
851.399	-1.17
851.567	0.05
851.736	0.19
851.904	-1.48
852.073	-0.17
852.241	1.28
852.41	-0.37
852.578	0.27
852.746	-0.53
852.915	1.35
853.083	0.01
853.251	-0.03
853.42	-0.44
853.588	0.19
853.756	2.01
853.924	0.72
854.093	0.02
854.261	0.29
854.429	-1.01
854.597	0.45
854.765	-1.29
854.934	1.21
855.102	0.92
855.27	-0.19
855.438	1.03
855.606	1.28
855.774	1.79
855.942	-0.37
856.11	-1.14
856.278	1.57
856.446	0.9
856.614	-0.2
856.782	-0.38
856.95	1.38
857.118	-0.22
857.286	0.72
857.454	-1.17
857.622	1.14
857.79	0.83
857.958	-0.25
858.126	0.27
858.294	-3.18
858.462	-0.21
858.629	0.03
858.797	-0.58
858.965	0.13
859.133	0.12
859.301	-0.08
859.468	0.28
859.636	-0.46
859.804	1.78
859.971	0.8
860.139	0.04
860.307	0.66
860.474	1.12
860.642	0.95
860.81	-1.46
860.977	-0.6
861.145	1.27
861.313	0.13
861.48	-1.49
861.648	2.25
861.815	0.02
861.983	-0.49
862.15	-0.68
862.318	1.55
862.485	0.99
862.653	-0.01
862.82	-0.99
862.988	0.32
863.155	0.79
863.322	-0.37
863.49	-0.77
863.657	0
863.824	1.72
863.992	1.44
864.159	-0.3
864.326	1.82
864.494	-0.3
864.661	2.7
864.828	-0.83
864.996	0.87
865.163	1.73
865.33	0.43
865.497	-1.31
865.664	-1.03
865.832	-1.59
865.999	-1.02
866.166	-1.62
866.333	-0.83
866.5	0.84
866.667	-0.7
866.834	0.17
867.001	2.36
867.168	-2.26
867.335	0.75
867.502	-0.88
867.669	0.57
867.836	1.53
868.003	-0.72
868.17	1.03
868.337	2.85
868.504	2.35
868.671	-0.16
868.838	-0.61
869.005	0.79
869.172	0.33
869.339	-0.26
869.505	0.56
869.672	-0.3
869.839	3.17
870.006	-0.23
870.173	-2.44
870.339	1.96
870.506	3.07
870.673	-1.21
870.84	1.93
871.006	-0.44
871.173	0.69
871.34	1.49
871.506	0.04
871.673	1.56
871.839	0.17
872.006	2.23
872.173	-0.85
872.339	0.02
872.506	2.24
872.672	-0.96
872.839	-0.71
873.005	0.61
873.172	3.59
873.338	1.56
873.505	-0.04
873.671	-0.31
873.838	3.28
874.004	-2.41
874.171	-1.57
874.337	1.43
874.503	1.02
874.67	0.26
874.836	1.37
875.002	0.52
875.169	1.27
875.335	-0.76
875.501	-2.2
875.668	1.68
875.834	1.41
876	0.22
876.166	0.69
876.332	1.85
876.499	2.26
876.665	-0.61
876.831	1.03
876.997	2.4
877.163	2.8
877.329	0.06
877.495	0.35
877.662	2.64
877.828	0.26
877.994	0.28
878.16	-3.02
878.326	0.12
878.492	2.43
878.658	-0.51
878.824	0.32
878.99	2.13
879.156	-0.98
879.322	2.49
879.487	0.98
879.653	0.74
879.819	0.98
879.985	-2.13
880.151	1.09
880.317	1.33
880.483	1.35
880.648	0.02
880.814	-2.36
880.98	1.81
881.146	-2.41
881.312	-0.61
881.477	-1.08
881.643	0.74
881.809	3.26
881.974	1.98
882.14	-2.19
882.306	2.25
882.471	2.68
882.637	1.73
882.803	1.09
882.968	1.86
883.134	3.88
883.299	-0.31
883.465	0.83
883.63	0.42
883.796	2.17
883.961	1.47
884.127	2.05
884.292	-2.3
884.458	-1.6
884.623	-1.6
