Data from Apollo_Calib_20240827__AbsoluteIrradiance__647__09-56-01-686.txt Node

Date: Wed Aug 28 09:56:01 BST 2024
User: biology
Spectrometer: FLMT08252
Trigger mode: 0
Integration Time (sec): 5.000000E-1
Scans to average: 5
Electric dark correction enabled: true
Nonlinearity correction enabled: false
Boxcar width: 0
XAxis mode: Wavelengths
Number of Pixels in Spectrum: 3648
>>>>>Begin Spectral Data<<<<<
179.588	-0
179.809	-0
180.03	-0
180.251	-0
180.473	-0
180.694	0
180.915	0
181.136	-0
181.357	0
181.578	-0
181.799	-0
182.02	-0
182.241	0
182.462	-0
182.683	0
182.904	-0
183.125	0
183.346	0
183.567	0
183.788	0
184.009	-0
184.23	0
184.451	0
184.672	-0
184.892	-0
185.113	0
185.334	0
185.555	-0
185.776	-0
185.996	0
186.217	0
186.438	0
186.659	-0
186.879	0
187.1	-0
187.321	-0
187.541	0
187.762	0
187.983	-0
188.203	0
188.424	0
188.644	0
188.865	0
189.086	-0
189.306	0
189.527	0
189.747	0
189.968	-0
190.188	0
190.409	0
190.629	0
190.849	-0
191.07	-0
191.29	0
191.511	0
191.731	-0
191.951	-0
192.172	0
192.392	-0
192.612	0
192.833	0
193.053	0
193.273	0
193.493	0
193.714	-0
193.934	0
194.154	0
194.374	-0
194.594	0
194.815	-0
195.035	-0
195.255	0
195.475	-0
195.695	0
195.915	0
196.135	-0
196.355	0
196.575	0
196.795	0
197.015	-0
197.235	-0
197.455	-0
197.675	0
197.895	-0
198.115	-0
198.335	0
198.555	0
198.775	-0
198.995	0
199.214	0
199.434	0
199.654	-0
199.874	0
200.094	0.84
200.313	-0.23
200.533	-0.12
200.753	-0.46
200.973	0.74
201.192	0.56
201.412	-0.42
201.632	-0.27
201.851	0.99
202.071	-0.25
202.291	-0.09
202.51	-0.28
202.73	0.7
202.95	-0.03
203.169	-0.4
203.389	-0
203.608	0.57
203.828	-0.32
204.047	-0.35
204.267	0.42
204.486	0.21
204.706	0.06
204.925	0.14
205.145	-0.01
205.364	0.24
205.583	0.69
205.803	-0.39
206.022	-0.4
206.242	0.23
206.461	-0.19
206.68	-0.16
206.9	0.3
207.119	0.53
207.338	0.73
207.557	-0.16
207.777	-0.44
207.996	-0.06
208.215	0.61
208.434	0.23
208.654	-0.35
208.873	0.42
209.092	0.34
209.311	0.12
209.53	0.01
209.749	-0.22
209.968	-0.35
210.187	-0.2
210.407	-0.15
210.626	-0.21
210.845	0.3
211.064	0.13
211.283	-0.05
211.502	0.46
211.721	-0.01
211.94	-0.02
212.159	0.15
212.377	0.32
212.596	0.27
212.815	0.07
213.034	0.3
213.253	0.27
213.472	0.3
213.691	-0.18
213.91	-0.17
214.128	0.04
214.347	0.43
214.566	-0.26
214.785	-0.22
215.003	0.13
215.222	-0.03
215.441	0.09
215.66	-0.29
215.878	0.22
216.097	0.33
216.316	-0.05
216.534	-0.07
216.753	0.13
216.972	-0.09
217.19	0.03
217.409	-0.22
217.627	-0.05
217.846	0.02
218.064	0.08
218.283	-0.22
218.501	0.49
218.72	0.45
218.938	-0.13
219.157	0.05
219.375	0.13
219.594	0.22
219.812	-0.1
220.031	-0.18
220.249	0.25
220.467	0.37
220.686	-0.09
220.904	-0.18
221.122	-0.04
221.341	0.3
221.559	0.18
221.777	-0.08
221.995	0.07
222.214	0.18
222.432	-0.1
222.65	0.11
222.868	0.14
223.086	0.12
223.305	0.23
223.523	0.01
223.741	0.25
223.959	0.04
224.177	-0.2
224.395	0.01
224.613	0.06
224.831	0.24
225.049	-0.13
225.267	-0.13
225.485	0.02
225.703	-0.1
225.921	-0.01
226.139	-0.06
226.357	0.12
226.575	0.13
226.793	-0.02
227.011	0.56
227.229	0.02
227.447	0.3
227.665	0.02
227.883	-0.23
228.1	0.17
228.318	0.12
228.536	-0.31
228.754	-0.02
228.972	0.11
229.189	0.12
229.407	-0.09
229.625	-0.06
229.843	0.03
230.06	0.14
230.278	-0.13
230.496	0.04
230.713	0.08
230.931	0.21
231.149	0.02
231.366	-0.18
231.584	0.06
231.801	0.21
232.019	0.06
232.236	-0.14
232.454	-0.06
232.671	0.08
232.889	0
233.106	-0.1
233.324	0.07
233.541	-0.03
233.759	0.08
233.976	-0.06
234.194	-0.02
234.411	0.06
234.628	-0.01
234.846	-0.06
235.063	-0.01
235.28	-0.02
235.498	0.03
235.715	-0.11
235.932	0.11
236.149	-0.02
236.367	-0.16
236.584	0.03
236.801	-0.07
237.018	0.11
237.236	-0.06
237.453	-0.19
237.67	0.19
237.887	0.07
238.104	0.06
238.321	-0.06
238.538	-0.16
238.755	0.06
238.973	-0.13
239.19	-0.11
239.407	0.1
239.624	0.06
239.841	-0.08
240.058	-0.07
240.275	0.07
240.492	0.06
240.709	0
240.925	0.05
241.142	0.05
241.359	-0.14
241.576	-0
241.793	-0.01
242.01	0.01
242.227	0.12
242.444	0.05
242.66	0.15
242.877	0.03
243.094	-0.05
243.311	0.08
243.527	-0.01
243.744	0.14
243.961	0.16
244.178	-0.01
244.394	0.08
244.611	0.08
244.828	0.24
245.044	-0.1
245.261	-0.06
245.477	0.05
245.694	0.15
245.911	-0.07
246.127	0.03
246.344	0.09
246.56	0.06
246.777	0.03
246.993	-0.01
247.21	-0
247.426	0.03
247.643	-0.01
247.859	-0.06
248.076	-0.07
248.292	0.2
248.508	0.04
248.725	0.03
248.941	0.06
249.157	0.16
249.374	-0.08
249.59	0.03
249.806	0.03
250.023	0.09
250.239	-0.04
250.455	0
250.671	-0.03
250.888	0.08
251.104	0.05
251.32	-0.03
251.536	0.09
251.752	-0
251.969	0.05
252.185	0.07
252.401	0.19
252.617	0.07
252.833	-0.02
253.049	0.03
253.265	-0.05
253.481	0.02
253.697	-0.1
253.913	-0.01
254.129	0.01
254.345	0.05
254.561	0.05
254.777	0.07
254.993	0.12
255.209	0.07
255.425	0.04
255.641	-0.06
255.857	0.12
256.073	0.04
256.288	-0.16
256.504	-0.02
256.72	0.04
256.936	0.09
257.152	-0.05
257.367	-0.05
257.583	0.05
257.799	0.09
258.015	-0.1
258.23	0.01
258.446	0.16
258.662	0.07
258.877	-0.05
259.093	-0.03
259.309	0.01
259.524	0.1
259.74	-0.02
259.955	-0.09
260.171	0.03
260.387	0.04
260.602	0.12
260.818	0.04
261.033	-0.07
261.249	-0.04
261.464	-0.04
261.68	-0.05
261.895	0.01
262.11	0.02
262.326	0.01
262.541	-0.09
262.757	0.07
262.972	0.04
263.187	0.06
263.403	0.01
263.618	0.07
263.833	0.04
264.049	-0.02
264.264	0.05
264.479	0.09
264.694	0.09
264.91	-0.09
265.125	0.01
265.34	0.03
265.555	0.15
265.77	0.01
265.986	-0.05
266.201	0.01
266.416	0.1
266.631	0.01
266.846	0.02
267.061	-0.01
267.276	0.1
267.491	-0.12
267.706	0.02
267.921	0.05
268.136	0.01
268.351	-0.01
268.566	0.02
268.781	0.05
268.996	0.04
269.211	0.03
269.426	-0.03
269.641	-0
269.856	0.03
270.071	-0.02
270.285	-0.07
270.5	0.05
270.715	0.09
270.93	0.02
271.145	0.02
271.359	0.01
271.574	-0.02
271.789	0.05
272.004	-0.03
272.218	0.04
272.433	0.09
272.648	-0.05
272.862	0.11
273.077	-0.01
273.292	0.04
273.506	-0.02
273.721	-0.03
273.936	0.09
274.15	0.07
274.365	0.01
274.579	0.05
274.794	0.02
275.008	0.1
275.223	-0.05
275.437	0.04
275.652	0.02
275.866	0.04
276.081	-0.02
276.295	0.09
276.509	0.04
276.724	-0.01
276.938	0.01
277.153	0.04
277.367	0.09
277.581	-0.01
277.796	-0.02
278.01	-0.08
278.224	0.07
278.438	0.12
278.653	-0.11
278.867	0
279.081	-0.14
279.295	0.01
279.51	0.04
279.724	-0.07
279.938	0.04
280.152	0.04
280.366	-0.03
280.58	0.05
280.794	0.07
281.008	0.02
281.222	0.05
281.437	0.14
281.651	0.02
281.865	0.1
282.079	-0.08
282.293	-0.07
282.507	0
282.721	0.07
282.935	-0
283.148	-0.04
283.362	0.03
283.576	-0.04
283.79	-0
284.004	-0.02
284.218	0.08
284.432	0.01
284.646	-0.02
284.859	-0.01
285.073	-0.01
285.287	-0.03
285.501	0
285.714	0.02
285.928	0.03
286.142	0.01
286.356	-0.01
286.569	-0.02
286.783	0.08
286.997	0.08
287.21	0.03
287.424	0.02
287.637	-0.01
287.851	0.02
288.065	0.01
288.278	-0.03
288.492	0.08
288.705	0.05
288.919	0.07
289.132	-0.03
289.346	0.05
289.559	-0.01
289.773	-0.03
289.986	-0.01
290.2	0.01
290.413	0.09
290.626	-0.04
290.84	-0.01
291.053	0.01
291.267	0.12
291.48	0.03
291.693	0.02
291.906	0.01
292.12	-0.01
292.333	-0.01
292.546	-0.05
292.76	0.08
292.973	0.05
293.186	0.05
293.399	-0.04
293.612	0.07
293.826	0.02
294.039	0.02
294.252	0
294.465	0.07
294.678	0.05
294.891	0.01
295.104	-0.06
295.317	-0.01
295.53	0.06
295.743	0.03
295.956	0.01
296.169	0.03
296.382	0.06
296.595	0.01
296.808	-0.01
297.021	0.08
297.234	0.04
297.447	-0.01
297.66	0.02
297.873	0.04
298.086	0.03
298.299	-0.04
298.511	-0.05
298.724	-0.04
298.937	-0.04
299.15	-0.02
299.363	0.02
299.575	0.05
299.788	0.03
300.001	-0.02
300.213	-0.01
300.426	-0.01
300.639	-0.06
300.852	-0.03
301.064	-0
301.277	0.12
301.489	0.07
301.702	0.05
301.915	0.01
302.127	0.01
302.34	0.04
302.552	0.03
302.765	0.01
302.977	0.06
303.19	-0.02
303.402	0.03
303.615	-0.02
303.827	0.01
304.04	0.05
304.252	0.03
304.464	-0.02
304.677	0.13
304.889	0.07
305.102	-0.04
305.314	-0.01
305.526	0.03
305.739	0.05
305.951	-0.01
306.163	-0
306.375	0.11
306.588	-0.02
306.8	-0.03
307.012	-0.04
307.224	0.03
307.436	0.03
307.649	-0.04
307.861	-0.01
308.073	0.04
308.285	-0.01
308.497	-0.01
308.709	0.03
308.921	0.03
309.133	0.04
309.346	-0
309.558	-0.02
309.77	0.05
309.982	0.07
310.194	0.05
310.406	-0.04
310.617	0.05
310.829	0
311.041	0.01
311.253	-0.04
311.465	-0.01
311.677	-0.01
311.889	0.01
312.101	-0.01
312.313	0.05
312.524	0.05
312.736	-0.06
312.948	-0.01
313.16	0.11
313.372	0.05
313.583	0.04
313.795	-0
314.007	0
314.218	0.06
314.43	0
314.642	-0.03
314.853	0.04
315.065	0.02
315.277	-0.01
315.488	0.01
315.7	0.05
315.912	0.03
316.123	0.02
316.335	0.02
316.546	0.15
316.758	-0
316.969	-0
317.181	-0.02
317.392	-0
317.604	0.02
317.815	-0.05
318.026	0.01
318.238	-0
318.449	0.02
318.661	-0.03
318.872	-0.05
319.083	-0.06
319.295	0.01
319.506	-0.01
319.717	0.04
319.929	0.05
320.14	0
320.351	-0
320.562	0
320.774	0.02
320.985	0.02
321.196	-0.05
321.407	-0.03
321.618	0.03
321.829	0.04
322.041	0.07
322.252	-0.02
322.463	0.01
322.674	0.02
322.885	-0.02
323.096	0
323.307	0.01
323.518	0.02
323.729	-0.03
323.94	-0.05
324.151	-0
324.362	0.05
324.573	0.04
324.784	-0.02
324.995	0.08
325.206	0
325.417	-0.04
325.628	0.03
325.838	0.02
326.049	0.07
326.26	0.06
326.471	-0
326.682	0.01
326.892	-0.01
327.103	-0.07
327.314	-0.05
327.525	0.05
327.735	0
327.946	0.01
328.157	-0.03
328.368	0.02
328.578	-0.03
328.789	0.07
328.999	0.05
329.21	-0.02
329.421	0.06
329.631	-0.04
329.842	-0.05
330.052	0.04
330.263	0.05
330.473	0.03
330.684	0.01
330.894	-0.01
331.105	0.03
331.315	-0.02
331.526	-0.05
331.736	0.08
331.947	0.03
332.157	0.03
332.367	-0.03
332.578	0.05
332.788	-0.01
332.999	0.03
333.209	0.04
333.419	-0.02
333.629	0.04
333.84	0.05
334.05	0.02
334.26	0.06
334.47	0.03
334.681	0.03
334.891	-0.02
335.101	0
335.311	0.11
335.521	0.02
335.732	-0.04
335.942	0.08
336.152	0.03
336.362	0.01
336.572	0.04
336.782	0.02
336.992	0.03
337.202	0.05
337.412	-0.02
337.622	0.07
337.832	0.05
338.042	-0.03
338.252	-0.05
338.462	0.03
338.672	-0.01
338.882	-0.08
339.092	-0.02
339.302	0.11
339.511	0.02
339.721	-0.04
339.931	-0.06
340.141	0.03
340.351	0.06
340.561	0.04
340.77	0.01
340.98	-0
341.19	-0.02
341.4	-0.01
341.609	-0.02
341.819	-0.04
342.029	-0.01
342.238	0.06
342.448	-0.02
342.658	0.04
342.867	0.01
343.077	0.01
343.286	0.05
343.496	-0.01
343.706	0.04
343.915	-0.04
344.125	0.02
344.334	0.05
344.544	-0.05
344.753	-0.04
344.963	0.01
345.172	0
345.381	-0.01
345.591	0.01
345.8	0.01
346.01	0.04
346.219	0.06
346.428	-0.14
346.638	-0.01
346.847	-0.02
347.056	0.03
347.266	0.02
347.475	0.02
347.684	0.03
347.893	0.01
348.103	0.01
348.312	0
348.521	-0.03
348.73	0.03
348.94	-0.01
349.149	0.02
349.358	0.02
349.567	0
349.776	-0.03
349.985	-0.01
350.194	0.02
350.403	0.06
350.612	-0.05
350.821	-0.01
351.03	0.03
351.239	-0.01
351.448	0
351.657	-0.02
351.866	0.09
352.075	-0.01
352.284	0.02
352.493	-0.03
352.702	0.06
352.911	0.06
353.12	0.05
353.329	0.03
353.538	0.02
353.746	0.03
353.955	-0.03
354.164	0.03
354.373	0.01
354.582	0.02
354.79	0.03
354.999	0.02
355.208	0.03
355.416	0.08
355.625	-0.04
355.834	0
356.042	0
356.251	-0.02
356.46	-0.05
356.668	0.03
356.877	0.05
357.085	0.01
357.294	-0.08
357.503	0.06
357.711	0.04
357.92	0.1
358.128	0.03
358.337	-0.04
358.545	0.05
358.754	-0.02
358.962	0.03
359.17	-0.02
359.379	0.03
359.587	0
359.796	0.02
360.004	0.05
360.212	0.05
360.421	0.06
360.629	0.03
360.837	0.04
361.046	0.04
361.254	0.15
361.462	-0.03
361.67	-0.04
361.879	0.04
362.087	0.05
362.295	0.04
362.503	0.03
362.711	-0.06
362.92	-0.04
363.128	-0.02
363.336	-0.02
363.544	-0.03
363.752	-0.01
363.96	-0.05
364.168	-0.01
364.376	-0.02
364.584	0.02
364.792	0.02
365	0.05
365.208	-0
365.416	0.03
365.624	0.01
365.832	-0.03
366.04	0.1
366.248	0.02
366.456	-0.01
366.664	0.05
366.872	-0.01
367.079	-0.01
367.287	0.02
367.495	0.01
367.703	0
367.911	-0.01
368.118	-0
368.326	-0.02
368.534	-0.05
368.742	0.04
368.949	-0.02
369.157	-0.01
369.365	-0
369.572	0
369.78	-0.02
369.988	0.03
370.195	0.02
370.403	0.02
370.61	-0.02
370.818	-0.01
371.026	0.05
371.233	-0.02
371.441	0.02
371.648	-0.01
371.856	0.05
372.063	0.03
372.271	0.01
372.478	-0
372.685	0.01
372.893	0.01
373.1	-0.03
373.308	-0.02
373.515	0.04
373.722	0.02
373.93	0
374.137	0.02
374.344	0.06
374.552	0.06
374.759	0
374.966	0.02
375.173	0
375.381	0.05
375.588	-0
375.795	-0.03
376.002	-0.03
376.209	-0.03
376.417	0.01
376.624	-0.05
376.831	0.02
377.038	-0.02
377.245	-0.07
377.452	0
377.659	-0.03
377.866	-0.04
378.073	0.02
378.28	0
378.487	0.01
378.694	0
378.901	-0.01
379.108	-0
379.315	0.05
379.522	0.06
379.729	0.05
379.936	0
380.143	0.01
380.35	0.07
380.557	0
380.763	-0.01
380.97	-0
381.177	0.01
381.384	0.03
381.591	-0.01
381.797	0.02
382.004	0.06
382.211	0.01
382.418	-0.04
382.624	0.02
382.831	0.04
383.038	-0
383.244	0
383.451	0.01
383.658	-0
383.864	0.03
384.071	-0.02
384.277	0.03
384.484	0
384.69	0.04
384.897	-0.01
385.103	-0.02
385.31	-0.01
385.516	-0
385.723	-0.01
385.929	-0
386.136	-0.02
386.342	0.03
386.549	0.02
386.755	0.06
386.961	0.04
387.168	0.03
387.374	0.01
387.58	0.05
387.787	-0.01
387.993	0.03
388.199	0.01
388.406	-0.01
388.612	0.02
388.818	-0.03
389.024	-0.02
389.231	0.02
389.437	0.05
389.643	0.06
389.849	0.02
390.055	0
390.261	0.02
390.467	-0.01
390.674	0
390.88	0.04
391.086	0
391.292	-0.01
391.498	0.05
391.704	0.03
391.91	0.03
392.116	-0.03
392.322	-0.05
392.528	0.04
392.734	-0.01
392.94	0.04
393.146	0.04
393.352	0.01
393.557	-0.03
393.763	0.01
393.969	0.02
394.175	-0.03
394.381	-0.01
394.587	-0.06
394.792	0.04
394.998	0.02
395.204	0.07
395.41	-0.03
395.615	0.02
395.821	0.02
396.027	0
396.233	-0.01
396.438	0.05
396.644	0.05
396.85	0.02
397.055	0.02
397.261	0.03
397.466	-0.01
397.672	0.04
397.878	0.04
398.083	0.01
398.289	-0.05
398.494	0.08
398.7	0.03
398.905	-0.06
399.111	0.05
399.316	-0.03
399.522	-0.02
399.727	-0.01
399.932	0
400.138	-0.05
400.343	0.04
400.549	0.05
400.754	0.03
400.959	0.01
401.165	-0
401.37	0.02
401.575	0.1
401.78	-0.02
401.986	-0
402.191	0.01
402.396	-0.03
402.601	0.03
402.807	-0.01
403.012	0.01
403.217	0.07
403.422	0.01
403.627	0.01
403.832	-0.02
404.037	0.02
404.243	0.04
404.448	-0
404.653	-0.04
404.858	0.02
405.063	0.07
405.268	-0.01
405.473	-0.02
405.678	-0.04
405.883	0.12
406.088	0.04
406.293	-0
406.498	-0.02
406.703	0.09
406.907	-0.01
407.112	-0.02
407.317	-0.02
407.522	0.05
407.727	-0.05
407.932	-0.03
408.136	0.08
408.341	-0
408.546	0.03
408.751	0.01
408.956	-0.03
409.16	0.01
409.365	0
409.57	0
409.774	0.01
409.979	0.01
410.184	0
410.388	-0.01
410.593	0.05
410.798	0.04
411.002	-0.04
411.207	-0.01
411.411	0.04
411.616	-0.08
411.82	0.03
412.025	0.04
412.229	-0.02
412.434	-0
412.638	0.01
412.843	-0.01
413.047	0
413.252	-0.03
413.456	0.02
413.66	0.04
413.865	-0.06
414.069	0.06
414.273	-0.05
414.478	0
414.682	-0.02
414.886	0.02
415.091	-0.04
415.295	-0.03
415.499	0.02
415.703	0.03
415.908	0.05
416.112	-0.06
416.316	0.03
416.52	-0.02
416.724	-0.04
416.929	-0.03
417.133	0.1
417.337	-0.05
417.541	0.01
417.745	0.01
417.949	0.01
418.153	0.03
418.357	-0.03
418.561	0.08
418.765	0
418.969	0.04
419.173	0.05
419.377	-0.08
419.581	0.09
419.785	-0.08
419.989	-0.05
420.193	-0.06
420.397	-0.03
420.601	0.08
420.804	0.04
421.008	-0.02
421.212	0.01
421.416	0.01
421.62	0
421.823	0.01
422.027	0.09
422.231	-0.02
422.435	-0.06
422.638	0.01
422.842	0.01
423.046	-0.03
423.249	0.04
423.453	0.04
423.657	0.04
423.86	0.02
424.064	0
424.268	0.05
424.471	0.01
424.675	0.09
424.878	0.08
425.082	-0.02
425.285	0.06
425.489	0
425.692	-0.02
425.896	-0.02
426.099	0.02
426.303	-0.08
426.506	-0.07
426.71	0.03
426.913	0.03
427.116	0.07
427.32	-0.01
427.523	-0.02
427.726	0.08
427.93	-0.05
428.133	-0
428.336	-0.05
428.54	-0.04
428.743	-0
428.946	0.07
429.149	-0.04
429.353	-0.01
429.556	0
429.759	0.02
429.962	-0.05
430.165	-0.02
430.368	-0
430.571	-0.05
430.775	0.04
430.978	-0.03
431.181	-0.01
431.384	0.04
431.587	-0.04
431.79	-0
431.993	0.03
432.196	0.02
432.399	-0
432.602	0.04
432.805	-0.09
433.008	-0.03
433.211	-0.02
433.414	0.04
433.616	0
433.819	0.01
434.022	-0.09
434.225	0.05
434.428	0.05
434.631	0.14
434.833	-0.01
435.036	-0.02
435.239	0.06
435.442	0.03
435.645	-0.02
435.847	-0.01
436.05	0.05
436.253	0.04
436.455	-0.03
436.658	-0.01
436.861	0.05
437.063	-0.03
437.266	0.02
437.468	-0
437.671	0.11
437.874	0.05
438.076	-0.06
438.279	-0.05
438.481	0
438.684	-0.03
438.886	0.01
439.089	-0.09
439.291	-0.03
439.494	-0
439.696	-0.02
439.899	-0.05
440.101	-0.01
440.303	-0.07
440.506	0.02
440.708	0
440.91	0.04
441.113	-0
441.315	0.01
441.517	-0.03
441.72	0.06
441.922	-0.03
442.124	-0.05
442.326	0.03
442.529	0.09
442.731	-0.04
442.933	0.1
443.135	-0.04
443.337	-0.02
443.539	-0.05
443.742	-0.06
443.944	0.01
444.146	-0.06
444.348	-0.02
444.55	-0.02
444.752	-0.01
444.954	-0.04
445.156	0.03
445.358	-0.07
445.56	0.05
445.762	-0.04
445.964	0.01
446.166	-0.02
446.368	-0.05
446.57	0.01
446.772	-0.01
446.974	-0.03
447.175	0.03
447.377	-0.01
447.579	-0.05
447.781	-0.06
447.983	0.05
448.184	0.01
448.386	0.01
448.588	-0.05
448.79	0.02
448.991	-0.02
449.193	-0.05
449.395	-0.01
449.597	0.02
449.798	-0.03
450	0.01
450.202	-0.01
450.403	-0.03
450.605	0.03
450.806	0.01
451.008	-0.04
451.21	-0.04
451.411	-0.05
451.613	-0.03
451.814	0.01
452.016	0.04
452.217	0.02
452.419	0.02
452.62	0.03
452.821	0.08
453.023	0.1
453.224	0.07
453.426	-0.06
453.627	0.03
453.828	0.06
454.03	0.01
454.231	0.01
454.432	-0.03
454.634	0.09
454.835	-0.03
455.036	-0.07
455.238	0.03
455.439	0.08
455.64	-0.03
455.841	-0.03
456.042	0.13
456.244	0.01
456.445	-0.03
456.646	-0.08
456.847	0.02
457.048	0.02
457.249	0.06
457.45	0.2
457.651	-0.06
457.852	0.04
458.054	0.05
458.255	0
458.456	0
458.657	0.01
458.858	-0.04
459.058	0.01
459.259	0.03
459.46	0.02
459.661	-0.03
459.862	0.11
460.063	-0.01
460.264	0.07
460.465	-0.05
460.666	0.09
460.866	0.02
461.067	-0.05
461.268	0.01
461.469	-0.01
461.67	-0.02
461.87	-0.04
462.071	0.01
462.272	-0.03
462.473	0.04
462.673	-0
462.874	-0.03
463.075	0.01
463.275	-0.05
463.476	0.03
463.676	0.05
463.877	0.01
464.078	0.01
464.278	0.04
464.479	-0.01
464.679	0.02
464.88	-0.02
465.08	0.09
465.281	-0.04
465.481	-0.04
465.682	-0.03
465.882	0.05
466.083	0.04
466.283	0.04
466.483	0.03
466.684	-0.08
466.884	-0.04
467.085	-0.04
467.285	0.05
467.485	-0.03
467.686	-0.01
467.886	-0.04
468.086	-0.02
468.286	0.01
468.487	0.01
468.687	-0.04
468.887	-0.07
469.087	0.06
469.287	-0.03
469.488	-0.07
469.688	0.05
469.888	0.02
470.088	0.02
470.288	0.03
470.488	0.04
470.688	-0.05
470.888	-0.03
471.088	-0.03
471.288	0.03
471.488	0.03
471.688	0.02
471.888	-0.03
472.088	0.04
472.288	0.02
472.488	-0.03
472.688	0
472.888	0.03
473.088	0.01
473.288	0.02
473.488	0.05
473.688	0.07
473.887	-0.03
474.087	-0.01
474.287	0.02
474.487	-0
474.687	0.02
474.886	-0.04
475.086	-0.01
475.286	-0
475.486	-0.01
475.685	0.02
475.885	0
476.085	-0.01
476.284	-0.01
476.484	0.01
476.684	0.02
476.883	0.06
477.083	0.01
477.282	-0.01
477.482	0.07
477.681	0.05
477.881	0
478.08	0.01
478.28	-0.02
478.479	0.03
478.679	0.08
478.878	-0.03
479.078	-0.02
479.277	0.02
479.477	-0.01
479.676	0.03
479.875	0.01
480.075	-0.05
480.274	0.02
480.473	0.05
480.673	-0.04
480.872	0.03
481.071	-0
481.271	-0
481.47	-0
481.669	-0.01
481.868	-0.01
482.067	-0.04
482.267	-0
482.466	-0.02
482.665	-0
482.864	-0.02
483.063	-0.01
483.262	0.01
483.461	0.04
483.661	0.04
483.86	0.01
484.059	0.01
484.258	-0.01
484.457	-0
484.656	-0
484.855	0.04
485.054	-0.04
485.253	-0.03
485.452	-0.05
485.651	0.02
485.849	0.04
486.048	-0.02
486.247	-0.01
486.446	0.02
486.645	-0.03
486.844	-0.04
487.043	-0.01
487.241	0.04
487.44	-0.02
487.639	0.02
487.838	0
488.037	0.01
488.235	0.06
488.434	0.01
488.633	-0
488.831	0.03
489.03	0.06
489.229	0.02
489.427	-0.02
489.626	0.04
489.825	0.02
490.023	-0.01
490.222	0.01
490.42	0.02
490.619	0.03
490.817	0.03
491.016	-0
491.214	0.03
491.413	-0.02
491.611	-0.01
491.81	0
492.008	0.01
492.207	-0
492.405	0.03
492.604	-0.01
492.802	0
493	-0.01
493.199	-0.01
493.397	-0.01
493.595	-0
493.794	-0.03
493.992	0.03
494.19	-0
494.388	0.02
494.587	-0
494.785	0.02
494.983	-0.02
495.181	-0.02
495.379	0.01
495.578	-0.01
495.776	0.04
495.974	0.01
496.172	-0
496.37	-0.02
496.568	-0.02
496.766	-0.03
496.964	0.02
497.162	0.01
497.36	-0.02
497.558	-0
497.756	0.03
497.954	-0
498.152	0
498.35	-0
498.548	0.01
498.746	0
498.944	-0.05
499.142	0.01
499.34	-0.02
499.538	-0.01
499.736	-0.02
499.933	0.03
500.131	0.03
500.329	0.01
500.527	0.01
500.725	0.04
500.922	0.02
501.12	0.01
501.318	0.02
501.516	-0.02
501.713	0
501.911	-0
502.109	-0.05
502.306	0.01
502.504	-0.01
502.701	-0.01
502.899	-0.02
503.097	0.06
503.294	-0
503.492	0.01
503.689	0.01
503.887	0.03
504.084	0.04
504.282	0
504.479	-0.02
504.677	0
504.874	-0.01
505.072	-0.01
505.269	0.01
505.466	0.04
505.664	0
505.861	-0.05
506.059	-0.04
506.256	0.03
506.453	-0
506.651	0.06
506.848	0.04
507.045	0.01
507.242	0
507.44	-0.01
507.637	0.01
507.834	0.02
508.031	0.04
508.229	-0.02
508.426	-0.01
508.623	0.02
508.82	-0.01
509.017	-0.02
509.214	0
509.411	0.02
509.608	-0.02
509.805	-0
510.003	-0.01
510.2	-0.03
510.397	0.03
510.594	-0.03
510.791	-0.02
510.988	-0
511.184	0
511.381	-0.02
511.578	-0.02
511.775	0.02
511.972	-0.01
512.169	-0.01
512.366	-0.01
512.563	0.02
512.76	-0.01
512.956	0.01
513.153	-0.01
513.35	0
513.547	-0.01
513.744	-0.04
513.94	-0.02
514.137	0.01
514.334	-0
514.53	0.02
514.727	-0.01
514.924	0.03
515.12	-0
515.317	-0.04
515.514	-0.01
515.71	-0.05
515.907	-0.01
516.103	-0
516.3	0.03
516.497	0.04
516.693	0.02
516.89	-0.01
517.086	-0.03
517.283	0.04
517.479	0.01
517.676	0
517.872	0
518.068	-0.01
518.265	-0.01
518.461	-0.02
518.658	-0.01
518.854	0
519.05	-0.01
519.247	-0
519.443	0
519.639	0.04
519.836	-0
520.032	0.01
520.228	-0.01
520.424	0.04
520.621	0.02
520.817	0.01
521.013	0.01
521.209	0
521.405	0.03
521.601	0.01
521.798	0.01
521.994	0.03
522.19	-0.02
522.386	-0.02
522.582	-0
522.778	0
522.974	-0.01
523.17	-0
523.366	0
523.562	0.03
523.758	-0
523.954	0.01
524.15	-0.01
524.346	0.01
524.542	0.01
524.738	-0.01
524.934	-0
525.129	-0.08
525.325	-0
525.521	-0
525.717	0.03
525.913	-0
526.109	0.01
526.304	-0.01
526.5	0
526.696	0.01
526.892	-0.02
527.087	0.01
527.283	-0.02
527.479	0.01
527.674	-0.03
527.87	-0
528.066	-0.01
528.261	0.02
528.457	0.01
528.653	0.02
528.848	-0.01
529.044	0.01
529.239	-0.02
529.435	0.04
529.63	0.01
529.826	0.04
530.021	0.03
530.217	0.02
530.412	-0.01
530.608	-0.02
530.803	-0.02
530.999	-0.01
531.194	-0.05
531.389	0.02
531.585	-0.04
531.78	-0.01
531.975	-0
532.171	-0
532.366	-0
532.561	-0.01
532.757	-0.03
532.952	-0.03
533.147	0.01
533.342	0
533.538	-0.01
533.733	0.02
533.928	-0
534.123	0
534.318	-0.02
534.513	-0.01
534.709	0.01
534.904	-0
535.099	-0
535.294	-0
535.489	-0.01
535.684	-0
535.879	-0.03
536.074	0.01
536.269	-0.02
536.464	0.01
536.659	-0
536.854	0
537.049	0.01
537.244	-0.01
537.439	0.02
537.634	0.02
537.828	0.01
538.023	-0
538.218	-0.03
538.413	0.02
538.608	-0.02
538.803	0.03
538.997	-0.01
539.192	0.02
539.387	0.01
539.582	0.01
539.776	0
539.971	-0.03
540.166	-0.01
540.36	-0.01
540.555	-0.02
540.75	-0.01
540.944	0.03
541.139	-0.05
541.334	0
541.528	0.02
541.723	0.02
541.917	-0.01
542.112	-0.03
542.306	-0.02
542.501	-0.01
542.695	0
542.89	-0.02
543.084	0.02
543.279	-0.01
543.473	-0.01
543.668	-0
543.862	-0.01
544.056	0.03
544.251	-0.01
544.445	0.01
544.64	-0.01
544.834	-0.03
545.028	0.01
545.222	0.02
545.417	0.01
545.611	0.02
545.805	-0
546	-0.01
546.194	-0
546.388	0.01
546.582	0.02
546.776	-0
546.97	-0
547.165	0
547.359	0.01
547.553	-0.01
547.747	-0
547.941	0.01
548.135	-0.03
548.329	0.01
548.523	0.03
548.717	-0.02
548.911	-0.03
549.105	0
549.299	0.01
549.493	0.02
549.687	0.01
549.881	0.02
550.075	0.01
550.269	-0.03
550.463	0.02
550.657	-0.03
550.85	0.01
551.044	-0.02
551.238	0.02
551.432	-0
551.626	-0.03
551.82	0.02
552.013	-0.03
552.207	0.01
552.401	-0
552.594	0
552.788	0
552.982	0.01
553.176	-0.04
553.369	0.02
553.563	0.01
553.756	-0.05
553.95	-0.01
554.144	0.01
554.337	0.03
554.531	0
554.724	0.01
554.918	-0.02
555.111	0.01
555.305	0.02
555.498	0.05
555.692	0.02
555.885	-0.02
556.079	0.02
556.272	-0.04
556.466	0.01
556.659	0
556.852	-0
557.046	0.01
557.239	0.02
557.432	-0.02
557.626	-0
557.819	0
558.012	0.02
558.206	0.03
558.399	-0.01
558.592	0.01
558.785	-0
558.979	0.01
559.172	0.01
559.365	0.01
559.558	-0.01
559.751	-0.01
559.944	-0.03
560.138	-0
560.331	-0.03
560.524	-0.01
560.717	-0
560.91	0.01
561.103	0.03
561.296	-0
561.489	0.02
561.682	0.01
561.875	0.03
562.068	0
562.261	0.04
562.454	0.05
562.647	0.01
562.84	0.03
563.032	0
563.225	0.01
563.418	-0.01
563.611	-0.01
563.804	-0.01
563.997	-0.04
564.19	-0.01
564.382	-0.05
564.575	-0.01
564.768	-0.01
564.961	-0.01
565.153	-0.02
565.346	0.02
565.539	0.02
565.731	0.02
565.924	0.02
566.117	0.02
566.309	0.01
566.502	0.01
566.695	-0.02
566.887	0.01
567.08	-0.03
567.272	-0.02
567.465	-0.02
567.657	0
567.85	0.01
568.042	0.01
568.235	0.04
568.427	-0.01
568.62	0
568.812	0.02
569.005	0.01
569.197	-0.03
569.389	0
569.582	0.02
569.774	0
569.966	-0.03
570.159	-0.03
570.351	0.01
570.543	-0.02
570.736	0.03
570.928	-0.03
571.12	-0.02
571.312	-0.03
571.505	-0.01
571.697	0.02
571.889	-0.02
572.081	0
572.273	-0.01
572.465	0.01
572.658	-0
572.85	0
573.042	-0.03
573.234	0
573.426	0.03
573.618	-0.02
573.81	0.03
574.002	0.02
574.194	0.03
574.386	-0.03
574.578	-0.05
574.77	-0.02
574.962	0.01
575.154	-0.02
575.346	0
575.538	0.02
575.729	-0
575.921	-0.01
576.113	-0
576.305	0.04
576.497	-0.03
576.689	-0
576.88	-0.03
577.072	0.03
577.264	0.01
577.456	-0.03
577.647	-0.08
577.839	0.02
578.031	0.03
578.223	0
578.414	-0.04
578.606	0.02
578.798	0.02
578.989	-0.01
579.181	-0.01
579.372	0.02
579.564	-0.01
579.755	-0.01
579.947	-0
580.139	0.01
580.33	-0.05
580.522	-0.03
580.713	-0.07
580.905	-0
581.096	0.01
581.287	-0.02
581.479	-0.01
581.67	0.03
581.862	0.01
582.053	-0.01
582.244	-0.03
582.436	0.01
582.627	0.02
582.818	-0.05
583.01	-0.04
583.201	0.04
583.392	0.05
583.583	0.02
583.775	-0.03
583.966	-0.03
584.157	-0
584.348	-0
584.54	-0.05
584.731	0.02
584.922	-0
585.113	-0.01
585.304	0.01
585.495	-0
585.686	0.01
585.877	0.02
586.068	0.04
586.259	0.02
586.45	0
586.641	-0.02
586.832	-0.05
587.023	0
587.214	-0.02
587.405	-0.02
587.596	-0.03
587.787	0.03
587.978	0.01
588.169	-0.02
588.36	-0.03
588.551	0.01
588.742	-0.03
588.932	0.01
589.123	-0.01
589.314	0.02
589.505	0.01
589.696	-0.01
589.886	-0.02
590.077	-0.03
590.268	-0.01
590.458	-0.03
590.649	-0.05
590.84	0.02
591.03	-0.02
591.221	-0.06
591.412	-0.03
591.602	0.01
591.793	0.03
591.984	-0.02
592.174	-0.02
592.365	0.05
592.555	-0.02
592.746	-0
592.936	0.01
593.127	0
593.317	0.02
593.508	-0.03
593.698	-0.01
593.889	0
594.079	-0
594.269	-0.02
594.46	-0.02
594.65	0
594.84	-0
595.031	-0.02
595.221	-0.03
595.411	-0.05
595.602	0.03
595.792	0
595.982	0
596.172	0.05
596.363	-0.01
596.553	0.02
596.743	0
596.933	-0.01
597.123	0.03
597.314	-0.01
597.504	-0.03
597.694	0.04
597.884	0.01
598.074	-0.01
598.264	-0.03
598.454	0.02
598.644	0.01
598.834	-0
599.024	-0.03
599.214	-0.01
599.404	0.03
599.594	-0.02
599.784	-0.03
599.974	0.05
600.164	0.03
600.354	-0.04
600.544	-0.03
600.734	-0.01
600.924	0.03
601.114	-0.03
601.303	0.01
601.493	-0.01
601.683	-0.02
601.873	0.03
602.063	-0.03
602.252	0.01
602.442	-0.05
602.632	-0.04
602.821	-0.04
603.011	0.03
603.201	-0.01
603.39	-0
603.58	-0.03
603.77	0.02
603.959	0.02
604.149	-0
604.339	0
604.528	0.02
604.718	0.01
604.907	0
605.097	-0.03
605.286	-0.04
605.476	0
605.665	0.04
605.855	-0
606.044	0.04
606.234	0.04
606.423	-0.01
606.612	-0.03
606.802	-0
606.991	0.04
607.181	-0.01
607.37	-0.06
607.559	-0.02
607.749	-0.02
607.938	0.01
608.127	-0.04
608.316	-0.03
608.506	0.01
608.695	-0.04
608.884	-0.02
609.073	-0.01
609.263	0.02
609.452	0
609.641	-0.02
609.83	-0.03
610.019	-0
610.208	-0.04
610.397	-0.01
610.586	0.04
610.775	-0.02
610.965	-0.01
611.154	-0.03
611.343	0
611.532	0.02
611.721	-0.03
611.91	-0.03
612.099	0.02
612.287	-0.03
612.476	-0.01
612.665	0
612.854	-0.05
613.043	0.03
613.232	-0.03
613.421	-0.04
613.61	0.04
613.798	-0.03
613.987	0.02
614.176	-0
614.365	-0.03
614.554	-0.02
614.742	0
614.931	-0.04
615.12	0.05
615.309	-0
615.497	-0.02
615.686	-0.03
615.875	-0.01
616.063	-0.01
616.252	-0.04
616.44	-0.04
616.629	-0.03
616.818	0.03
617.006	-0.01
617.195	-0.01
617.383	0.02
617.572	-0.01
617.76	-0.05
617.949	-0.01
618.137	0.01
618.326	0.04
618.514	-0.05
618.703	-0.05
618.891	0.05
619.079	-0.05
619.268	0.03
619.456	-0.02
619.644	0.01
619.833	-0.03
620.021	-0.02
620.209	-0.04
620.398	0
620.586	0
620.774	0.03
620.962	-0.01
621.151	0.04
621.339	0.01
621.527	-0.02
621.715	-0.03
621.903	-0.04
622.092	-0.03
622.28	0.01
622.468	-0.02
622.656	-0.01
622.844	0.01
623.032	-0.03
623.22	-0.04
623.408	0
623.596	0.01
623.784	0.03
623.972	-0.04
624.16	0
624.348	0.05
624.536	-0.02
624.724	0.01
624.912	0.01
625.1	0.03
625.288	-0.02
625.476	-0
625.664	0.02
625.851	-0.03
626.039	0
626.227	0.02
626.415	-0.02
626.603	-0.07
626.79	0.01
626.978	0.01
627.166	0.01
627.354	0.01
627.541	-0.02
627.729	-0.04
627.917	-0.01
628.104	0.01
628.292	-0.02
628.48	-0.03
628.667	-0
628.855	0.02
629.042	0.02
629.23	-0.03
629.418	-0
629.605	0.01
629.793	-0.02
629.98	-0.03
630.168	-0.02
630.355	0.02
630.543	0.04
630.73	-0.04
630.917	0.03
631.105	0.06
631.292	-0.01
631.48	-0.02
631.667	0.06
631.854	-0
632.042	-0.02
632.229	-0.04
632.416	-0
632.604	0.01
632.791	-0.02
632.978	-0
633.165	0.01
633.353	0.09
633.54	0.03
633.727	-0.07
633.914	-0.01
634.101	0.01
634.289	0.06
634.476	-0.02
634.663	-0.01
634.85	0
635.037	-0.08
635.224	-0.07
635.411	0.01
635.598	0.05
635.785	0.01
635.972	-0.01
636.159	0.03
636.346	-0.06
636.533	0.01
636.72	-0.02
636.907	-0.02
637.094	-0.03
637.281	-0.05
637.468	-0
637.655	-0.04
637.842	0.03
638.029	-0.01
638.215	0.03
638.402	0
638.589	-0.04
638.776	-0.04
638.963	0.01
639.149	0.05
639.336	0.08
639.523	0
639.709	-0.02
639.896	-0.03
640.083	0.06
640.27	0.02
640.456	-0.04
640.643	0.01
640.829	-0.03
641.016	0
641.203	-0.05
641.389	-0
641.576	0.01
641.762	-0.01
641.949	-0.06
642.135	-0
642.322	0.03
642.508	-0.07
642.695	-0.01
642.881	-0.02
643.068	-0.03
643.254	-0.01
643.441	0.03
643.627	0.01
643.813	-0.05
644	0.03
644.186	-0.04
644.372	-0.05
644.559	0.03
644.745	-0.03
644.931	-0.03
645.118	-0
645.304	0.01
645.49	-0.01
645.676	0.02
645.862	-0.02
646.049	0.02
646.235	0.02
646.421	0.04
646.607	0.05
646.793	-0.02
646.979	-0.03
647.165	0.03
647.352	0.01
647.538	0
647.724	0.01
647.91	0
648.096	0.01
648.282	0.05
648.468	-0.02
648.654	0.03
648.84	0.01
649.026	0.01
649.212	0.03
649.397	-0.05
649.583	-0.03
649.769	0.01
649.955	-0.01
650.141	-0.01
650.327	0.03
650.513	-0.01
650.698	-0
650.884	-0.09
651.07	0.01
651.256	0.01
651.442	0.03
651.627	-0.04
651.813	0.03
651.999	0.02
652.184	0.04
652.37	-0.02
652.556	-0.05
652.741	0.02
652.927	-0.04
653.113	-0
653.298	0.01
653.484	-0.02
653.669	-0.04
653.855	0.01
654.04	0.04
654.226	-0
654.412	-0.03
654.597	-0.01
654.782	-0
654.968	0.05
655.153	0.01
655.339	-0.02
655.524	-0.04
655.71	0.03
655.895	0.01
656.08	-0.01
656.266	0.04
656.451	-0
656.636	-0.05
656.822	0.01
657.007	-0.02
657.192	-0.02
657.378	-0.08
657.563	-0
657.748	0.01
657.933	0.03
658.118	-0.03
658.304	-0.01
658.489	0.03
658.674	-0.02
658.859	-0.03
659.044	0.05
659.229	0.06
659.414	-0.03
659.599	0.03
659.785	-0.03
659.97	-0.01
660.155	-0
660.34	0.04
660.525	-0.01
660.71	0.01
660.895	0.07
661.08	0.01
661.264	-0.02
661.449	0.04
661.634	0.05
661.819	0.03
662.004	0.03
662.189	-0.05
662.374	0.01
662.559	-0.03
662.743	-0.05
662.928	0.02
663.113	0.02
663.298	-0.09
663.483	-0.02
663.667	0.03
663.852	-0.03
664.037	0.07
664.221	-0.03
664.406	0.06
664.591	0.02
664.775	-0.02
664.96	0.03
665.145	0.06
665.329	0.03
665.514	0.01
665.698	0
665.883	-0.05
666.068	0.09
666.252	0.01
666.437	-0.01
666.621	0.02
666.806	0
666.99	0.01
667.174	-0.03
667.359	0.07
667.543	0.04
667.728	-0.01
667.912	-0.04
668.096	0.04
668.281	0.01
668.465	0.01
668.649	0.02
668.834	-0.02
669.018	0.01
669.202	0.03
669.387	-0.02
669.571	0.06
669.755	-0.03
669.939	-0
670.124	0.04
670.308	0.08
670.492	0.04
670.676	0.03
670.86	0.04
671.044	0.02
671.228	0.04
671.413	0.01
671.597	0.02
671.781	0
671.965	0.04
672.149	0
672.333	0.04
672.517	-0.02
672.701	0.05
672.885	0.02
673.069	-0.04
673.253	0.1
673.437	0.02
673.621	0.05
673.804	0.02
673.988	0.03
674.172	-0
674.356	-0.03
674.54	-0
674.724	0.09
674.908	0.02
675.091	0.08
675.275	0.02
675.459	0.08
675.643	0.04
675.826	0.07
676.01	0.05
676.194	0.06
676.377	0.09
676.561	0.07
676.745	0.02
676.928	0.07
677.112	0.07
677.296	0.03
677.479	0.03
677.663	0.04
677.846	0.06
678.03	0.09
678.213	0.05
678.397	0.06
678.58	0.07
678.764	0.06
678.947	0.05
679.131	0.05
679.314	0.05
679.498	0.03
679.681	0.09
679.865	0.08
680.048	0.02
680.231	0.09
680.415	0.04
680.598	0.07
680.781	0.03
680.965	0.04
681.148	0.09
681.331	0.08
681.514	0.1
681.698	0.06
681.881	0.09
682.064	0.07
682.247	0.08
682.43	0.07
682.614	0.1
682.797	0.14
682.98	0.12
683.163	0.09
683.346	0.06
683.529	0.09
683.712	0.01
683.895	0.14
684.078	0.06
684.261	0.07
684.444	0.1
684.627	0.06
684.81	0.08
684.993	0.11
685.176	0.13
685.359	0.08
685.542	0.07
685.725	0.17
685.908	0.12
686.091	0.15
686.274	0.2
686.457	0.13
686.639	0.1
686.822	0.15
687.005	0.13
687.188	0.18
687.371	0.2
687.553	0.19
687.736	0.13
687.919	0.23
688.102	0.21
688.284	0.11
688.467	0.14
688.65	0.14
688.832	0.14
689.015	0.15
689.197	0.12
689.38	0.19
689.563	0.24
689.745	0.13
689.928	0.08
690.11	0.13
690.293	0.14
690.475	0.11
690.658	0.19
690.84	0.17
691.023	0.11
691.205	0.14
691.388	0.17
691.57	0.18
691.752	0.19
691.935	0.08
692.117	0.19
692.3	0.23
692.482	0.18
692.664	0.2
692.847	0.2
693.029	0.32
693.211	0.25
693.393	0.17
693.576	0.2
693.758	0.2
693.94	0.23
694.122	0.23
694.304	0.2
694.487	0.23
694.669	0.35
694.851	0.21
695.033	0.28
695.215	0.2
695.397	0.17
695.579	0.26
695.761	0.21
695.943	0.15
696.125	0.31
696.308	0.25
696.49	0.21
696.671	0.37
696.853	0.27
697.035	0.4
697.217	0.26
697.399	0.34
697.581	0.25
697.763	0.31
697.945	0.25
698.127	0.29
698.309	0.37
698.491	0.38
698.672	0.41
698.854	0.33
699.036	0.43
699.218	0.35
699.399	0.43
699.581	0.46
699.763	0.32
699.945	0.35
700.126	0.37
700.308	0.42
700.49	0.41
700.671	0.34
700.853	0.32
701.035	0.39
701.216	0.43
701.398	0.43
701.579	0.44
701.761	0.5
701.943	0.42
702.124	0.39
702.306	0.48
702.487	0.65
702.669	0.48
702.85	0.47
703.031	0.49
703.213	0.54
703.394	0.62
703.576	0.47
703.757	0.62
703.938	0.61
704.12	0.72
704.301	0.51
704.483	0.55
704.664	0.59
704.845	0.74
705.026	0.66
705.208	0.68
705.389	0.66
705.57	0.68
705.751	0.68
705.933	0.67
706.114	0.71
706.295	0.67
706.476	0.66
706.657	0.79
706.838	0.7
707.02	0.75
707.201	0.7
707.382	0.76
707.563	0.73
707.744	0.69
707.925	0.7
708.106	0.73
708.287	0.85
708.468	0.86
708.649	0.87
708.83	0.89
709.011	0.77
709.192	0.95
709.373	0.84
709.554	0.86
709.734	0.94
709.915	0.98
710.096	0.96
710.277	0.88
710.458	1.04
710.639	1.03
710.819	0.89
711	0.98
711.181	1.15
711.362	1.13
711.542	1.07
711.723	1.09
711.904	1.23
712.085	1.15
712.265	1.14
712.446	1.04
712.627	1.18
712.807	1.22
712.988	1.22
713.168	1.16
713.349	1.25
713.53	1.2
713.71	1.32
713.891	1.25
714.071	1.37
714.252	1.36
714.432	1.38
714.613	1.4
714.793	1.48
714.974	1.54
715.154	1.64
715.334	1.59
715.515	1.65
715.695	1.49
715.876	1.59
716.056	1.65
716.236	1.58
716.417	1.7
716.597	1.63
716.777	1.91
716.957	1.71
717.138	1.85
717.318	1.81
717.498	1.87
717.678	1.82
717.859	1.94
718.039	1.86
718.219	2.06
718.399	1.98
718.579	1.92
718.759	2.08
718.939	2.17
719.12	2.1
719.3	2.16
719.48	2.07
719.66	2.13
719.84	2.32
720.02	2.25
720.2	2.25
720.38	2.46
720.56	2.43
720.74	2.4
720.92	2.56
721.1	2.83
721.279	2.65
721.459	2.67
721.639	2.63
721.819	2.74
721.999	2.82
722.179	2.83
722.359	2.73
722.538	2.95
722.718	2.95
722.898	2.91
723.078	3.01
723.257	3.07
723.437	3.1
723.617	3.16
723.797	3.24
723.976	3.32
724.156	3.38
724.336	3.36
724.515	3.6
724.695	3.38
724.874	3.57
725.054	3.63
725.234	3.58
725.413	3.6
725.593	3.67
725.772	3.7
725.952	3.8
726.131	3.8
726.311	3.83
726.49	3.93
726.67	3.98
726.849	3.86
727.028	4.15
727.208	4.15
727.387	4.25
727.567	4.16
727.746	4.17
727.925	4.21
728.105	4.19
728.284	4.35
728.463	4.41
728.643	4.48
728.822	4.42
729.001	4.59
729.18	4.69
729.359	4.67
729.539	4.91
729.718	4.76
729.897	4.97
730.076	5.02
730.255	5.08
730.434	5.17
730.614	5.16
730.793	5.26
730.972	5.33
731.151	5.28
731.33	5.52
731.509	5.52
731.688	5.61
731.867	5.64
732.046	5.6
732.225	5.92
732.404	5.8
732.583	5.63
732.762	5.97
732.941	6.01
733.12	5.98
733.298	6.09
733.477	6.19
733.656	6.2
733.835	6.1
734.014	6.44
734.193	6.27
734.371	6.42
734.55	6.58
734.729	6.26
734.908	6.45
735.086	6.57
735.265	6.71
735.444	6.39
735.623	6.6
735.801	6.55
735.98	6.65
736.159	6.6
736.337	6.74
736.516	6.61
736.694	6.6
736.873	6.36
737.052	6.96
737.23	6.46
737.409	6.3
737.587	6.66
737.766	6.21
737.944	6.41
738.123	6.45
738.301	6.23
738.479	6.2
738.658	6.19
738.836	5.6
739.015	6.07
739.193	5.9
739.371	5.58
739.55	5.54
739.728	5.31
739.906	5.47
740.085	5.4
740.263	5.31
740.441	4.78
740.62	5.11
740.798	4.87
740.976	4.6
741.154	4.45
741.332	4.63
741.511	4.23
741.689	4.2
741.867	4.18
742.045	3.9
742.223	3.82
742.401	3.64
742.579	3.53
742.757	3.61
742.935	3.07
743.114	3.11
743.292	3.1
743.47	3.04
743.648	3.05
743.826	2.74
744.004	2.94
744.181	2.7
744.359	2.62
744.537	2.49
744.715	2.37
744.893	2.34
745.071	2.22
745.249	2.13
745.427	2.02
745.605	2.18
745.782	2.12
745.96	1.86
746.138	1.91
746.316	1.95
746.493	1.64
746.671	1.8
746.849	1.56
747.027	1.71
747.204	1.41
747.382	1.59
747.56	1.12
747.737	1.44
747.915	1.28
748.093	1.35
748.27	1.2
748.448	1.06
748.625	1.06
748.803	1.02
748.98	1
749.158	1.04
749.335	1.14
749.513	0.95
749.69	0.93
749.868	0.91
750.045	0.9
750.223	0.81
750.4	0.64
750.578	0.95
750.755	0.89
750.932	0.64
751.11	0.81
751.287	0.58
751.464	0.82
751.642	0.63
751.819	0.67
751.996	0.6
752.173	0.6
752.351	0.51
752.528	0.61
752.705	0.46
752.882	0.45
753.06	0.51
753.237	0.53
753.414	0.73
753.591	0.62
753.768	0.35
753.945	0.48
754.122	0.37
754.299	0.44
754.476	0.38
754.654	0.29
754.831	0.48
755.008	0.36
755.185	0.41
755.362	0.23
755.539	0.43
755.716	0.28
755.892	0.32
756.069	0.31
756.246	0.35
756.423	0.31
756.6	0.51
756.777	0.34
756.954	0.35
757.131	0.22
757.307	0.26
757.484	0.22
757.661	0.23
757.838	0.28
758.015	0.06
758.191	0.32
758.368	0.31
758.545	0.52
758.721	0.3
758.898	0.12
759.075	0.23
759.251	0.2
759.428	0.33
759.605	0.08
759.781	0.24
759.958	0.22
760.134	0.17
760.311	0.11
760.488	0.24
760.664	0.27
760.841	0.17
761.017	0.08
761.194	0.08
761.37	0.16
761.547	0.14
761.723	0.17
761.899	0.33
762.076	0.04
762.252	0.09
762.429	0.22
762.605	0.22
762.781	0.11
762.958	0.14
763.134	0.17
763.31	-0.05
763.486	0.21
763.663	-0.01
763.839	0.17
764.015	-0.14
764.191	-0.02
764.368	0.01
764.544	0.05
764.72	0.06
764.896	0.17
765.072	0.13
765.248	0.14
765.425	0.05
765.601	0.06
765.777	0.2
765.953	-0.15
766.129	0.02
766.305	-0.01
766.481	0.12
766.657	0.16
766.833	0.3
767.009	-0.04
767.185	0.13
767.361	0.08
767.537	-0.02
767.713	0.26
767.889	0.08
768.065	0.15
768.24	0.27
768.416	0.28
768.592	0
768.768	0.01
768.944	0.09
769.12	-0.14
769.295	-0.04
769.471	0.06
769.647	0.18
769.823	0.15
769.998	0.08
770.174	-0.07
770.35	0.44
770.525	0.21
770.701	0.07
770.877	-0.09
771.052	0.02
771.228	0.27
771.403	0.23
771.579	0.08
771.755	0.16
771.93	-0.03
772.106	-0.11
772.281	-0.13
772.457	-0.01
772.632	0.12
772.808	-0.12
772.983	-0.03
773.159	-0.14
773.334	0.21
773.509	0.09
773.685	-0.09
773.86	0.19
774.036	0.1
774.211	0.1
774.386	0.04
774.562	0.02
774.737	0.21
774.912	-0.01
775.087	0.1
775.263	0.06
775.438	0.07
775.613	-0.02
775.788	-0.01
775.964	0.12
776.139	0.12
776.314	-0.14
776.489	0.14
776.664	0.13
776.839	-0.02
777.014	0.21
777.19	0.05
777.365	0.34
777.54	0.24
777.715	-0.04
777.89	0.1
778.065	-0.18
778.24	0
778.415	0.13
778.59	-0.12
778.765	-0.06
778.94	0.17
779.115	0.09
779.289	-0.19
779.464	0.05
779.639	0.02
779.814	-0.24
779.989	-0.25
780.164	0.14
780.339	0.04
780.513	-0.12
780.688	-0.05
780.863	0.07
781.038	0.2
781.212	-0.03
781.387	-0
781.562	0.29
781.737	0.01
781.911	0.06
782.086	0.02
782.261	-0.06
782.435	0.27
782.61	0.01
782.784	0.04
782.959	0.13
783.134	-0.13
783.308	-0.27
783.483	0.1
783.657	0.41
783.832	0.26
784.006	-0.17
784.181	-0.09
784.355	0.2
784.53	-0.21
784.704	-0.12
784.878	0.17
785.053	0.11
785.227	0.22
785.402	0.24
785.576	-0.18
785.75	0.11
785.925	0.03
786.099	0.12
786.273	0.19
786.448	0.12
786.622	0.14
786.796	-0.1
786.97	-0.08
787.145	0.45
787.319	-0.38
787.493	-0.15
787.667	-0.48
787.841	0.06
788.015	0.19
788.19	-0.08
788.364	0.19
788.538	0.15
788.712	0.08
788.886	0
789.06	0.25
789.234	0.24
789.408	-0.18
789.582	-0.06
789.756	-0.04
789.93	-0.08
790.104	0.07
790.278	-0.11
790.452	0.06
790.626	-0.01
790.8	-0.12
790.973	0.18
791.147	0.18
791.321	0.18
791.495	0.17
791.669	0.08
791.843	-0.03
792.016	0.19
792.19	0.27
792.364	-0.28
792.538	0.52
792.711	0.23
792.885	-0.11
793.059	-0.19
793.233	-0.52
793.406	0.1
793.58	0.04
793.754	0.16
793.927	0.11
794.101	0.09
794.274	-0.11
794.448	0.43
794.622	-0.08
794.795	0.19
794.969	-0.13
795.142	0.4
795.316	0.13
795.489	-0.23
795.663	0.43
795.836	0.02
796.009	-0.31
796.183	0.41
796.356	0.19
796.53	-0.01
796.703	0.07
796.876	0.46
797.05	0.04
797.223	0.02
797.396	0.07
797.57	-0.15
797.743	0.26
797.916	0.1
798.09	0.06
798.263	0.14
798.436	0.15
798.609	0.09
798.782	-0
798.956	0.15
799.129	0.07
799.302	-0.11
799.475	-0.11
799.648	-0.09
799.821	-0.24
799.994	-0.01
800.167	-0.25
800.34	0.16
800.514	-0.14
800.687	0.04
800.86	0.31
801.033	0.1
801.206	-0.01
801.379	-0.21
801.551	0.2
801.724	0.24
801.897	-0.17
802.07	-0.31
802.243	-0.36
802.416	-0.1
802.589	-0.18
802.762	0.28
802.935	0.13
803.107	0.35
803.28	0.21
803.453	0.06
803.626	-0.22
803.798	-0.03
803.971	-0.21
804.144	0.21
804.317	0.43
804.489	0.5
804.662	-0.05
804.835	0.25
805.007	-0.19
805.18	0.38
805.353	0.27
805.525	-0.02
805.698	-0.04
805.87	0.22
806.043	0.1
806.215	-0.12
806.388	-0.32
806.56	0.18
806.733	0.51
806.905	-0.13
807.078	-0.06
807.25	-0.12
807.423	0.29
807.595	-0.03
807.768	0.24
807.94	0.32
808.112	0.09
808.285	-0.07
808.457	-0.22
808.629	-0.26
808.802	0.37
808.974	0.1
809.146	-0.04
809.318	-0.33
809.491	0.08
809.663	0.41
809.835	-0.25
810.007	0.32
810.18	0.11
810.352	-0.16
810.524	-0.42
810.696	0.34
810.868	0.75
811.04	0.02
811.212	0.13
811.384	0.14
811.556	0.35
811.728	0.23
811.901	0.9
812.073	-0.09
812.245	0.45
812.417	-0.03
812.589	-0.68
812.76	-0.11
812.932	0.06
813.104	0.56
813.276	0.12
813.448	0.62
813.62	0.33
813.792	0.04
813.964	0.32
814.136	0.52
814.307	0.03
814.479	-0.37
814.651	-0.1
814.823	0.68
814.995	-0.37
815.166	0.14
815.338	-0.01
815.51	-0.4
815.681	1.15
815.853	0.13
816.025	0.32
816.196	0.54
816.368	0.89
816.54	-0.5
816.711	0.12
816.883	0.09
817.054	0.77
817.226	-0.33
817.398	0.4
817.569	0.21
817.741	0.06
817.912	-0.09
818.084	-0.22
818.255	0.13
818.426	0.4
818.598	0.12
818.769	-0.4
818.941	0.34
819.112	0.59
819.283	0.57
819.455	-0.1
819.626	0.34
819.798	0.42
819.969	0.19
820.14	-0.15
820.311	-0.29
820.483	0.25
820.654	0.62
820.825	0.38
820.996	-0.4
821.168	-0.56
821.339	0.23
821.51	-0
821.681	-0.07
821.852	0.23
822.023	-0.05
822.195	0.04
822.366	0.3
822.537	-0.06
822.708	0.1
822.879	-0.31
823.05	0.36
823.221	0.25
823.392	0.26
823.563	0.26
823.734	-0.17
823.905	-0.48
824.076	0.03
824.247	-0.47
824.418	-0.21
824.589	0.55
824.759	0.29
824.93	-0.27
825.101	-0.48
825.272	0.98
825.443	0.39
825.614	0.47
825.784	-0.5
825.955	0.96
826.126	0.61
826.297	0.33
826.467	0.89
826.638	0.57
826.809	-1.51
826.98	-0.03
827.15	0.59
827.321	0.6
827.492	0.81
827.662	0.23
827.833	1.26
828.003	-0.01
828.174	-0.17
828.345	-0.73
828.515	0.36
828.686	0.21
828.856	-0.2
829.027	0.16
829.197	0.51
829.368	0.45
829.538	0.41
829.709	-0.04
829.879	0.24
830.049	-0.21
830.22	-0.02
830.39	-0.17
830.56	0.78
830.731	-0.12
830.901	0.31
831.072	0.36
831.242	0.42
831.412	-0.11
831.582	-0.28
831.753	-0.05
831.923	0.76
832.093	0.2
832.263	-0.45
832.434	-0.18
832.604	-0.11
832.774	0.74
832.944	-0.41
833.114	-0.09
833.284	0.4
833.454	-0.54
833.624	-0.59
833.795	-0.3
833.965	0.42
834.135	0.34
834.305	-0.47
834.475	-0.41
834.645	0.4
834.815	-0.62
834.985	-0.46
835.155	0.2
835.325	0.46
835.494	0.12
835.664	0.01
835.834	-0.34
836.004	0.15
836.174	0.62
836.344	0.28
836.514	-1.12
836.684	-0.57
836.853	0.65
837.023	0.39
837.193	-0.03
837.363	0.68
837.532	0.6
837.702	-0.29
837.872	-0.5
838.041	0.85
838.211	1.25
838.381	-0.62
838.55	0.26
838.72	0.89
838.89	1.64
839.059	-0.29
839.229	-0.83
839.398	1.81
839.568	-0.26
839.738	0.01
839.907	1.37
840.077	0.06
840.246	0.05
840.416	-0.59
840.585	-0.23
840.755	1.71
840.924	1.08
841.093	-0.57
841.263	-0.18
841.432	0.43
841.602	-0.02
841.771	-0.67
841.94	-0.28
842.11	1.62
842.279	1.93
842.448	-0.58
842.617	-0.93
842.787	1.51
842.956	-0.06
843.125	-0.66
843.294	0.68
843.464	1.35
843.633	0.72
843.802	-1.06
843.971	-0.04
844.14	0.88
844.309	0.62
844.479	-0.32
844.648	-0.15
844.817	-0.33
844.986	0.48
845.155	-0.35
845.324	-0.72
845.493	0.43
845.662	-0.62
845.831	-0.08
846	0.58
846.169	-0.28
846.338	0.98
846.507	0.79
846.676	0.87
846.844	-0.38
847.013	1.15
847.182	0.19
847.351	-0.65
847.52	0.19
847.689	0.34
847.858	0.38
848.026	-0.24
848.195	-0.35
848.364	-0.49
848.533	-0.82
848.701	-0.63
848.87	-0.12
849.039	0.4
849.207	1.14
849.376	0.9
849.545	1.52
849.713	-0.36
849.882	-0.02
850.051	0.23
850.219	0.59
850.388	0.57
850.556	-0.85
850.725	-0.06
850.893	-0.15
851.062	0.6
851.23	0.49
851.399	-2.24
851.567	-0.32
851.736	-0.28
851.904	-0.54
852.073	0.98
852.241	1.2
852.41	0.33
852.578	-0.56
852.746	-0.34
852.915	0.25
853.083	0.51
853.251	-0.78
853.42	-0.01
853.588	0.44
853.756	0.92
853.924	0.51
854.093	-0.24
854.261	0.06
854.429	-0.19
854.597	-0.27
854.765	-0.46
854.934	0.45
855.102	2.09
855.27	-0.69
855.438	0.98
855.606	1.21
855.774	2.05
855.942	-0.72
856.11	-1.74
856.278	-0.44
856.446	0.79
856.614	1.13
856.782	-0.55
856.95	1.9
857.118	0.2
857.286	-0.6
857.454	-1.14
857.622	1.53
857.79	1.38
857.958	-0.44
858.126	-0.47
858.294	-2.42
858.462	0.21
858.629	-0.77
858.797	-0.44
858.965	0.54
859.133	0.33
859.301	0.61
859.468	0.75
859.636	-1.15
859.804	2.71
859.971	1.36
860.139	-0.45
860.307	1.01
860.474	0.12
860.642	0.65
860.81	-1.55
860.977	-0.1
861.145	0.37
861.313	-0.55
861.48	0.11
861.648	1.63
861.815	-0.64
861.983	0.2
862.15	-0.06
862.318	2.21
862.485	1.04
862.653	0.18
862.82	0.46
862.988	1.49
863.155	1.81
863.322	-1.53
863.49	-0.11
863.657	-0.89
863.824	1.72
863.992	1.31
864.159	0.58
864.326	0.89
864.494	-0.34
864.661	2.76
864.828	-0.99
864.996	0.45
865.163	2.07
865.33	-2.04
865.497	-2.47
865.664	-0.27
865.832	-0.74
865.999	0.13
866.166	-0.71
866.333	0.25
866.5	-0.88
866.667	1.83
866.834	-0.13
867.001	4.13
867.168	-2.08
867.335	-0.3
867.502	-1.76
867.669	0.79
867.836	3.04
868.003	-0.46
868.17	0.36
868.337	-1.47
868.504	1.85
868.671	-0.41
868.838	-0.44
869.005	0.11
869.172	0.76
869.339	-0.44
869.505	-0.14
869.672	0.35
869.839	1.4
870.006	1.48
870.173	-0.95
870.339	-0.54
870.506	2.59
870.673	-0.35
870.84	2.49
871.006	0.71
871.173	0.25
871.34	0.37
871.506	-0.24
871.673	1.53
871.839	-1.71
872.006	0.83
872.173	-0.07
872.339	-0.94
872.506	1.41
872.672	0.93
872.839	-2.06
873.005	-0.32
873.172	4.1
873.338	1.62
873.505	0.75
873.671	-0.45
873.838	0.81
874.004	-0.94
874.171	-1.44
874.337	1.61
874.503	1.2
874.67	-0.91
874.836	0.38
875.002	3.44
875.169	1.46
875.335	-0.35
875.501	0.81
875.668	1.51
875.834	1.1
876	0.57
876.166	2.86
876.332	2.94
876.499	2.98
876.665	0.33
876.831	0.69
876.997	2.43
877.163	0.7
877.329	0.09
877.495	1.96
877.662	1.46
877.828	2.51
877.994	0.7
878.16	-1.31
878.326	0.35
878.492	-1.11
878.658	0.24
878.824	1.06
878.99	2.08
879.156	0.47
879.322	2.8
879.487	0.11
879.653	1.46
879.819	0.26
879.985	-0.07
880.151	2.15
880.317	0.04
880.483	1.46
880.648	1.2
880.814	-0.86
880.98	1.56
881.146	-2.03
881.312	-0.6
881.477	-0.6
881.643	1.37
881.809	4.2
881.974	3.2
882.14	-2.7
882.306	-1.62
882.471	3.81
882.637	0.56
882.803	1.5
882.968	2.3
883.134	2.81
883.299	0.24
883.465	-1.01
883.63	1.87
883.796	1.88
883.961	2.03
884.127	-0.6
884.292	-4.66
884.458	-2.58
884.623	-2.58
