Data from Apollo_Calib_20240827__AbsoluteIrradiance__714__11-03-00-733.txt Node

Date: Wed Aug 28 11:03:00 BST 2024
User: biology
Spectrometer: FLMT08252
Trigger mode: 0
Integration Time (sec): 5.000000E-1
Scans to average: 5
Electric dark correction enabled: true
Nonlinearity correction enabled: false
Boxcar width: 0
XAxis mode: Wavelengths
Number of Pixels in Spectrum: 3648
>>>>>Begin Spectral Data<<<<<
179.588	-0
179.809	-0
180.03	-0
180.251	-0
180.473	-0
180.694	0
180.915	0
181.136	-0
181.357	-0
181.578	-0
181.799	-0
182.02	-0
182.241	0
182.462	-0
182.683	0
182.904	-0
183.125	0
183.346	0
183.567	0
183.788	-0
184.009	-0
184.23	0
184.451	0
184.672	-0
184.892	-0
185.113	0
185.334	0
185.555	-0
185.776	-0
185.996	0
186.217	0
186.438	-0
186.659	-0
186.879	0
187.1	-0
187.321	-0
187.541	-0
187.762	-0
187.983	0
188.203	0
188.424	-0
188.644	-0
188.865	-0
189.086	-0
189.306	-0
189.527	0
189.747	-0
189.968	-0
190.188	0
190.409	-0
190.629	0
190.849	-0
191.07	-0
191.29	0
191.511	0
191.731	0
191.951	-0
192.172	-0
192.392	0
192.612	-0
192.833	0
193.053	0
193.273	0
193.493	-0
193.714	-0
193.934	0
194.154	0
194.374	0
194.594	0
194.815	0
195.035	0
195.255	-0
195.475	-0
195.695	0
195.915	0
196.135	0
196.355	0
196.575	0
196.795	0
197.015	-0
197.235	-0
197.455	-0
197.675	0
197.895	-0
198.115	-0
198.335	0
198.555	-0
198.775	0
198.995	0
199.214	0
199.434	-0
199.654	-0
199.874	-0
200.094	1.09
200.313	-0.03
200.533	-0.88
200.753	-0.88
200.973	0.63
201.192	1.27
201.412	-0.83
201.632	-0.24
201.851	0.57
202.071	-0.54
202.291	-0.49
202.51	-0.68
202.73	-0.17
202.95	-0.04
203.169	-0.23
203.389	-0.03
203.608	0.21
203.828	-0.21
204.047	-0.08
204.267	0.23
204.486	-0.01
204.706	0.4
204.925	-0.27
205.145	-0.44
205.364	0.61
205.583	0.39
205.803	-0.53
206.022	-0.64
206.242	-0.2
206.461	-0.03
206.68	-0.08
206.9	-0.01
207.119	0.57
207.338	0.5
207.557	-0.27
207.777	-0.18
207.996	-0.24
208.215	0.26
208.434	-0.14
208.654	-0.53
208.873	-0.36
209.092	0.51
209.311	-0.28
209.53	-0.19
209.749	-0.07
209.968	-0.12
210.187	-0.13
210.407	-0.38
210.626	-0.02
210.845	0.08
211.064	-0.04
211.283	-0.52
211.502	0.22
211.721	0.06
211.94	-0.36
212.159	0.09
212.377	0.14
212.596	0.29
212.815	0.1
213.034	0.07
213.253	0.2
213.472	0.14
213.691	-0.11
213.91	-0.42
214.128	-0.08
214.347	0.53
214.566	-0.25
214.785	-0.49
215.003	0.23
215.222	-0.11
215.441	-0.03
215.66	-0.36
215.878	-0
216.097	0.22
216.316	-0.29
216.534	-0.2
216.753	0.13
216.972	-0.04
217.19	-0.07
217.409	-0.19
217.627	-0.18
217.846	-0.12
218.064	-0.05
218.283	-0.35
218.501	0.26
218.72	0.27
218.938	-0.27
219.157	-0.15
219.375	0.21
219.594	0.1
219.812	-0.3
220.031	-0.31
220.249	0.23
220.467	0.21
220.686	0.01
220.904	-0.2
221.122	-0.16
221.341	0.38
221.559	0.04
221.777	-0.15
221.995	0.02
222.214	0.21
222.432	-0.2
222.65	0.08
222.868	0.11
223.086	0.03
223.305	0.16
223.523	0.03
223.741	0.3
223.959	-0.12
224.177	-0.37
224.395	-0.08
224.613	0.02
224.831	0.05
225.049	-0.19
225.267	-0.14
225.485	0.06
225.703	-0.09
225.921	0
226.139	-0.18
226.357	0.07
226.575	0.06
226.793	-0.06
227.011	0.53
227.229	0.02
227.447	0.13
227.665	0.02
227.883	-0.28
228.1	0.1
228.318	0.06
228.536	-0.4
228.754	-0.24
228.972	0.13
229.189	0.02
229.407	-0.11
229.625	-0.04
229.843	0.14
230.06	0.07
230.278	-0.15
230.496	0.1
230.713	-0.04
230.931	0.08
231.149	-0.14
231.366	-0.28
231.584	-0.1
231.801	0.43
232.019	-0.07
232.236	-0.14
232.454	-0.11
232.671	0.01
232.889	-0.05
233.106	-0.07
233.324	-0.08
233.541	-0.09
233.759	0.01
233.976	-0.07
234.194	-0.08
234.411	0.05
234.628	-0.09
234.846	-0.09
235.063	0.04
235.28	-0.04
235.498	-0.02
235.715	-0.14
235.932	0.19
236.149	-0.05
236.367	-0.04
236.584	0.09
236.801	-0.08
237.018	0.14
237.236	-0.13
237.453	-0.2
237.67	0.08
237.887	0.03
238.104	-0.04
238.321	-0.1
238.538	-0.09
238.755	0.08
238.973	-0.24
239.19	0.04
239.407	0.15
239.624	0.03
239.841	-0.14
240.058	-0.13
240.275	-0.07
240.492	-0.02
240.709	-0.03
240.925	-0.07
241.142	0.03
241.359	-0.09
241.576	-0.12
241.793	-0.04
242.01	-0.05
242.227	0.1
242.444	0.05
242.66	0.02
242.877	-0.03
243.094	-0.07
243.311	-0.01
243.527	-0
243.744	-0.01
243.961	0.08
244.178	-0.07
244.394	-0.06
244.611	0.16
244.828	0.19
245.044	-0.14
245.261	-0.03
245.477	0.07
245.694	-0.01
245.911	-0.08
246.127	0.01
246.344	0.09
246.56	0.05
246.777	-0.02
246.993	-0.05
247.21	0.07
247.426	0.05
247.643	-0.02
247.859	-0.09
248.076	-0.12
248.292	0.18
248.508	-0.06
248.725	0.04
248.941	-0.04
249.157	0.05
249.374	-0.09
249.59	-0.02
249.806	0.02
250.023	0.2
250.239	-0.04
250.455	-0.04
250.671	-0.04
250.888	0.04
251.104	0.05
251.32	-0.06
251.536	-0.06
251.752	-0.04
251.969	0.02
252.185	-0.04
252.401	0.2
252.617	0.06
252.833	-0.07
253.049	0.06
253.265	-0.04
253.481	0.07
253.697	-0.05
253.913	-0.13
254.129	-0
254.345	0.02
254.561	-0.02
254.777	0.01
254.993	0.03
255.209	0.02
255.425	-0.03
255.641	-0.06
255.857	0.16
256.073	-0.07
256.288	-0.08
256.504	0.01
256.72	0.02
256.936	0.08
257.152	0.03
257.367	-0.08
257.583	0.03
257.799	0.03
258.015	0
258.23	-0.05
258.446	0.08
258.662	-0
258.877	-0.04
259.093	-0.13
259.309	-0.02
259.524	0.05
259.74	-0.05
259.955	-0.1
260.171	0
260.387	0.01
260.602	0.09
260.818	0.04
261.033	-0.04
261.249	-0.05
261.464	-0.06
261.68	-0.09
261.895	0.07
262.11	0.09
262.326	-0.04
262.541	-0.05
262.757	0.07
262.972	0.05
263.187	-0
263.403	-0.03
263.618	0.04
263.833	-0
264.049	-0.05
264.264	-0.05
264.479	-0
264.694	0.1
264.91	-0.06
265.125	0
265.34	0.11
265.555	0.15
265.77	0.04
265.986	-0.08
266.201	0.07
266.416	0.04
266.631	-0.04
266.846	0.01
267.061	0.04
267.276	0.02
267.491	-0.18
267.706	0.04
267.921	0.01
268.136	-0.03
268.351	-0.06
268.566	-0.08
268.781	0.1
268.996	0.02
269.211	-0.02
269.426	-0.05
269.641	-0
269.856	0.1
270.071	-0.09
270.285	-0.1
270.5	0.03
270.715	0.05
270.93	-0.01
271.145	-0.09
271.359	0.07
271.574	-0.09
271.789	0.01
272.004	-0.02
272.218	0.04
272.433	0.07
272.648	-0.03
272.862	0.08
273.077	-0.03
273.292	-0.01
273.506	-0.01
273.721	-0.06
273.936	0.03
274.15	0.07
274.365	-0.08
274.579	0.01
274.794	0.04
275.008	0.12
275.223	-0.1
275.437	-0.03
275.652	0.1
275.866	0.03
276.081	0.02
276.295	0.02
276.509	-0.01
276.724	0.02
276.938	0.04
277.153	-0.02
277.367	0.06
277.581	-0.03
277.796	-0.06
278.01	-0.06
278.224	0.06
278.438	0.11
278.653	-0.07
278.867	-0.08
279.081	-0.17
279.295	-0.02
279.51	-0.04
279.724	-0.06
279.938	0.06
280.152	-0.01
280.366	-0.02
280.58	-0.04
280.794	0.05
281.008	0.03
281.222	0.07
281.437	0.12
281.651	0.02
281.865	0.09
282.079	0.01
282.293	-0.15
282.507	-0.05
282.721	0.01
282.935	-0.01
283.148	-0.04
283.362	-0.03
283.576	-0.05
283.79	0.05
284.004	-0.03
284.218	0.06
284.432	-0.04
284.646	0
284.859	-0.02
285.073	-0.05
285.287	0.01
285.501	0
285.714	-0.03
285.928	0.01
286.142	-0.01
286.356	-0.03
286.569	-0.03
286.783	0.08
286.997	0.03
287.21	-0
287.424	-0.03
287.637	-0.01
287.851	0.03
288.065	0.05
288.278	0.01
288.492	0.04
288.705	-0.03
288.919	0.05
289.132	-0.05
289.346	0.09
289.559	-0.05
289.773	-0.07
289.986	-0.02
290.2	-0.01
290.413	0.08
290.626	-0.06
290.84	-0.01
291.053	0.02
291.267	0.07
291.48	-0.03
291.693	0.01
291.906	0
292.12	-0.01
292.333	-0.07
292.546	0
292.76	0.03
292.973	0.04
293.186	0.02
293.399	-0.02
293.612	0.08
293.826	-0.05
294.039	0.01
294.252	-0.03
294.465	0.04
294.678	0.06
294.891	0.01
295.104	-0.07
295.317	0.03
295.53	0
295.743	0.01
295.956	-0.04
296.169	0.08
296.382	0
296.595	0.02
296.808	-0.08
297.021	0.08
297.234	0.07
297.447	-0.01
297.66	0.04
297.873	0.05
298.086	0.06
298.299	-0.03
298.511	-0.06
298.724	-0
298.937	-0.06
299.15	0.01
299.363	-0
299.575	0.05
299.788	0.01
300.001	-0.01
300.213	-0.05
300.426	0.05
300.639	-0.06
300.852	-0.04
301.064	-0.01
301.277	0.05
301.489	0.05
301.702	0.04
301.915	-0.02
302.127	0
302.34	0.03
302.552	0.01
302.765	-0.05
302.977	0.02
303.19	-0.06
303.402	-0.01
303.615	-0.01
303.827	-0.02
304.04	0.01
304.252	0.01
304.464	0.03
304.677	0.14
304.889	0.06
305.102	-0.05
305.314	-0.01
305.526	0.04
305.739	0.05
305.951	-0.04
306.163	-0.02
306.375	0.07
306.588	-0.03
306.8	-0.02
307.012	-0.07
307.224	-0.01
307.436	0.03
307.649	-0.07
307.861	0
308.073	0.04
308.285	-0.01
308.497	-0.05
308.709	0.02
308.921	0.02
309.133	0.06
309.346	-0.01
309.558	-0.02
309.77	0.05
309.982	0.03
310.194	0.07
310.406	0.01
310.617	0.09
310.829	0.04
311.041	0.05
311.253	-0.02
311.465	0.01
311.677	-0.02
311.889	0.04
312.101	0.01
312.313	0.06
312.524	0.08
312.736	-0.07
312.948	0.01
313.16	0.07
313.372	0.06
313.583	-0.02
313.795	-0.04
314.007	-0.01
314.218	0.03
314.43	0.05
314.642	-0.02
314.853	-0.06
315.065	0.02
315.277	-0.01
315.488	0.02
315.7	0.06
315.912	0
316.123	-0.03
316.335	-0.01
316.546	0.09
316.758	-0.01
316.969	-0.01
317.181	0.01
317.392	0.02
317.604	0.02
317.815	-0.03
318.026	0.01
318.238	-0.03
318.449	0.02
318.661	-0.05
318.872	-0.03
319.083	-0.04
319.295	0.03
319.506	-0.02
319.717	0.01
319.929	0.03
320.14	0.02
320.351	0.02
320.562	-0
320.774	0.05
320.985	0.01
321.196	-0.01
321.407	-0.05
321.618	0.03
321.829	-0.01
322.041	0.02
322.252	0.01
322.463	-0
322.674	0.01
322.885	-0.06
323.096	-0.01
323.307	0.04
323.518	-0.01
323.729	-0.01
323.94	-0.04
324.151	-0
324.362	-0
324.573	0.03
324.784	-0.07
324.995	0.04
325.206	0.03
325.417	-0.04
325.628	-0.02
325.838	-0.02
326.049	0.02
326.26	-0.02
326.471	-0.04
326.682	0.02
326.892	-0.03
327.103	-0.06
327.314	-0.04
327.525	0.04
327.735	0.01
327.946	-0.04
328.157	-0.03
328.368	0.03
328.578	-0
328.789	0.04
328.999	-0.01
329.21	0
329.421	0.04
329.631	-0.06
329.842	-0.06
330.052	0.04
330.263	0.01
330.473	0.04
330.684	-0.01
330.894	-0.02
331.105	0.01
331.315	-0
331.526	-0.04
331.736	0.02
331.947	0.02
332.157	0.02
332.367	-0.01
332.578	0.06
332.788	0.06
332.999	0.03
333.209	0.02
333.419	-0.08
333.629	0.06
333.84	0.06
334.05	0.01
334.26	0.03
334.47	0.01
334.681	0.05
334.891	-0.01
335.101	0.02
335.311	0.05
335.521	-0.01
335.732	-0.03
335.942	0.09
336.152	0.02
336.362	0.01
336.572	0.04
336.782	0.05
336.992	-0.03
337.202	0.02
337.412	-0.06
337.622	0.03
337.832	-0.02
338.042	-0.01
338.252	-0.03
338.462	-0.01
338.672	0.01
338.882	-0.05
339.092	-0.02
339.302	0.08
339.511	0.04
339.721	-0.03
339.931	-0.05
340.141	0.03
340.351	0.08
340.561	0.02
340.77	0.02
340.98	0
341.19	0.01
341.4	-0.04
341.609	-0.01
341.819	-0.04
342.029	-0.06
342.238	-0.02
342.448	0.02
342.658	0.03
342.867	0
343.077	-0.01
343.286	0.02
343.496	0.01
343.706	0.04
343.915	-0.03
344.125	0.05
344.334	-0.02
344.544	-0.09
344.753	-0.03
344.963	-0.05
345.172	-0.01
345.381	-0
345.591	-0.04
345.8	-0.01
346.01	0.07
346.219	0.04
346.428	-0.1
346.638	0
346.847	0.01
347.056	0.05
347.266	-0.03
347.475	-0.02
347.684	-0
347.893	0.02
348.103	0
348.312	-0.04
348.521	-0.03
348.73	-0.03
348.94	0.03
349.149	-0.03
349.358	0.02
349.567	-0.03
349.776	-0.03
349.985	-0.03
350.194	0.05
350.403	0.07
350.612	-0.02
350.821	-0.03
351.03	0.02
351.239	-0.04
351.448	0.02
351.657	-0.03
351.866	0.06
352.075	-0.03
352.284	-0.06
352.493	-0.06
352.702	0.04
352.911	0.04
353.12	0.01
353.329	-0.01
353.538	0.09
353.746	0
353.955	0
354.164	0.04
354.373	0.02
354.582	0.05
354.79	-0
354.999	0.02
355.208	-0.02
355.416	0.06
355.625	-0.03
355.834	0.02
356.042	-0.01
356.251	-0
356.46	-0.05
356.668	0.03
356.877	0.09
357.085	0.05
357.294	-0.09
357.503	-0
357.711	0
357.92	0.1
358.128	0
358.337	-0.03
358.545	0.02
358.754	-0.02
358.962	0.07
359.17	-0.01
359.379	0.05
359.587	0.04
359.796	0.02
360.004	0.05
360.212	0.03
360.421	0.06
360.629	-0.02
360.837	0.04
361.046	0.05
361.254	0.06
361.462	0.01
361.67	0.01
361.879	0.02
362.087	0.08
362.295	-0
362.503	-0
362.711	-0.04
362.92	-0.01
363.128	0.02
363.336	-0.01
363.544	-0.06
363.752	-0.02
363.96	-0.04
364.168	-0.06
364.376	0.01
364.584	0.03
364.792	0.01
365	-0.01
365.208	-0.02
365.416	0.04
365.624	0.04
365.832	0
366.04	0.08
366.248	-0
366.456	0.05
366.664	0.05
366.872	0.01
367.079	-0
367.287	0.01
367.495	0.02
367.703	0.01
367.911	-0.03
368.118	0.01
368.326	0
368.534	-0.04
368.742	0.03
368.949	-0.07
369.157	0.01
369.365	0.01
369.572	-0
369.78	-0.03
369.988	0.04
370.195	0.03
370.403	0.02
370.61	-0.01
370.818	0.02
371.026	0.08
371.233	-0.03
371.441	0
371.648	-0.03
371.856	-0.01
372.063	-0
372.271	-0.01
372.478	-0.01
372.685	-0.06
372.893	0.03
373.1	-0.03
373.308	-0.01
373.515	0.07
373.722	0.01
373.93	-0.01
374.137	0.06
374.344	0.08
374.552	0.08
374.759	0.05
374.966	0.01
375.173	-0.04
375.381	0.06
375.588	-0.04
375.795	-0.03
376.002	-0.02
376.209	-0.01
376.417	0.01
376.624	0.03
376.831	0.05
377.038	-0.01
377.245	-0.04
377.452	-0.02
377.659	0
377.866	-0.02
378.073	-0.01
378.28	-0.01
378.487	-0.03
378.694	0.05
378.901	-0.02
379.108	0.01
379.315	0.03
379.522	0.09
379.729	-0.03
379.936	-0.01
380.143	0.03
380.35	0.02
380.557	-0
380.763	0.03
380.97	0
381.177	-0
381.384	0.02
381.591	-0.05
381.797	0.02
382.004	0.04
382.211	0.02
382.418	-0.04
382.624	0.05
382.831	0.03
383.038	-0.02
383.244	0.01
383.451	0.04
383.658	0.03
383.864	-0.04
384.071	-0.06
384.277	0.08
384.484	-0.04
384.69	-0.02
384.897	-0.03
385.103	-0.03
385.31	-0.01
385.516	-0.01
385.723	-0.01
385.929	0.03
386.136	-0.01
386.342	0.02
386.549	0.02
386.755	0.04
386.961	0.04
387.168	0.01
387.374	0.02
387.58	0.07
387.787	-0
387.993	0.02
388.199	-0.02
388.406	-0.02
388.612	-0.02
388.818	-0.02
389.024	0
389.231	0.02
389.437	0.08
389.643	0.04
389.849	-0.04
390.055	-0.01
390.261	0.01
390.467	0.02
390.674	-0.06
390.88	0.03
391.086	0.05
391.292	-0.03
391.498	0
391.704	0.01
391.91	0.01
392.116	0.04
392.322	-0.1
392.528	0.04
392.734	-0.01
392.94	0.05
393.146	0.02
393.352	0.02
393.557	-0.03
393.763	0.02
393.969	0.03
394.175	-0
394.381	0.04
394.587	-0.08
394.792	0.03
394.998	0.02
395.204	0.02
395.41	0.03
395.615	-0.01
395.821	0.06
396.027	0.01
396.233	-0
396.438	0.01
396.644	0.01
396.85	0.02
397.055	-0.02
397.261	0.01
397.466	0.02
397.672	0
397.878	0.04
398.083	0.03
398.289	-0.01
398.494	0.06
398.7	0.02
398.905	-0.07
399.111	0.06
399.316	-0.04
399.522	0.03
399.727	0
399.932	-0.01
400.138	-0
400.343	0.03
400.549	-0.02
400.754	0.01
400.959	0.04
401.165	0.02
401.37	0.05
401.575	0.09
401.78	-0.01
401.986	-0.03
402.191	-0.01
402.396	0.01
402.601	0.04
402.807	0.02
403.012	0
403.217	0.08
403.422	0.04
403.627	0.01
403.832	0.01
404.037	0.05
404.243	0.02
404.448	-0.01
404.653	-0.02
404.858	0.04
405.063	0.04
405.268	-0
405.473	-0.02
405.678	-0.01
405.883	0.18
406.088	0.05
406.293	-0.04
406.498	-0.03
406.703	0.05
406.907	0.01
407.112	-0.04
407.317	0.03
407.522	0.09
407.727	-0.03
407.932	-0.03
408.136	0.11
408.341	0.01
408.546	0.02
408.751	0.02
408.956	-0.02
409.16	0.08
409.365	-0.01
409.57	0.01
409.774	0.03
409.979	0.04
410.184	0.06
410.388	-0.02
410.593	0.06
410.798	0.05
411.002	0.01
411.207	0.01
411.411	0.04
411.616	0.03
411.82	-0.01
412.025	0.09
412.229	0.02
412.434	0.14
412.638	0.03
412.843	-0.01
413.047	0.04
413.252	-0.03
413.456	0.02
413.66	0.07
413.865	0.02
414.069	0.09
414.273	-0.01
414.478	0.01
414.682	0.04
414.886	0.03
415.091	-0.01
415.295	-0.01
415.499	0.12
415.703	0.05
415.908	0.06
416.112	-0.06
416.316	0.1
416.52	0.07
416.724	0.03
416.929	0.05
417.133	0.14
417.337	0.08
417.541	0.03
417.745	0.04
417.949	0.11
418.153	0.09
418.357	0.05
418.561	0.18
418.765	0.12
418.969	0.2
419.173	0.13
419.377	0.09
419.581	0.2
419.785	0.12
419.989	0.07
420.193	0.09
420.397	0.11
420.601	0.2
420.804	0.19
421.008	0.14
421.212	0.14
421.416	0.16
421.62	0.13
421.823	0.06
422.027	0.21
422.231	0.16
422.435	0.13
422.638	0.15
422.842	0.17
423.046	0.12
423.249	0.17
423.453	0.18
423.657	0.2
423.86	0.15
424.064	0.16
424.268	0.27
424.471	0.21
424.675	0.27
424.878	0.28
425.082	0.23
425.285	0.24
425.489	0.21
425.692	0.26
425.896	0.15
426.099	0.26
426.303	0.21
426.506	0.17
426.71	0.27
426.913	0.29
427.116	0.38
427.32	0.26
427.523	0.3
427.726	0.37
427.93	0.2
428.133	0.32
428.336	0.28
428.54	0.3
428.743	0.33
428.946	0.38
429.149	0.36
429.353	0.35
429.556	0.36
429.759	0.41
429.962	0.3
430.165	0.35
430.368	0.35
430.571	0.31
430.775	0.4
430.978	0.33
431.181	0.39
431.384	0.35
431.587	0.37
431.79	0.38
431.993	0.32
432.196	0.38
432.399	0.42
432.602	0.45
432.805	0.39
433.008	0.46
433.211	0.35
433.414	0.52
433.616	0.47
433.819	0.39
434.022	0.34
434.225	0.5
434.428	0.51
434.631	0.59
434.833	0.48
435.036	0.48
435.239	0.56
435.442	0.52
435.645	0.48
435.847	0.5
436.05	0.6
436.253	0.54
436.455	0.51
436.658	0.57
436.861	0.68
437.063	0.52
437.266	0.54
437.468	0.56
437.671	0.73
437.874	0.59
438.076	0.53
438.279	0.56
438.481	0.66
438.684	0.65
438.886	0.62
439.089	0.59
439.291	0.68
439.494	0.73
439.696	0.62
439.899	0.71
440.101	0.81
440.303	0.68
440.506	0.87
440.708	0.76
440.91	0.87
441.113	0.81
441.315	0.84
441.517	0.79
441.72	0.91
441.922	0.85
442.124	0.83
442.326	0.91
442.529	0.97
442.731	0.84
442.933	1.03
443.135	0.87
443.337	0.9
443.539	1.02
443.742	0.93
443.944	0.99
444.146	0.87
444.348	1.01
444.55	0.88
444.752	0.94
444.954	0.98
445.156	0.98
445.358	0.96
445.56	1.1
445.762	1.03
445.964	1.04
446.166	0.98
446.368	1.02
446.57	1.08
446.772	1.01
446.974	1.01
447.175	0.98
447.377	1.02
447.579	1
447.781	1
447.983	1.07
448.184	0.98
448.386	1.02
448.588	0.92
448.79	0.95
448.991	0.98
449.193	0.99
449.395	0.94
449.597	0.98
449.798	0.93
450	0.92
450.202	0.9
450.403	0.9
450.605	0.94
450.806	0.85
451.008	0.75
451.21	0.84
451.411	0.81
451.613	0.8
451.814	0.81
452.016	0.85
452.217	0.74
452.419	0.81
452.62	0.75
452.821	0.73
453.023	0.8
453.224	0.71
453.426	0.63
453.627	0.66
453.828	0.69
454.03	0.6
454.231	0.59
454.432	0.56
454.634	0.67
454.835	0.49
455.036	0.53
455.238	0.56
455.439	0.58
455.64	0.46
455.841	0.45
456.042	0.59
456.244	0.49
456.445	0.38
456.646	0.33
456.847	0.43
457.048	0.47
457.249	0.47
457.45	0.67
457.651	0.32
457.852	0.38
458.054	0.38
458.255	0.34
458.456	0.35
458.657	0.39
458.858	0.3
459.058	0.32
459.259	0.35
459.46	0.37
459.661	0.31
459.862	0.47
460.063	0.3
460.264	0.32
460.465	0.22
460.666	0.4
460.866	0.28
461.067	0.3
461.268	0.26
461.469	0.26
461.67	0.24
461.87	0.25
462.071	0.25
462.272	0.23
462.473	0.23
462.673	0.29
462.874	0.21
463.075	0.25
463.275	0.21
463.476	0.31
463.676	0.21
463.877	0.26
464.078	0.24
464.278	0.28
464.479	0.24
464.679	0.18
464.88	0.24
465.08	0.27
465.281	0.18
465.481	0.19
465.682	0.19
465.882	0.25
466.083	0.2
466.283	0.24
466.483	0.18
466.684	0.16
466.884	0.13
467.085	0.16
467.285	0.13
467.485	0.14
467.686	0.17
467.886	0.15
468.086	0.12
468.286	0.17
468.487	0.18
468.687	0.11
468.887	0.14
469.087	0.17
469.287	0.16
469.488	0.1
469.688	0.16
469.888	0.2
470.088	0.18
470.288	0.18
470.488	0.19
470.688	0.06
470.888	0.12
471.088	0.08
471.288	0.15
471.488	0.16
471.688	0.11
471.888	0.09
472.088	0.21
472.288	0.12
472.488	0.11
472.688	0.07
472.888	0.13
473.088	0.15
473.288	0.12
473.488	0.1
473.688	0.14
473.887	0.1
474.087	0.04
474.287	0.12
474.487	0.08
474.687	0.16
474.886	0.09
475.086	0.07
475.286	0.13
475.486	0.14
475.685	0.09
475.885	0.1
476.085	0.12
476.284	0.15
476.484	0.07
476.684	0.14
476.883	0.11
477.083	0.12
477.282	0.07
477.482	0.16
477.681	0.12
477.881	0.09
478.08	0.08
478.28	0.05
478.479	0.11
478.679	0.13
478.878	0.04
479.078	0.06
479.277	0.07
479.477	0.09
479.676	0.11
479.875	0.08
480.075	0.02
480.274	0.11
480.473	0.11
480.673	0.06
480.872	0.13
481.071	0.12
481.271	0.11
481.47	0.07
481.669	0.07
481.868	0.08
482.067	0.06
482.267	0.1
482.466	0.05
482.665	0.07
482.864	0.04
483.063	0.06
483.262	0.13
483.461	0.13
483.661	0.13
483.86	0.1
484.059	0.12
484.258	0.07
484.457	0.09
484.656	0.08
484.855	0.12
485.054	0.06
485.253	0.05
485.452	0.05
485.651	0.09
485.849	0.1
486.048	0.06
486.247	0.09
486.446	0.09
486.645	0.09
486.844	0.08
487.043	0.1
487.241	0.11
487.44	0.06
487.639	0.08
487.838	0.11
488.037	0.11
488.235	0.13
488.434	0.1
488.633	0.07
488.831	0.14
489.03	0.12
489.229	0.13
489.427	0.1
489.626	0.14
489.825	0.17
490.023	0.09
490.222	0.1
490.42	0.14
490.619	0.14
490.817	0.15
491.016	0.12
491.214	0.13
491.413	0.1
491.611	0.09
491.81	0.11
492.008	0.16
492.207	0.14
492.405	0.13
492.604	0.08
492.802	0.09
493	0.11
493.199	0.11
493.397	0.1
493.595	0.13
493.794	0.14
493.992	0.17
494.19	0.13
494.388	0.15
494.587	0.11
494.785	0.13
494.983	0.11
495.181	0.16
495.379	0.13
495.578	0.13
495.776	0.16
495.974	0.15
496.172	0.13
496.37	0.17
496.568	0.14
496.766	0.13
496.964	0.17
497.162	0.15
497.36	0.13
497.558	0.17
497.756	0.19
497.954	0.15
498.152	0.17
498.35	0.18
498.548	0.17
498.746	0.16
498.944	0.14
499.142	0.15
499.34	0.16
499.538	0.19
499.736	0.16
499.933	0.21
500.131	0.23
500.329	0.2
500.527	0.21
500.725	0.21
500.922	0.21
501.12	0.22
501.318	0.2
501.516	0.18
501.713	0.22
501.911	0.2
502.109	0.17
502.306	0.24
502.504	0.22
502.701	0.21
502.899	0.21
503.097	0.28
503.294	0.24
503.492	0.23
503.689	0.23
503.887	0.24
504.084	0.28
504.282	0.22
504.479	0.19
504.677	0.27
504.874	0.22
505.072	0.24
505.269	0.25
505.466	0.27
505.664	0.25
505.861	0.2
506.059	0.24
506.256	0.29
506.453	0.24
506.651	0.32
506.848	0.29
507.045	0.27
507.242	0.27
507.44	0.25
507.637	0.27
507.834	0.26
508.031	0.31
508.229	0.26
508.426	0.26
508.623	0.31
508.82	0.26
509.017	0.27
509.214	0.27
509.411	0.29
509.608	0.27
509.805	0.32
510.003	0.28
510.2	0.29
510.397	0.33
510.594	0.29
510.791	0.29
510.988	0.31
511.184	0.33
511.381	0.32
511.578	0.3
511.775	0.34
511.972	0.3
512.169	0.32
512.366	0.29
512.563	0.34
512.76	0.32
512.956	0.37
513.153	0.3
513.35	0.34
513.547	0.3
513.744	0.33
513.94	0.3
514.137	0.36
514.334	0.35
514.53	0.34
514.727	0.35
514.924	0.4
515.12	0.34
515.317	0.34
515.514	0.34
515.71	0.33
515.907	0.37
516.103	0.35
516.3	0.4
516.497	0.38
516.693	0.39
516.89	0.35
517.086	0.34
517.283	0.44
517.479	0.35
517.676	0.36
517.872	0.37
518.068	0.38
518.265	0.38
518.461	0.36
518.658	0.36
518.854	0.39
519.05	0.4
519.247	0.39
519.443	0.4
519.639	0.42
519.836	0.37
520.032	0.38
520.228	0.37
520.424	0.43
520.621	0.41
520.817	0.4
521.013	0.41
521.209	0.43
521.405	0.45
521.601	0.38
521.798	0.41
521.994	0.45
522.19	0.4
522.386	0.36
522.582	0.42
522.778	0.39
522.974	0.38
523.17	0.41
523.366	0.39
523.562	0.42
523.758	0.39
523.954	0.4
524.15	0.39
524.346	0.43
524.542	0.39
524.738	0.4
524.934	0.4
525.129	0.42
525.325	0.41
525.521	0.4
525.717	0.43
525.913	0.4
526.109	0.4
526.304	0.41
526.5	0.44
526.696	0.46
526.892	0.41
527.087	0.44
527.283	0.39
527.479	0.44
527.674	0.4
527.87	0.42
528.066	0.44
528.261	0.44
528.457	0.44
528.653	0.44
528.848	0.41
529.044	0.45
529.239	0.41
529.435	0.43
529.63	0.42
529.826	0.47
530.021	0.45
530.217	0.45
530.412	0.41
530.608	0.41
530.803	0.42
530.999	0.43
531.194	0.4
531.389	0.44
531.585	0.39
531.78	0.44
531.975	0.45
532.171	0.47
532.366	0.39
532.561	0.44
532.757	0.43
532.952	0.45
533.147	0.46
533.342	0.44
533.538	0.41
533.733	0.48
533.928	0.41
534.123	0.43
534.318	0.42
534.513	0.43
534.709	0.42
534.904	0.43
535.099	0.44
535.294	0.45
535.489	0.43
535.684	0.45
535.879	0.42
536.074	0.47
536.269	0.42
536.464	0.46
536.659	0.42
536.854	0.44
537.049	0.44
537.244	0.46
537.439	0.44
537.634	0.48
537.828	0.45
538.023	0.45
538.218	0.41
538.413	0.45
538.608	0.43
538.803	0.45
538.997	0.4
539.192	0.48
539.387	0.46
539.582	0.48
539.776	0.45
539.971	0.44
540.166	0.44
540.36	0.43
540.555	0.44
540.75	0.46
540.944	0.43
541.139	0.42
541.334	0.45
541.528	0.47
541.723	0.5
541.917	0.43
542.112	0.41
542.306	0.42
542.501	0.43
542.695	0.47
542.89	0.42
543.084	0.45
543.279	0.44
543.473	0.46
543.668	0.45
543.862	0.44
544.056	0.45
544.251	0.45
544.445	0.47
544.64	0.44
544.834	0.39
545.028	0.44
545.222	0.43
545.417	0.47
545.611	0.45
545.805	0.5
546	0.42
546.194	0.44
546.388	0.41
546.582	0.46
546.776	0.44
546.97	0.43
547.165	0.46
547.359	0.47
547.553	0.44
547.747	0.46
547.941	0.46
548.135	0.44
548.329	0.49
548.523	0.47
548.717	0.45
548.911	0.45
549.105	0.43
549.299	0.44
549.493	0.48
549.687	0.44
549.881	0.47
550.075	0.43
550.269	0.43
550.463	0.46
550.657	0.45
550.85	0.44
551.044	0.42
551.238	0.45
551.432	0.42
551.626	0.43
551.82	0.47
552.013	0.41
552.207	0.47
552.401	0.48
552.594	0.43
552.788	0.47
552.982	0.44
553.176	0.41
553.369	0.45
553.563	0.45
553.756	0.42
553.95	0.41
554.144	0.46
554.337	0.47
554.531	0.45
554.724	0.46
554.918	0.42
555.111	0.49
555.305	0.47
555.498	0.5
555.692	0.47
555.885	0.44
556.079	0.46
556.272	0.43
556.466	0.45
556.659	0.46
556.852	0.45
557.046	0.45
557.239	0.48
557.432	0.43
557.626	0.43
557.819	0.46
558.012	0.5
558.206	0.5
558.399	0.44
558.592	0.48
558.785	0.45
558.979	0.47
559.172	0.46
559.365	0.47
559.558	0.47
559.751	0.43
559.944	0.46
560.138	0.41
560.331	0.43
560.524	0.43
560.717	0.45
560.91	0.48
561.103	0.46
561.296	0.45
561.489	0.5
561.682	0.45
561.875	0.47
562.068	0.48
562.261	0.47
562.454	0.49
562.647	0.43
562.84	0.46
563.032	0.45
563.225	0.48
563.418	0.46
563.611	0.45
563.804	0.43
563.997	0.41
564.19	0.42
564.382	0.42
564.575	0.43
564.768	0.45
564.961	0.44
565.153	0.47
565.346	0.48
565.539	0.49
565.731	0.46
565.924	0.51
566.117	0.46
566.309	0.46
566.502	0.46
566.695	0.44
566.887	0.48
567.08	0.45
567.272	0.44
567.465	0.43
567.657	0.46
567.85	0.48
568.042	0.46
568.235	0.46
568.427	0.45
568.62	0.43
568.812	0.45
569.005	0.45
569.197	0.41
569.389	0.46
569.582	0.48
569.774	0.43
569.966	0.42
570.159	0.41
570.351	0.43
570.543	0.44
570.736	0.44
570.928	0.43
571.12	0.47
571.312	0.45
571.505	0.4
571.697	0.47
571.889	0.44
572.081	0.46
572.273	0.43
572.465	0.46
572.658	0.44
572.85	0.45
573.042	0.42
573.234	0.43
573.426	0.46
573.618	0.43
573.81	0.42
574.002	0.46
574.194	0.47
574.386	0.38
574.578	0.38
574.77	0.42
574.962	0.45
575.154	0.41
575.346	0.43
575.538	0.45
575.729	0.41
575.921	0.44
576.113	0.42
576.305	0.49
576.497	0.42
576.689	0.42
576.88	0.41
577.072	0.48
577.264	0.44
577.456	0.42
577.647	0.36
577.839	0.45
578.031	0.48
578.223	0.41
578.414	0.39
578.606	0.43
578.798	0.42
578.989	0.43
579.181	0.44
579.372	0.43
579.564	0.41
579.755	0.44
579.947	0.44
580.139	0.43
580.33	0.4
580.522	0.41
580.713	0.38
580.905	0.43
581.096	0.42
581.287	0.45
581.479	0.44
581.67	0.46
581.862	0.43
582.053	0.4
582.244	0.39
582.436	0.4
582.627	0.42
582.818	0.39
583.01	0.37
583.201	0.47
583.392	0.43
583.583	0.44
583.775	0.38
583.966	0.4
584.157	0.45
584.348	0.43
584.54	0.38
584.731	0.44
584.922	0.37
585.113	0.4
585.304	0.44
585.495	0.43
585.686	0.41
585.877	0.45
586.068	0.43
586.259	0.47
586.45	0.42
586.641	0.4
586.832	0.37
587.023	0.41
587.214	0.4
587.405	0.43
587.596	0.41
587.787	0.42
587.978	0.44
588.169	0.36
588.36	0.41
588.551	0.41
588.742	0.4
588.932	0.45
589.123	0.38
589.314	0.44
589.505	0.43
589.696	0.41
589.886	0.38
590.077	0.39
590.268	0.42
590.458	0.38
590.649	0.35
590.84	0.41
591.03	0.37
591.221	0.4
591.412	0.34
591.602	0.42
591.793	0.43
591.984	0.38
592.174	0.4
592.365	0.49
592.555	0.38
592.746	0.39
592.936	0.44
593.127	0.43
593.317	0.44
593.508	0.4
593.698	0.38
593.889	0.4
594.079	0.36
594.269	0.39
594.46	0.4
594.65	0.38
594.84	0.37
595.031	0.35
595.221	0.34
595.411	0.3
595.602	0.41
595.792	0.38
595.982	0.36
596.172	0.43
596.363	0.37
596.553	0.4
596.743	0.38
596.933	0.35
597.123	0.39
597.314	0.35
597.504	0.39
597.694	0.43
597.884	0.36
598.074	0.37
598.264	0.37
598.454	0.36
598.644	0.36
598.834	0.39
599.024	0.3
599.214	0.35
599.404	0.41
599.594	0.33
599.784	0.34
599.974	0.39
600.164	0.38
600.354	0.35
600.544	0.32
600.734	0.35
600.924	0.39
601.114	0.35
601.303	0.34
601.493	0.35
601.683	0.33
601.873	0.39
602.063	0.31
602.252	0.36
602.442	0.28
602.632	0.32
602.821	0.32
603.011	0.37
603.201	0.31
603.39	0.31
603.58	0.33
603.77	0.34
603.959	0.38
604.149	0.35
604.339	0.34
604.528	0.39
604.718	0.4
604.907	0.34
605.097	0.34
605.286	0.29
605.476	0.36
605.665	0.35
605.855	0.3
606.044	0.35
606.234	0.37
606.423	0.33
606.612	0.29
606.802	0.36
606.991	0.36
607.181	0.35
607.37	0.3
607.559	0.32
607.749	0.3
607.938	0.33
608.127	0.25
608.316	0.31
608.506	0.35
608.695	0.33
608.884	0.31
609.073	0.32
609.263	0.32
609.452	0.33
609.641	0.33
609.83	0.27
610.019	0.35
610.208	0.27
610.397	0.32
610.586	0.33
610.775	0.3
610.965	0.29
611.154	0.28
611.343	0.32
611.532	0.28
611.721	0.28
611.91	0.28
612.099	0.35
612.287	0.28
612.476	0.28
612.665	0.34
612.854	0.31
613.043	0.33
613.232	0.3
613.421	0.26
613.61	0.29
613.798	0.27
613.987	0.34
614.176	0.3
614.365	0.31
614.554	0.32
614.742	0.31
614.931	0.26
615.12	0.35
615.309	0.26
615.497	0.29
615.686	0.3
615.875	0.29
616.063	0.29
616.252	0.29
616.44	0.26
616.629	0.25
616.818	0.28
617.006	0.29
617.195	0.25
617.383	0.29
617.572	0.28
617.76	0.26
617.949	0.26
618.137	0.27
618.326	0.3
618.514	0.23
618.703	0.24
618.891	0.32
619.079	0.22
619.268	0.29
619.456	0.25
619.644	0.3
619.833	0.25
620.021	0.24
620.209	0.21
620.398	0.29
620.586	0.28
620.774	0.28
620.962	0.28
621.151	0.31
621.339	0.24
621.527	0.2
621.715	0.2
621.903	0.22
622.092	0.22
622.28	0.26
622.468	0.27
622.656	0.24
622.844	0.26
623.032	0.24
623.22	0.21
623.408	0.26
623.596	0.28
623.784	0.27
623.972	0.22
624.16	0.21
624.348	0.24
624.536	0.23
624.724	0.21
624.912	0.24
625.1	0.26
625.288	0.22
625.476	0.2
625.664	0.25
625.851	0.22
626.039	0.23
626.227	0.27
626.415	0.22
626.603	0.18
626.79	0.25
626.978	0.24
627.166	0.26
627.354	0.25
627.541	0.22
627.729	0.15
627.917	0.24
628.104	0.27
628.292	0.24
628.48	0.18
628.667	0.19
628.855	0.25
629.042	0.24
629.23	0.18
629.418	0.19
629.605	0.2
629.793	0.2
629.98	0.19
630.168	0.19
630.355	0.17
630.543	0.22
630.73	0.23
630.917	0.23
631.105	0.26
631.292	0.22
631.48	0.23
631.667	0.26
631.854	0.24
632.042	0.24
632.229	0.16
632.416	0.2
632.604	0.21
632.791	0.18
632.978	0.23
633.165	0.19
633.353	0.27
633.54	0.23
633.727	0.13
633.914	0.18
634.101	0.22
634.289	0.26
634.476	0.16
634.663	0.16
634.85	0.2
635.037	0.17
635.224	0.11
635.411	0.23
635.598	0.2
635.785	0.19
635.972	0.2
636.159	0.21
636.346	0.16
636.533	0.2
636.72	0.16
636.907	0.16
637.094	0.18
637.281	0.19
637.468	0.19
637.655	0.14
637.842	0.21
638.029	0.17
638.215	0.18
638.402	0.19
638.589	0.16
638.776	0.15
638.963	0.16
639.149	0.21
639.336	0.25
639.523	0.17
639.709	0.15
639.896	0.19
640.083	0.21
640.27	0.19
640.456	0.14
640.643	0.19
640.829	0.14
641.016	0.14
641.203	0.12
641.389	0.21
641.576	0.18
641.762	0.16
641.949	0.14
642.135	0.18
642.322	0.2
642.508	0.12
642.695	0.17
642.881	0.14
643.068	0.12
643.254	0.16
643.441	0.2
643.627	0.13
643.813	0.13
644	0.2
644.186	0.1
644.372	0.12
644.559	0.2
644.745	0.16
644.931	0.13
645.118	0.16
645.304	0.16
645.49	0.12
645.676	0.13
645.862	0.14
646.049	0.19
646.235	0.15
646.421	0.21
646.607	0.2
646.793	0.14
646.979	0.1
647.165	0.12
647.352	0.15
647.538	0.19
647.724	0.12
647.91	0.16
648.096	0.19
648.282	0.16
648.468	0.13
648.654	0.11
648.84	0.15
649.026	0.09
649.212	0.16
649.397	0.11
649.583	0.09
649.769	0.16
649.955	0.16
650.141	0.13
650.327	0.16
650.513	0.12
650.698	0.13
650.884	0.09
651.07	0.12
651.256	0.15
651.442	0.13
651.627	0.13
651.813	0.14
651.999	0.12
652.184	0.09
652.37	0.11
652.556	0.09
652.741	0.16
652.927	0.04
653.113	0.12
653.298	0.11
653.484	0.14
653.669	0.07
653.855	0.13
654.04	0.14
654.226	0.13
654.412	0.11
654.597	0.1
654.782	0.11
654.968	0.15
655.153	0.13
655.339	0.11
655.524	0.1
655.71	0.13
655.895	0.11
656.08	0.1
656.266	0.14
656.451	0.1
656.636	0.09
656.822	0.1
657.007	0.08
657.192	0.09
657.378	0.06
657.563	0.1
657.748	0.12
657.933	0.1
658.118	0.09
658.304	0.07
658.489	0.14
658.674	0.12
658.859	0.06
659.044	0.12
659.229	0.09
659.414	0.09
659.599	0.09
659.785	0.07
659.97	0.06
660.155	0.1
660.34	0.1
660.525	0.12
660.71	0.1
660.895	0.13
661.08	0.05
661.264	0.08
661.449	0.15
661.634	0.14
661.819	0.14
662.004	0.11
662.189	-0.02
662.374	0.08
662.559	0.06
662.743	0.05
662.928	0.1
663.113	0.1
663.298	0.01
663.483	0.09
663.667	0.1
663.852	0.05
664.037	0.11
664.221	0.02
664.406	0.12
664.591	0.07
664.775	0.1
664.96	0.09
665.145	0.1
665.329	0.11
665.514	0.06
665.698	0.08
665.883	0.02
666.068	0.13
666.252	0.13
666.437	0.06
666.621	0.07
666.806	0.13
666.99	0.08
667.174	0.07
667.359	0.15
667.543	0.07
667.728	0.08
667.912	0.01
668.096	0.11
668.281	0.06
668.465	0.08
668.649	0.07
668.834	0.07
669.018	0.05
669.202	0.07
669.387	0.04
669.571	0.12
669.755	0.06
669.939	0.08
670.124	0.09
670.308	0.09
670.492	0.09
670.676	0.05
670.86	0.06
671.044	0.03
671.228	0.05
671.413	0.02
671.597	0.05
671.781	0.04
671.965	0.1
672.149	0.03
672.333	0.06
672.517	0.05
672.701	0.09
672.885	0.04
673.069	0.02
673.253	0.15
673.437	0.06
673.621	0.01
673.804	0.07
673.988	0.05
674.172	0.07
674.356	0.04
674.54	0.04
674.724	0.14
674.908	0.1
675.091	0.09
675.275	0.05
675.459	0.11
675.643	0.04
675.826	0.11
676.01	0.06
676.194	0.06
676.377	0.1
676.561	0.06
676.745	0.07
676.928	0.11
677.112	0.09
677.296	0.02
677.479	0.02
677.663	0.04
677.846	0.08
678.03	0.05
678.213	0.06
678.397	0.05
678.58	0.01
678.764	0.06
678.947	0.02
679.131	-0.01
679.314	0.11
679.498	0.03
679.681	0.09
679.865	0.11
680.048	0.05
680.231	0.05
680.415	0.06
680.598	0.04
680.781	0.04
680.965	0.03
681.148	0.08
681.331	0.07
681.514	0.04
681.698	0.06
681.881	0.08
682.064	0.08
682.247	0.06
682.43	-0.01
682.614	0.05
682.797	0.12
682.98	0.06
683.163	-0.02
683.346	0.08
683.529	0.04
683.712	0
683.895	0.09
684.078	0.01
684.261	0.02
684.444	0.1
684.627	0.08
684.81	-0.02
684.993	0.01
685.176	0.07
685.359	0.01
685.542	0.01
685.725	0.08
685.908	0.07
686.091	0.01
686.274	0.07
686.457	0.08
686.639	0.03
686.822	0.05
687.005	0.04
687.188	0.07
687.371	0.08
687.553	0.03
687.736	0.02
687.919	0.12
688.102	0.11
688.284	-0.01
688.467	0.02
688.65	0.05
688.832	-0.02
689.015	0.03
689.197	0
689.38	0.17
689.563	0.14
689.745	0.01
689.928	-0
690.11	0.01
690.293	0.09
690.475	-0
690.658	0.04
690.84	0.02
691.023	0.05
691.205	0.01
691.388	0.09
691.57	0.08
691.752	0.11
691.935	-0.05
692.117	-0
692.3	0.07
692.482	0.02
692.664	0.04
692.847	0.08
693.029	0.09
693.211	0.06
693.393	0.04
693.576	0
693.758	0.01
693.94	-0.02
694.122	-0.01
694.304	0.01
694.487	0.01
694.669	0.05
694.851	-0.02
695.033	0.04
695.215	0.02
695.397	0.03
695.579	0.04
695.761	-0.01
695.943	-0.03
696.125	0.11
696.308	0.09
696.49	-0.04
696.671	0.15
696.853	0.03
697.035	0.11
697.217	0.02
697.399	0.06
697.581	-0
697.763	0.01
697.945	-0.05
698.127	0.06
698.309	0.09
698.491	0.05
698.672	0.05
698.854	0.07
699.036	0.1
699.218	0
699.399	0.04
699.581	0.05
699.763	0.01
699.945	-0.02
700.126	-0.04
700.308	-0.02
700.49	0.05
700.671	-0.01
700.853	-0.03
701.035	0.03
701.216	0.01
701.398	-0.03
701.579	0.04
701.761	0.04
701.943	-0.03
702.124	0.01
702.306	0.04
702.487	0.12
702.669	0.01
702.85	0.02
703.031	-0.02
703.213	0.11
703.394	0.07
703.576	0.01
703.757	0.1
703.938	0.06
704.12	0.25
704.301	0.07
704.483	-0.04
704.664	0.09
704.845	0.1
705.026	0.02
705.208	0.02
705.389	0.03
705.57	0.02
705.751	-0.04
705.933	0.05
706.114	0.06
706.295	-0.03
706.476	-0.08
706.657	0.07
706.838	-0.03
707.02	0.06
707.201	0.02
707.382	0.06
707.563	0.06
707.744	-0.01
707.925	-0.02
708.106	-0.03
708.287	0.08
708.468	0.12
708.649	0.04
708.83	0.12
709.011	-0.02
709.192	0.05
709.373	-0.02
709.554	0.02
709.734	0.02
709.915	0.05
710.096	0.01
710.277	-0.09
710.458	0.04
710.639	0.09
710.819	-0.13
711	0.03
711.181	0.1
711.362	0.07
711.542	0.07
711.723	-0.08
711.904	0.15
712.085	0.05
712.265	0.01
712.446	-0.02
712.627	-0.04
712.807	0.04
712.988	-0
713.168	-0.06
713.349	0.02
713.53	-0.19
713.71	-0.03
713.891	-0.07
714.071	-0.03
714.252	-0.04
714.432	0.03
714.613	-0.09
714.793	0.02
714.974	0.09
715.154	0.03
715.334	0.07
715.515	0.07
715.695	-0.1
715.876	0.02
716.056	-0.01
716.236	0.02
716.417	0.01
716.597	0.01
716.777	0.12
716.957	0.03
717.138	-0.01
717.318	-0
717.498	-0.04
717.678	0.06
717.859	0.03
718.039	-0.06
718.219	0.07
718.399	0.05
718.579	-0.04
718.759	-0.12
718.939	0.05
719.12	0.05
719.3	0
719.48	-0.11
719.66	-0.04
719.84	0.02
720.02	0
720.2	-0.03
720.38	0.02
720.56	0.17
720.74	-0.06
720.92	0.07
721.1	0.07
721.279	0.13
721.459	0.06
721.639	-0.06
721.819	0.04
721.999	-0.05
722.179	0.16
722.359	-0.05
722.538	-0
722.718	-0.01
722.898	-0.09
723.078	-0.02
723.257	-0.08
723.437	-0.02
723.617	-0.08
723.797	0.03
723.976	-0.03
724.156	-0
724.336	0.08
724.515	0.13
724.695	-0.11
724.874	-0.01
725.054	0.06
725.234	-0.04
725.413	0.01
725.593	-0.02
725.772	-0.01
725.952	-0.04
726.131	-0
726.311	-0.01
726.49	0.02
726.67	-0.07
726.849	-0.08
727.028	0.04
727.208	-0.01
727.387	0.01
727.567	-0.09
727.746	-0.02
727.925	0.01
728.105	-0.1
728.284	-0.04
728.463	-0.04
728.643	0.05
728.822	-0.1
729.001	-0.04
729.18	0
729.359	0.09
729.539	-0.04
729.718	-0.06
729.897	0.03
730.076	-0.04
730.255	-0.04
730.434	0.06
730.614	0.02
730.793	0.09
730.972	0.03
731.151	0.02
731.33	0.04
731.509	0.01
731.688	0.04
731.867	-0.08
732.046	-0.11
732.225	0.22
732.404	-0.09
732.583	-0.13
732.762	0.06
732.941	0.06
733.12	0.06
733.298	-0.1
733.477	0.07
733.656	-0.03
733.835	-0.17
734.014	0.02
734.193	-0.04
734.371	0.11
734.55	-0
734.729	-0.09
734.908	0.02
735.086	0.13
735.265	0.06
735.444	-0.12
735.623	-0.01
735.801	-0.06
735.98	-0
736.159	-0.03
736.337	0.11
736.516	-0.16
736.694	0.04
736.873	-0
737.052	0.15
737.23	0.15
737.409	0.03
737.587	0.16
737.766	-0.23
737.944	-0.08
738.123	-0.07
738.301	0.06
738.479	-0.03
738.658	0.06
738.836	-0.26
739.015	0.02
739.193	0.11
739.371	-0.16
739.55	-0.08
739.728	-0.11
739.906	0.13
740.085	0.06
740.263	0.03
740.441	-0.13
740.62	0.08
740.798	0.09
740.976	-0.11
741.154	-0.12
741.332	0.16
741.511	-0.03
741.689	0.04
741.867	0.11
742.045	-0.03
742.223	-0.14
742.401	-0.06
742.579	0.03
742.757	0.07
742.935	-0.1
743.114	-0.04
743.292	-0.07
743.47	-0.05
743.648	0.01
743.826	-0.1
744.004	0.18
744.181	0.08
744.359	-0.02
744.537	-0.05
744.715	-0.04
744.893	-0.02
745.071	-0.07
745.249	-0.1
745.427	-0.01
745.605	0.01
745.782	0.08
745.96	0.09
746.138	0.02
746.316	0.03
746.493	0.01
746.671	0.02
746.849	-0.05
747.027	0.09
747.204	-0
747.382	-0.08
747.56	-0.06
747.737	0.01
747.915	-0.02
748.093	0.02
748.27	-0.09
748.448	-0.03
748.625	-0.12
748.803	-0.02
748.98	0.08
749.158	-0
749.335	0.06
749.513	-0.08
749.69	-0.01
749.868	-0.09
750.045	0.09
750.223	-0.06
750.4	-0.25
750.578	0.12
750.755	0
750.932	-0.1
751.11	0.09
751.287	-0.15
751.464	0.18
751.642	-0.09
751.819	0.08
751.996	0.11
752.173	0.06
752.351	-0.16
752.528	0.1
752.705	-0.02
752.882	0.01
753.06	-0.06
753.237	0.09
753.414	0.16
753.591	0.19
753.768	0.05
753.945	-0.15
754.122	-0.04
754.299	0.03
754.476	-0.18
754.654	0.04
754.831	0
755.008	0.03
755.185	-0.05
755.362	-0.07
755.539	0.07
755.716	-0.14
755.892	-0.06
756.069	-0.07
756.246	-0.06
756.423	-0.13
756.6	0.18
756.777	-0.02
756.954	0.09
757.131	-0.15
757.307	-0.19
757.484	-0.12
757.661	-0.07
757.838	-0
758.015	-0.12
758.191	0.13
758.368	-0.12
758.545	0.13
758.721	0.12
758.898	-0.12
759.075	0.02
759.251	0.04
759.428	0.1
759.605	-0.24
759.781	-0.08
759.958	0.02
760.134	0.01
760.311	0.09
760.488	0.2
760.664	0.09
760.841	-0.03
761.017	-0.11
761.194	0
761.37	0.07
761.547	0.01
761.723	-0.02
761.899	0.15
762.076	-0.05
762.252	-0.04
762.429	-0
762.605	0.02
762.781	-0.04
762.958	0.05
763.134	-0.05
763.31	-0.15
763.486	0.11
763.663	-0.15
763.839	0.17
764.015	-0.13
764.191	-0.13
764.368	-0.04
764.544	-0.04
764.72	0.08
764.896	0.02
765.072	0.08
765.248	0.03
765.425	0.1
765.601	0.06
765.777	0.08
765.953	-0.22
766.129	-0.06
766.305	-0.07
766.481	0.04
766.657	0.02
766.833	0.24
767.009	-0.16
767.185	-0.08
767.361	-0.03
767.537	-0.04
767.713	0.2
767.889	-0.12
768.065	0.04
768.24	-0.21
768.416	0.08
768.592	-0.02
768.768	-0.06
768.944	0.03
769.12	-0.19
769.295	-0.01
769.471	0.02
769.647	0.06
769.823	0.17
769.998	-0.1
770.174	-0.12
770.35	0.35
770.525	0.27
770.701	0.14
770.877	-0.02
771.052	-0.06
771.228	0.16
771.403	-0.01
771.579	0.13
771.755	0.1
771.93	-0.07
772.106	-0.09
772.281	-0.29
772.457	0.03
772.632	0.01
772.808	-0.24
772.983	-0.15
773.159	-0.18
773.334	0.17
773.509	0.03
773.685	-0.03
773.86	0.32
774.036	0.14
774.211	0.08
774.386	-0.13
774.562	0.02
774.737	-0.08
774.912	-0.21
775.087	0.1
775.263	-0.07
775.438	-0.04
775.613	-0.09
775.788	-0.03
775.964	0.07
776.139	0.41
776.314	-0.14
776.489	0.06
776.664	-0.06
776.839	-0.12
777.014	0.21
777.19	0.01
777.365	0.01
777.54	0.28
777.715	-0.11
777.89	-0.08
778.065	-0.13
778.24	-0.04
778.415	0.04
778.59	-0.16
778.765	-0
778.94	0.16
779.115	-0.03
779.289	0.13
779.464	0.12
779.639	-0.03
779.814	-0.24
779.989	-0.21
780.164	0.03
780.339	0.13
780.513	-0.09
780.688	-0.2
780.863	-0.03
781.038	0.18
781.212	-0.2
781.387	-0.04
781.562	0.29
781.737	-0.09
781.911	0.1
782.086	-0.02
782.261	-0.03
782.435	0.13
782.61	-0.01
782.784	-0.18
782.959	0.28
783.134	-0.05
783.308	-0.05
783.483	-0.05
783.657	0.25
783.832	-0.13
784.006	-0.31
784.181	0.06
784.355	0.16
784.53	-0.29
784.704	-0.03
784.878	0.19
785.053	0.09
785.227	0.29
785.402	0.27
785.576	-0.15
785.75	-0.01
785.925	-0.1
786.099	-0.04
786.273	-0
786.448	0.02
786.622	0.25
786.796	-0.02
786.97	-0.05
787.145	0.45
787.319	-0.53
787.493	-0.01
787.667	-0.39
787.841	0.01
788.015	0.15
788.19	-0.14
788.364	0.07
788.538	0.22
788.712	0.25
788.886	-0.15
789.06	0.19
789.234	0.15
789.408	-0.27
789.582	-0.12
789.756	0.04
789.93	-0.17
790.104	0.05
790.278	-0.04
790.452	-0.2
790.626	0.09
790.8	-0.18
790.973	0.13
791.147	0.28
791.321	0.25
791.495	0.15
791.669	-0.13
791.843	0.12
792.016	0.02
792.19	0.31
792.364	-0.28
792.538	0.42
792.711	0.22
792.885	0.03
793.059	-0.27
793.233	-0.34
793.406	0.35
793.58	-0.01
793.754	-0.05
793.927	0.22
794.101	0.14
794.274	-0.02
794.448	0.4
794.622	-0.31
794.795	0.28
794.969	-0.19
795.142	0.45
795.316	-0.02
795.489	-0.21
795.663	0.28
795.836	0.11
796.009	-0.18
796.183	0.33
796.356	-0.07
796.53	0.14
796.703	-0.17
796.876	0.48
797.05	-0.23
797.223	0.04
797.396	0.03
797.57	0.04
797.743	0.56
797.916	0.01
798.09	-0.23
798.263	0.24
798.436	-0.05
798.609	-0.11
798.782	-0.21
798.956	0.07
799.129	-0.18
799.302	-0.29
799.475	0.04
799.648	-0.38
799.821	0.18
799.994	0.21
800.167	-0.23
800.34	0.06
800.514	-0.01
800.687	-0.18
800.86	-0.5
801.033	-0.02
801.206	0.1
801.379	-0.42
801.551	0.4
801.724	0.38
801.897	0.37
802.07	-0.14
802.243	-0.5
802.416	-0.04
802.589	-0.09
802.762	-0.09
802.935	-0.03
803.107	0.18
803.28	0.2
803.453	0.23
803.626	-0.49
803.798	-0.06
803.971	-0.31
804.144	0.21
804.317	-0.03
804.489	0.13
804.662	0.16
804.835	-0.12
805.007	-0.49
805.18	0.38
805.353	0.16
805.525	-0.36
805.698	-0.26
805.87	0.2
806.043	0.27
806.215	-0.27
806.388	-0.35
806.56	-0.11
806.733	0.31
806.905	-0.07
807.078	-0.31
807.25	-0.29
807.423	0.06
807.595	-0.37
807.768	-0.16
807.94	0.31
808.112	0.02
808.285	0.13
808.457	-0.29
808.629	-0.11
808.802	0.19
808.974	-0.13
809.146	-0.63
809.318	-0.29
809.491	0.13
809.663	0.07
809.835	-0.18
810.007	0.01
810.18	0.04
810.352	-0.29
810.524	-0.25
810.696	0.44
810.868	0.2
811.04	-0.26
811.212	-0.24
811.384	0.28
811.556	0.35
811.728	-0.16
811.901	0.82
812.073	-0.13
812.245	0.4
812.417	-0.04
812.589	-0.58
812.76	0.23
812.932	0.39
813.104	0.32
813.276	-0.03
813.448	0.4
813.62	0.21
813.792	0.21
813.964	-0.17
814.136	0.2
814.307	0.1
814.479	-0.39
814.651	-0.34
814.823	0.82
814.995	-0.12
815.166	-0.18
815.338	0.02
815.51	-0.52
815.681	0.49
815.853	0.54
816.025	-0.15
816.196	0.43
816.368	0.29
816.54	-0.76
816.711	-0.52
816.883	0.13
817.054	0.61
817.226	-0.5
817.398	-0.1
817.569	-0.26
817.741	0.03
817.912	-0.36
818.084	-0.06
818.255	0.33
818.426	-0.4
818.598	-0.01
818.769	-0.54
818.941	0.27
819.112	0.29
819.283	0.3
819.455	-0.22
819.626	-0.04
819.798	0.22
819.969	-0.13
820.14	-0.3
820.311	-0.49
820.483	0.17
820.654	0.26
820.825	-0.26
820.996	-0.05
821.168	-0.51
821.339	-0.04
821.51	-0.25
821.681	1.18
821.852	-0.06
822.023	-0.18
822.195	-0.54
822.366	0.08
822.537	-0.53
822.708	0.27
822.879	-0.22
823.05	0.79
823.221	0.01
823.392	0.52
823.563	0.17
823.734	0.06
823.905	-0.03
824.076	-0.68
824.247	-0.95
824.418	-0.24
824.589	1.08
824.759	-0.23
824.93	-0.15
825.101	-0.84
825.272	0.45
825.443	0.17
825.614	0.6
825.784	-0.87
825.955	0.94
826.126	0.29
826.297	-0.33
826.467	0.98
826.638	0.26
826.809	-0.57
826.98	-0.36
827.15	-0.05
827.321	0.27
827.492	0.8
827.662	-0.07
827.833	0.66
828.003	0.28
828.174	-1
828.345	-0.28
828.515	0.44
828.686	0.78
828.856	-0.24
829.027	0.03
829.197	0.43
829.368	0.34
829.538	0.06
829.709	0.04
829.879	0.09
830.049	-0.08
830.22	-0.64
830.39	0.02
830.56	-0.08
830.731	0.04
830.901	-0.1
831.072	-0.35
831.242	0.06
831.412	-0.15
831.582	0.17
831.753	-1.02
831.923	0.61
832.093	0.18
832.263	-0.07
832.434	-0.18
832.604	-0.13
832.774	-0.26
832.944	-0.17
833.114	-0.5
833.284	0.33
833.454	-0.66
833.624	-0.56
833.795	-0.29
833.965	0.8
834.135	0.92
834.305	-0.88
834.475	-1
834.645	0.02
834.815	-1.17
834.985	-0.48
835.155	-0.75
835.325	0.18
835.494	0.47
835.664	-0.52
835.834	-0.88
836.004	0.55
836.174	-0.06
836.344	0.02
836.514	-0.65
836.684	-0.91
836.853	-0.27
837.023	0.22
837.193	-0.63
837.363	0.75
837.532	0.29
837.702	-0.39
837.872	-0.21
838.041	0.79
838.211	1.32
838.381	-1.43
838.55	-0.15
838.72	1.46
838.89	1.06
839.059	-0.56
839.229	-0.83
839.398	1.26
839.568	-0.09
839.738	-0.57
839.907	0.94
840.077	-0.09
840.246	-1.12
840.416	-0.68
840.585	-0.86
840.755	1.26
840.924	0.79
841.093	-0.06
841.263	0.12
841.432	0.2
841.602	-1.13
841.771	-0.13
841.94	0.7
842.11	1.87
842.279	1.19
842.448	-0.16
842.617	-0.83
842.787	0.88
842.956	-0.4
843.125	0.39
843.294	0.25
843.464	0.36
843.633	-0.53
843.802	-1.07
843.971	0.2
844.14	0.6
844.309	-0.11
844.479	-1.34
844.648	-0.47
844.817	-0.67
844.986	-0.35
845.155	-0.08
845.324	-0.32
845.493	0.1
845.662	-0.73
845.831	0.35
846	0.87
846.169	-0.09
846.338	0.57
846.507	-0.62
846.676	-0.36
846.844	-0.37
847.013	1.31
847.182	-0.18
847.351	-0.52
847.52	-0.23
847.689	0.81
847.858	-0.38
848.026	-0.38
848.195	0.2
848.364	0.25
848.533	-0.35
848.701	-0.71
848.87	0.17
849.039	0.62
849.207	0.87
849.376	0.67
849.545	1.52
849.713	-0.75
849.882	0.12
850.051	0.72
850.219	-0.36
850.388	0.82
850.556	-1.09
850.725	-1.24
850.893	0.46
851.062	0.11
851.23	-0.35
851.399	-1.29
851.567	-0.44
851.736	-1.01
851.904	-1.46
852.073	0.13
852.241	0.31
852.41	-0.1
852.578	0.11
852.746	-1.21
852.915	0.4
853.083	-0.47
853.251	0.17
853.42	-0.92
853.588	-0.11
853.756	-0.01
853.924	0.17
854.093	-0.76
854.261	-0.24
854.429	-1.79
854.597	-1.57
854.765	-0.56
854.934	-0.07
855.102	1.1
855.27	-0.38
855.438	1
855.606	1.46
855.774	1.01
855.942	-1.6
856.11	-2.28
856.278	0.71
856.446	1.86
856.614	0.31
856.782	0.45
856.95	0.99
857.118	0.11
857.286	0.73
857.454	-1.95
857.622	1.16
857.79	0.98
857.958	-0.5
858.126	-0.25
858.294	-1.89
858.462	-1.02
858.629	-0.32
858.797	-1.6
858.965	0.6
859.133	0.89
859.301	0.09
859.468	0.61
859.636	-0.7
859.804	0.48
859.971	2.26
860.139	-0.95
860.307	2.92
860.474	-0.35
860.642	-1.2
860.81	-0.31
860.977	-0.03
861.145	1.05
861.313	-0.35
861.48	-0.62
861.648	0.95
861.815	-0.06
861.983	-1.59
862.15	-0.55
862.318	0.61
862.485	2.47
862.653	-0.36
862.82	-1.54
862.988	0.87
863.155	0.73
863.322	-1.9
863.49	-0.61
863.657	-1.45
863.824	1.71
863.992	0.41
864.159	0.13
864.326	1.79
864.494	-0.21
864.661	3.21
864.828	-1.38
864.996	1.51
865.163	1.71
865.33	-1.4
865.497	-2.08
865.664	-0.42
865.832	-1.63
865.999	-0.99
866.166	-1.76
866.333	-0.68
866.5	-0.35
866.667	-0.76
866.834	0.34
867.001	1.96
867.168	-1.79
867.335	0.56
867.502	-1.12
867.669	-0.45
867.836	3.86
868.003	0.17
868.17	1.9
868.337	-1.02
868.504	2.37
868.671	-1.76
868.838	-1.66
869.005	0.33
869.172	0.8
869.339	0.43
869.505	0.48
869.672	-1.03
869.839	1.17
870.006	-0.13
870.173	-2.64
870.339	-0.48
870.506	2.06
870.673	-0.8
870.84	0.48
871.006	-0.74
871.173	0.09
871.34	0.33
871.506	-1.71
871.673	1.68
871.839	-2.08
872.006	0.94
872.173	-2.03
872.339	0.7
872.506	1.77
872.672	-1.12
872.839	-1.69
873.005	-0.96
873.172	2.59
873.338	0.79
873.505	-1.58
873.671	0.57
873.838	0.42
874.004	-2.18
874.171	-0.79
874.337	0.78
874.503	1.47
874.67	0.58
874.836	-0.85
875.002	1.95
875.169	0.25
875.335	0.32
875.501	-1.85
875.668	-0.84
875.834	-0.43
876	0.01
876.166	0.17
876.332	0.66
876.499	2.18
876.665	-0.1
876.831	-0.59
876.997	2.04
877.163	1.28
877.329	-0.5
877.495	0.87
877.662	-0.8
877.828	0.27
877.994	0.8
878.16	-3.39
878.326	-0.91
878.492	0.88
878.658	-0.67
878.824	-0.16
878.99	-1.63
879.156	0.09
879.322	3.52
879.487	0.78
879.653	0.16
879.819	-0.57
879.985	-1.23
880.151	-0.14
880.317	0.4
880.483	0.1
880.648	1.82
880.814	-2.88
880.98	-0.91
881.146	-3.03
881.312	-2.15
881.477	-0.1
881.643	-0.7
881.809	1.52
881.974	1.93
882.14	-3.67
882.306	0.44
882.471	3.87
882.637	-0.5
882.803	1.19
882.968	2.24
883.134	4.67
883.299	-0.48
883.465	0.22
883.63	0.72
883.796	0.53
883.961	1.33
884.127	-0.1
884.292	-4.8
884.458	-0.8
884.623	-0.8
